timestamps,TP9,AF7,AF8,TP10,Right AUX
1680450271.480,-949.707,-21.973,-30.762,-954.590,0.000
1680450271.484,950.684,-24.414,-28.320,946.777,0.000
1680450271.488,937.012,-19.531,-26.855,942.383,0.000
1680450271.492,978.516,-26.855,-25.879,985.352,0.000
1680450271.496,948.242,-31.738,-25.391,919.434,0.000
1680450271.500,934.082,-28.809,-28.320,-991.699,0.000
1680450271.504,-937.988,-32.715,-28.809,836.914,0.000
1680450271.508,-82.031,-41.016,-31.250,-451.172,0.000
1680450271.512,-1000.000,-43.945,-30.273,-1000.000,0.000
1680450271.516,-1000.000,-39.551,-18.555,-685.547,0.000
1680450271.519,35.156,-31.738,-25.391,600.098,0.000
1680450271.523,-770.996,-26.855,-29.785,-847.168,0.000
1680450271.527,149.902,-33.691,-21.484,25.391,0.000
1680450271.531,-1000.000,-42.480,-27.344,-1000.000,0.000
1680450271.535,-1000.000,-39.062,-29.785,-821.289,0.000
1680450271.539,-2.930,-30.762,-29.785,455.566,0.000
1680450271.543,-799.316,-29.297,-29.785,-795.410,0.000
1680450271.547,500.000,-30.273,-22.949,198.242,0.000
1680450271.551,-819.824,-34.180,-25.391,-978.516,0.000
1680450271.555,-1000.000,-35.645,-31.738,-1000.000,0.000
1680450271.559,-351.074,-32.715,-21.484,-166.992,0.000
1680450271.562,-885.254,-27.832,-20.020,-840.332,0.000
1680450271.566,191.895,-33.203,-28.320,20.996,0.000
1680450271.570,-1000.000,-35.645,-21.484,-1000.000,0.000
1680450271.574,-974.121,-32.715,-20.508,-961.914,0.000
1680450271.578,-973.145,-35.156,-27.832,-982.910,0.000
1680450271.582,-1000.000,-35.645,-33.203,-1000.000,0.000
1680450271.586,-1000.000,-36.621,-29.785,-1000.000,0.000
1680450271.590,-927.246,-37.598,-33.691,-932.129,0.000
1680450271.594,-1000.000,-34.180,-31.250,-1000.000,0.000
1680450271.598,-626.465,-27.344,-26.855,-412.598,0.000
1680450271.601,883.301,-20.996,-29.297,-884.766,0.000
1680450271.605,957.031,-22.949,-20.020,449.219,0.000
1680450271.609,-470.215,-27.344,-21.973,-924.316,0.000
1680450271.613,-1000.000,-28.809,-22.949,-1000.000,0.000
1680450271.617,-1000.000,-30.762,-19.531,-791.504,0.000
1680450271.621,88.379,-25.879,-22.461,669.922,0.000
1680450271.625,-873.535,-21.484,-27.344,699.707,0.000
1680450271.629,-234.863,-24.902,-27.832,-787.598,0.000
1680450271.633,-1000.000,-24.414,-21.484,-1000.000,0.000
1680450271.637,-585.938,-27.344,-27.832,-301.270,0.000
1680450271.641,707.520,-19.531,-30.762,905.273,0.000
1680450271.644,-853.027,-19.531,-29.785,-892.578,0.000
1680450271.648,507.324,-36.133,-26.367,231.934,0.000
1680450271.652,-1000.000,-48.828,-24.414,-1000.000,0.000
1680450271.656,-536.621,-34.180,-25.391,-266.602,0.000
1680450271.660,892.578,-19.531,-23.926,980.957,0.000
1680450271.664,-922.852,-25.391,-34.668,-915.527,0.000
1680450271.668,652.832,-27.344,-36.621,280.762,0.000
1680450271.672,-925.293,-35.645,-32.715,-1000.000,0.000
1680450271.676,-572.754,-33.203,-32.227,-260.742,0.000
1680450271.680,964.355,-21.973,-26.367,-992.188,0.000
1680450271.684,936.035,-30.273,-23.926,983.398,0.000
1680450271.687,-951.660,-37.109,-23.926,795.898,0.000
1680450271.691,113.281,-42.480,-26.367,-539.062,0.000
1680450271.695,-1000.000,-45.410,-24.902,-992.676,0.000
1680450271.699,-128.418,-34.668,-30.273,432.129,0.000
1680450271.703,-788.086,-26.855,-37.598,-811.035,0.000
1680450271.707,189.941,-35.156,-35.645,127.441,0.000
1680450271.711,-1000.000,-39.551,-33.691,-1000.000,0.000
1680450271.715,-966.309,-26.855,-31.738,-563.477,0.000
1680450271.719,262.695,-27.832,-30.273,774.902,0.000
1680450271.723,-786.133,-29.785,-27.832,-847.656,0.000
1680450271.726,436.035,-33.691,-21.973,213.379,0.000
1680450271.730,-861.328,-41.992,-23.926,-983.398,0.000
1680450271.734,-1000.000,-35.645,-28.809,-1000.000,0.000
1680450271.738,-253.906,-30.762,-20.020,-119.629,0.000
1680450271.742,-852.539,-25.879,-14.160,-811.523,0.000
1680450271.746,460.938,-29.785,-24.414,222.168,0.000
1680450271.750,-909.668,-39.551,-24.414,-1000.000,0.000
1680450271.754,-1000.000,-42.969,-23.438,-1000.000,0.000
1680450271.758,-210.449,-36.133,-24.414,-65.430,0.000
1680450271.762,-959.473,-14.648,-25.879,-822.266,0.000
1680450271.766,922.363,-10.254,-32.227,498.047,0.000
1680450271.769,-358.398,-16.113,-41.992,-857.422,0.000
1680450271.773,-1000.000,-14.648,-53.223,-1000.000,0.000
1680450271.777,-154.297,-3.906,-59.570,5.859,0.000
1680450271.781,968.750,14.648,-62.012,-959.473,0.000
1680450271.785,-923.828,15.137,-66.895,979.004,0.000
1680450271.789,233.887,6.348,-74.219,-92.773,0.000
1680450271.793,-1000.000,9.766,-80.078,-1000.000,0.000
1680450271.797,-478.027,22.461,-82.520,-236.816,0.000
1680450271.801,883.789,32.227,-82.520,975.586,0.000
1680450271.805,-882.324,37.598,-85.938,-927.734,0.000
1680450271.809,213.867,28.320,-87.891,98.145,0.000
1680450271.812,-1000.000,5.371,-78.125,-1000.000,0.000
1680450271.816,-507.324,2.930,-70.801,-284.180,0.000
1680450271.820,858.887,13.184,-69.824,974.609,0.000
1680450271.824,-875.488,7.812,-65.430,-926.270,0.000
1680450271.828,313.477,-1.465,-54.688,105.469,0.000
1680450271.832,-1000.000,-4.883,-50.781,-1000.000,0.000
1680450271.836,-534.180,-1.953,-50.781,-280.762,0.000
1680450271.840,868.164,-2.930,-53.223,983.887,0.000
1680450271.844,-870.117,-8.301,-46.875,-943.848,0.000
1680450271.848,180.664,-12.207,-40.039,58.594,0.000
1680450271.851,-1000.000,-14.648,-45.898,-1000.000,0.000
1680450271.855,-1000.000,-15.625,-41.504,-737.305,0.000
1680450271.859,157.715,-7.324,-39.551,573.242,0.000
1680450271.863,-831.543,-5.371,-47.363,-819.336,0.000
1680450271.867,680.664,-13.672,-54.688,285.156,0.000
1680450271.871,-640.625,-20.508,-54.199,-1000.000,0.000
1680450271.875,-1000.000,-19.531,-44.434,-952.148,0.000
1680450271.879,-73.730,-12.207,-42.969,326.660,0.000
1680450271.883,-805.664,-5.859,-43.457,-791.504,0.000
1680450271.887,364.746,-14.160,-36.133,109.863,0.000
1680450271.891,-916.504,-27.344,-37.109,-1000.000,0.000
1680450271.894,-1000.000,-23.438,-39.551,-1000.000,0.000
1680450271.898,-583.008,-11.230,-41.992,-365.234,0.000
1680450271.902,951.172,0.488,-40.527,-872.070,0.000
1680450271.906,729.004,-5.371,-38.086,267.578,0.000
1680450271.910,-738.770,-18.555,-38.086,-1000.000,0.000
1680450271.914,-1000.000,-16.602,-33.691,-1000.000,0.000
1680450271.918,-185.059,-13.672,-29.785,-206.055,0.000
1680450271.922,-992.188,-11.230,-32.227,-854.492,0.000
1680450271.926,-992.188,-15.625,-32.715,544.434,0.000
1680450271.930,-167.480,-25.391,-30.762,-802.734,0.000
1680450271.934,-1000.000,-32.227,-23.926,-1000.000,0.000
1680450271.937,-219.238,-22.461,-23.926,-205.078,0.000
1680450271.941,-998.535,-12.207,-35.156,-877.441,0.000
1680450271.945,-975.586,-17.578,-34.180,615.723,0.000
1680450271.949,-100.098,-24.414,-27.344,-720.215,0.000
1680450271.953,-1000.000,-26.855,-27.832,-1000.000,0.000
1680450271.957,-609.863,-24.414,-30.762,-334.473,0.000
1680450271.961,787.598,-18.066,-30.273,953.125,0.000
1680450271.965,-966.309,-16.113,-30.273,981.934,0.000
1680450271.969,906.738,-17.090,-28.320,926.270,0.000
1680450271.973,998.047,-24.414,-33.691,989.258,0.000
1680450271.976,897.461,-19.531,-32.715,895.996,0.000
1680450271.980,-932.129,-11.719,-20.020,-900.391,0.000
1680450271.984,642.578,-16.602,-32.227,404.785,0.000
1680450271.988,-806.152,-30.273,-50.293,-977.539,0.000
1680450271.992,-1000.000,-24.414,-37.109,-1000.000,0.000
1680450271.996,-938.965,-6.836,-32.715,-955.566,0.000
1680450272.000,-1000.000,-16.602,-45.410,-1000.000,0.000
1680450272.004,-1000.000,-22.949,-44.434,-1000.000,0.000
1680450272.008,-928.223,-21.973,-41.992,-935.059,0.000
1680450272.012,-1000.000,-24.902,-35.645,-1000.000,0.000
1680450272.016,-395.508,-17.578,-32.227,-259.766,0.000
1680450272.019,906.250,-15.137,-31.738,952.637,0.000
1680450272.023,-952.148,-17.578,-30.762,-910.156,0.000
1680450272.027,732.910,-16.602,-30.762,326.172,0.000
1680450272.031,-562.012,-26.855,-29.297,-979.004,0.000
1680450272.035,-1000.000,-27.832,-32.227,-1000.000,0.000
1680450272.039,-189.941,-19.043,-24.414,68.848,0.000
1680450272.043,-922.852,-20.508,-21.973,-800.781,0.000
1680450272.047,822.266,-29.785,-32.715,353.516,0.000
1680450272.051,-509.277,-33.203,-31.250,-969.238,0.000
1680450272.055,-1000.000,-32.715,-28.320,-1000.000,0.000
1680450272.059,-175.781,-33.691,-27.344,69.824,0.000
1680450272.062,-950.684,-27.832,-27.832,-812.012,0.000
1680450272.066,918.945,-28.809,-24.902,454.102,0.000
1680450272.070,-357.422,-35.645,-12.207,-893.555,0.000
1680450272.074,-1000.000,-31.250,-19.043,-1000.000,0.000
1680450272.078,-145.020,-20.020,-28.809,107.910,0.000
1680450272.082,971.680,-16.113,-26.855,-950.684,0.000
1680450272.086,-925.781,-23.926,-27.832,962.891,0.000
1680450272.090,234.863,-30.762,-29.785,-59.570,0.000
1680450272.094,-1000.000,-37.598,-32.715,-1000.000,0.000
1680450272.098,-494.629,-28.809,-30.762,-229.004,0.000
1680450272.101,937.500,-19.043,-31.738,-969.727,0.000
1680450272.105,996.094,-22.949,-35.156,957.031,0.000
1680450272.109,916.016,-22.461,-31.250,936.523,0.000
1680450272.113,987.793,-23.438,-29.785,977.051,0.000
1680450272.117,897.949,-26.367,-26.855,904.297,0.000
1680450272.121,-894.043,-26.855,-27.344,-893.555,0.000
1680450272.125,300.293,-35.645,-28.320,200.684,0.000
1680450272.129,-1000.000,-41.504,-26.855,-1000.000,0.000
1680450272.133,-1000.000,-29.785,-26.855,-986.328,0.000
1680450272.137,-964.355,-21.973,-28.809,-972.168,0.000
1680450272.141,-1000.000,-22.949,-31.738,-1000.000,0.000
1680450272.144,-1000.000,-30.762,-27.344,-1000.000,0.000
1680450272.148,-929.199,-34.180,-27.832,-937.500,0.000
1680450272.152,-1000.000,-33.691,-38.086,-1000.000,0.000
1680450272.156,-386.230,-24.414,-35.645,-227.051,0.000
1680450272.160,974.121,-19.531,-24.902,-963.379,0.000
1680450272.164,979.004,-24.414,-29.785,952.148,0.000
1680450272.168,926.270,-23.926,-39.062,939.941,0.000
1680450272.172,978.027,-26.367,-39.062,974.609,0.000
1680450272.176,977.051,-20.996,-37.598,972.168,0.000
1680450272.180,894.531,-23.926,-35.645,900.879,0.000
1680450272.184,-896.973,-27.832,-32.227,-904.297,0.000
1680450272.187,389.160,-27.344,-32.227,306.152,0.000
1680450272.191,-991.211,-30.273,-33.203,-1000.000,0.000
1680450272.195,-941.895,-27.832,-39.062,-903.809,0.000
1680450272.199,-1000.000,-27.832,-42.480,377.441,0.000
1680450272.203,-131.348,-26.367,-27.344,-805.664,0.000
1680450272.207,746.094,-29.297,-22.949,384.277,0.000
1680450272.211,-702.637,-36.621,-32.227,-881.348,0.000
1680450272.215,-1000.000,-35.156,-27.832,-1000.000,0.000
1680450272.219,-533.203,-30.762,-22.949,-180.176,0.000
1680450272.223,939.941,-26.367,-21.973,-837.402,0.000
1680450272.226,755.859,-29.785,-22.461,426.270,0.000
1680450272.230,-744.629,-35.645,-22.949,-890.625,0.000
1680450272.234,-1000.000,-30.762,-23.438,-1000.000,0.000
1680450272.238,-1000.000,-23.438,-25.391,-516.602,0.000
1680450272.242,33.691,-17.090,-28.809,756.836,0.000
1680450272.246,-807.617,-14.160,-27.344,-888.184,0.000
1680450272.250,597.168,-25.879,-24.902,215.332,0.000
1680450272.254,-794.922,-39.062,-26.367,-976.074,0.000
1680450272.258,-1000.000,-38.086,-30.273,-1000.000,0.000
1680450272.262,-939.941,-35.156,-22.461,-969.238,0.000
1680450272.266,-1000.000,-30.273,-10.254,-989.746,0.000
1680450272.269,-942.871,-30.762,-24.902,-973.633,0.000
1680450272.273,-1000.000,-33.203,-37.109,-1000.000,0.000
1680450272.277,-154.297,-22.949,-30.762,90.332,0.000
1680450272.281,980.957,-24.414,-27.344,-971.680,0.000
1680450272.285,-936.035,-33.691,-27.832,-954.590,0.000
1680450272.289,413.086,-40.527,-27.832,228.027,0.000
1680450272.293,-1000.000,-44.434,-25.879,-1000.000,0.000
1680450272.297,-653.809,-30.762,-20.508,-342.773,0.000
1680450272.301,782.715,-20.996,-20.508,986.328,0.000
1680450272.305,-843.750,-26.367,-23.926,-960.449,0.000
1680450272.309,127.441,-39.062,-20.508,-104.492,0.000
1680450272.312,-993.652,-44.434,-21.973,-1000.000,0.000
1680450272.316,-1000.000,-37.109,-27.832,-1000.000,0.000
1680450272.320,-265.625,-30.273,-24.414,31.738,0.000
1680450272.324,-835.449,-25.879,-26.855,-809.082,0.000
1680450272.328,372.559,-29.297,-28.809,144.531,0.000
1680450272.332,-978.516,-30.762,-24.414,-1000.000,0.000
1680450272.336,-1000.000,-28.320,-23.438,-862.305,0.000
1680450272.340,19.531,-22.461,-22.949,452.148,0.000
1680450272.344,-993.164,-16.113,-20.020,-942.383,0.000
1680450272.348,-937.500,-22.949,-24.414,909.668,0.000
1680450272.351,237.305,-38.086,-28.320,-128.906,0.000
1680450272.355,-1000.000,-42.969,-16.113,-1000.000,0.000
1680450272.359,-268.555,-27.832,-18.555,-84.961,0.000
1680450272.363,-851.562,-21.973,-32.227,-800.781,0.000
1680450272.367,690.918,-26.855,-33.691,361.816,0.000
1680450272.371,-694.824,-27.832,-34.668,-1000.000,0.000
1680450272.375,-1000.000,-28.320,-26.855,-990.723,0.000
1680450272.379,-96.680,-21.973,-26.367,291.016,0.000
1680450272.383,-993.652,-20.508,-25.879,-892.578,0.000
1680450272.387,-969.727,-26.855,-21.973,715.332,0.000
1680450272.391,-30.273,-23.926,-26.855,-465.820,0.000
1680450272.394,-1000.000,-24.414,-31.738,-1000.000,0.000
1680450272.398,-650.391,-30.273,-24.902,-293.945,0.000
1680450272.402,734.863,-33.691,-26.367,-937.988,0.000
1680450272.406,-878.906,-28.809,-36.621,764.648,0.000
1680450272.410,-115.234,-29.297,-34.180,-583.496,0.000
1680450272.414,-1000.000,-32.715,-33.203,-1000.000,0.000
1680450272.418,-386.230,-27.344,-32.715,-202.148,0.000
1680450272.422,980.957,-22.949,-34.180,-869.141,0.000
1680450272.426,967.773,-29.785,-33.691,598.145,0.000
1680450272.430,-340.820,-31.738,-34.180,-763.184,0.000
1680450272.434,-1000.000,-30.762,-34.668,-1000.000,0.000
1680450272.437,-217.285,-23.438,-35.156,-138.184,0.000
1680450272.441,947.266,-20.508,-37.598,991.699,0.000
1680450272.445,-901.367,-24.902,-27.832,-957.520,0.000
1680450272.449,156.738,-33.203,-28.320,20.996,0.000
1680450272.453,-1000.000,-36.133,-31.250,-1000.000,0.000
1680450272.457,-1000.000,-31.738,-25.879,-882.812,0.000
1680450272.461,-212.891,-25.879,-26.855,333.496,0.000
1680450272.465,-826.172,-25.391,-24.414,-816.406,0.000
1680450272.469,193.848,-38.086,-26.367,112.793,0.000
1680450272.473,-1000.000,-36.133,-27.344,-1000.000,0.000
1680450272.476,-1000.000,-30.273,-25.879,-576.172,0.000
1680450272.480,172.852,-23.926,-29.297,770.996,0.000
1680450272.484,-770.020,-22.461,-30.762,-853.516,0.000
1680450272.488,142.578,-38.574,-23.926,71.777,0.000
1680450272.492,-1000.000,-46.875,-21.973,-1000.000,0.000
1680450272.496,-986.328,-39.551,-34.668,-1000.000,0.000
1680450272.500,-972.168,-33.691,-41.504,-765.625,0.000
1680450272.504,-1000.000,-27.832,-34.668,-838.867,0.000
1680450272.508,-935.059,-29.785,-25.879,-967.773,0.000
1680450272.512,-1000.000,-32.715,-29.785,-1000.000,0.000
1680450272.516,-727.051,-28.320,-30.273,-428.223,0.000
1680450272.519,709.961,-25.879,-26.855,948.730,0.000
1680450272.523,-952.637,-33.691,-25.879,988.281,0.000
1680450272.527,904.297,-36.133,-29.785,923.828,0.000
1680450272.531,981.934,-26.855,-30.762,980.469,0.000
1680450272.535,969.238,-35.156,-24.414,967.285,0.000
1680450272.539,902.344,-41.016,-31.250,906.250,0.000
1680450272.543,-894.043,-28.809,-35.645,-895.508,0.000
1680450272.547,202.148,-31.250,-33.691,166.504,0.000
1680450272.551,-990.234,-33.691,-27.344,-1000.000,0.000
1680450272.555,-1000.000,-30.762,-21.484,-1000.000,0.000
1680450272.559,-604.004,-23.438,-27.344,-306.641,0.000
1680450272.562,781.738,-20.508,-37.109,-939.453,0.000
1680450272.566,-876.953,-26.367,-37.109,795.898,0.000
1680450272.570,-90.332,-26.855,-35.156,-539.062,0.000
1680450272.574,-1000.000,-29.297,-39.551,-1000.000,0.000
1680450272.578,-211.914,-20.508,-26.855,-150.391,0.000
1680450272.582,988.281,-19.043,-21.484,-936.523,0.000
1680450272.586,-925.781,-24.902,-27.832,878.418,0.000
1680450272.590,-21.973,-35.156,-28.320,-435.547,0.000
1680450272.594,-1000.000,-36.621,-29.785,-1000.000,0.000
1680450272.598,-960.449,-22.949,-31.738,-939.941,0.000
1680450272.601,-990.723,-21.484,-36.133,-1000.000,0.000
1680450272.605,-984.375,-18.555,-33.203,-958.984,0.000
1680450272.609,-968.750,-22.461,-30.762,-1000.000,0.000
1680450272.613,-1000.000,-29.297,-30.762,-946.777,0.000
1680450272.617,76.172,-25.879,-35.645,382.324,0.000
1680450272.621,-904.297,-26.367,-34.668,-914.551,0.000
1680450272.625,914.062,-32.227,-27.344,904.297,0.000
1680450272.629,960.938,-31.250,-27.832,973.633,0.000
1680450272.633,973.145,-28.320,-26.367,979.004,0.000
1680450272.637,945.801,-32.715,-20.996,920.410,0.000
1680450272.641,939.453,-34.180,-20.020,-994.141,0.000
1680450272.644,-941.895,-33.203,-25.391,857.910,0.000
1680450272.648,-141.602,-34.668,-25.391,-496.582,0.000
1680450272.652,-1000.000,-41.016,-24.902,-1000.000,0.000
1680450272.656,-944.336,-43.457,-27.832,-937.012,0.000
1680450272.660,-996.582,-33.203,-25.391,-1000.000,0.000
1680450272.664,-1000.000,-29.785,-21.973,-1000.000,0.000
1680450272.668,-927.734,-29.785,-20.020,-935.547,0.000
1680450272.672,-1000.000,-21.973,-25.391,-1000.000,0.000
1680450272.676,-422.363,-15.137,-34.180,-245.117,0.000
1680450272.680,904.297,-20.020,-38.574,957.031,0.000
1680450272.684,-977.051,-26.855,-27.344,-929.199,0.000
1680450272.687,837.891,-26.367,-16.602,480.469,0.000
1680450272.691,-411.133,-30.273,-23.438,-867.676,0.000
1680450272.695,-1000.000,-34.668,-27.344,-1000.000,0.000
1680450272.699,-185.547,-28.320,-20.020,45.410,0.000
1680450272.703,-977.051,-22.461,-21.973,-838.379,0.000
1680450272.707,986.816,-27.344,-32.715,573.730,0.000
1680450272.711,-235.840,-31.250,-29.785,-741.211,0.000
1680450272.715,-1000.000,-30.273,-23.438,-1000.000,0.000
1680450272.719,-157.715,-20.996,-26.855,-85.938,0.000
1680450272.723,973.633,-21.484,-34.668,-998.047,0.000
1680450272.726,-923.340,-24.414,-34.668,-972.656,0.000
1680450272.730,208.496,-28.809,-24.414,74.219,0.000
1680450272.734,-1000.000,-35.156,-28.809,-1000.000,0.000
1680450272.738,-898.438,-24.902,-37.109,-495.117,0.000
1680450272.742,453.613,-18.066,-35.645,958.496,0.000
1680450272.746,-813.965,-21.973,-36.133,882.324,0.000
1680450272.750,5.859,-35.645,-34.668,-475.586,0.000
1680450272.754,-1000.000,-36.133,-31.250,-1000.000,0.000
1680450272.758,-313.477,-27.832,-28.320,-179.199,0.000
1680450272.762,963.379,-30.273,-28.809,-928.223,0.000
1680450272.766,-929.688,-29.785,-31.250,841.309,0.000
1680450272.769,22.461,-30.762,-37.109,-434.082,0.000
1680450272.773,-1000.000,-37.598,-27.832,-1000.000,0.000
1680450272.777,-505.859,-31.250,-21.484,-258.789,0.000
1680450272.781,835.449,-21.484,-37.109,955.566,0.000
1680450272.785,-857.422,-29.297,-35.645,-941.406,0.000
1680450272.789,154.297,-35.645,-34.668,34.180,0.000
1680450272.793,-1000.000,-33.691,-38.574,-1000.000,0.000
1680450272.797,-1000.000,-31.738,-39.062,-725.098,0.000
1680450272.801,54.688,-27.344,-32.227,570.801,0.000
1680450272.805,-802.734,-22.949,-29.297,-819.824,0.000
1680450272.809,550.293,-25.879,-30.762,242.676,0.000
1680450272.812,-792.480,-26.855,-27.832,-1000.000,0.000
1680450272.816,-1000.000,-23.438,-31.250,-991.699,0.000
1680450272.820,-141.602,-21.484,-26.367,244.141,0.000
1680450272.824,-816.895,-17.090,-30.273,-791.016,0.000
1680450272.828,240.723,-24.902,-33.203,96.191,0.000
1680450272.832,-999.023,-34.180,-31.738,-1000.000,0.000
1680450272.836,-1000.000,-30.273,-31.250,-1000.000,0.000
1680450272.840,-261.719,-24.902,-28.320,-188.965,0.000
1680450272.844,-865.723,-22.461,-29.297,-816.406,0.000
1680450272.848,583.984,-29.785,-23.926,227.539,0.000
1680450272.851,-801.758,-35.156,-21.484,-1000.000,0.000
1680450272.855,-1000.000,-33.203,-23.438,-1000.000,0.000
1680450272.859,-228.027,-21.484,-24.414,-115.723,0.000
1680450272.863,-887.695,-19.531,-17.578,-807.129,0.000
1680450272.867,666.992,-31.738,-13.672,289.551,0.000
1680450272.871,-777.344,-36.621,-29.785,-1000.000,0.000
1680450272.875,-1000.000,-32.715,-31.250,-1000.000,0.000
1680450272.879,-938.477,-33.203,-28.320,-935.059,0.000
1680450272.883,-1000.000,-36.133,-30.762,-1000.000,0.000
1680450272.887,-961.914,-31.250,-25.879,-946.289,0.000
1680450272.891,-1000.000,-29.785,-22.949,-1000.000,0.000
1680450272.894,-991.211,-33.203,-24.414,-765.137,0.000
1680450272.898,332.520,-28.809,-23.926,643.066,0.000
1680450272.902,-905.273,-25.391,-29.297,-944.824,0.000
1680450272.906,901.367,-29.785,-31.250,905.273,0.000
1680450272.910,972.656,-32.227,-24.414,980.469,0.000
1680450272.914,981.934,-28.809,-27.832,978.027,0.000
1680450272.918,902.832,-23.438,-30.273,895.996,0.000
1680450272.922,-949.219,-25.879,-25.879,-901.367,0.000
1680450272.926,705.078,-27.832,-15.137,400.391,0.000
1680450272.930,-701.660,-24.414,-18.066,-912.598,0.000
1680450272.934,-1000.000,-22.949,-28.320,-1000.000,0.000
1680450272.937,-1000.000,-23.926,-28.809,-685.547,0.000
1680450272.941,62.500,-13.672,-25.879,694.824,0.000
1680450272.945,-797.363,-15.625,-24.902,-996.582,0.000
1680450272.949,20.020,-29.785,-33.691,-347.656,0.000
1680450272.953,-1000.000,-31.250,-27.832,-1000.000,0.000
1680450272.957,-675.781,-25.391,-22.949,-344.727,0.000
1680450272.961,671.875,-26.367,-37.109,920.410,0.000
1680450272.965,-818.848,-31.250,-43.457,-915.039,0.000
1680450272.969,124.512,-35.156,-42.480,-30.762,0.000
1680450272.973,-1000.000,-43.457,-41.016,-1000.000,0.000
1680450272.976,-984.375,-41.504,-40.039,-965.332,0.000
1680450272.980,-973.145,-36.621,-34.668,-984.863,0.000
1680450272.984,-1000.000,-36.133,-34.668,-1000.000,0.000
1680450272.988,-929.688,-36.621,-34.668,-936.035,0.000
1680450272.992,-1000.000,-38.086,-32.715,-1000.000,0.000
1680450272.996,-364.746,-31.250,-32.227,-244.629,0.000
1680450273.000,984.375,-20.508,-29.785,-969.238,0.000
1680450273.004,974.609,-22.949,-33.691,955.078,0.000
1680450273.008,927.734,-25.879,-35.645,938.477,0.000
1680450273.012,978.027,-29.785,-34.180,975.586,0.000
1680450273.016,969.238,-29.785,-24.414,966.797,0.000
1680450273.019,902.344,-26.367,-22.949,906.738,0.000
1680450273.023,-894.043,-23.926,-30.762,-896.973,0.000
1680450273.027,214.355,-25.391,-29.785,167.969,0.000
1680450273.031,-993.652,-31.738,-28.809,-1000.000,0.000
1680450273.035,-1000.000,-29.297,-34.180,-1000.000,0.000
1680450273.039,-297.852,-23.438,-35.156,-189.941,0.000
1680450273.043,990.234,-21.973,-28.320,-871.582,0.000
1680450273.047,-982.910,-25.879,-23.926,658.691,0.000
1680450273.051,-269.531,-34.668,-25.879,-703.125,0.000
1680450273.055,-1000.000,-38.086,-27.344,-1000.000,0.000
1680450273.058,-1000.000,-41.016,-24.414,-888.184,0.000
1680450273.062,-241.699,-37.109,-27.344,350.098,0.000
1680450273.066,-840.332,-30.762,-33.691,980.957,0.000
1680450273.070,67.383,-33.203,-34.668,-427.246,0.000
1680450273.074,-1000.000,-34.180,-21.973,-1000.000,0.000
1680450273.078,-284.668,-26.855,-21.484,-175.293,0.000
1680450273.082,954.102,-21.973,-35.645,-967.285,0.000
1680450273.086,-911.133,-27.832,-36.133,960.449,0.000
1680450273.090,184.570,-31.250,-35.645,-220.703,0.000
1680450273.094,-1000.000,-32.227,-34.668,-1000.000,0.000
1680450273.098,-455.078,-26.855,-34.668,-199.219,0.000
1680450273.101,890.137,-24.414,-32.715,-987.305,0.000
1680450273.105,-874.512,-28.809,-22.949,-998.535,0.000
1680450273.109,146.973,-34.668,-23.438,-114.746,0.000
1680450273.113,-1000.000,-36.133,-32.227,-1000.000,0.000
1680450273.117,-1000.000,-33.203,-31.738,-834.473,0.000
1680450273.121,-15.625,-24.902,-20.996,446.289,0.000
1680450273.125,-783.691,-22.949,-27.344,-833.984,0.000
1680450273.129,157.715,-30.273,-34.668,6.836,0.000
1680450273.133,-1000.000,-28.809,-30.762,-1000.000,0.000
1680450273.137,-1000.000,-28.320,-30.762,-787.598,0.000
1680450273.141,14.648,-22.949,-29.785,492.676,0.000
1680450273.144,-794.922,-23.926,-29.785,-807.129,0.000
1680450273.148,493.652,-33.691,-24.414,220.703,0.000
1680450273.152,-839.355,-37.109,-18.066,-1000.000,0.000
1680450273.156,-1000.000,-33.203,-21.973,-1000.000,0.000
1680450273.160,-208.496,-24.902,-24.414,186.523,0.000
1680450273.164,-842.773,-22.949,-31.250,-793.945,0.000
1680450273.168,477.539,-34.180,-35.645,226.074,0.000
1680450273.172,-904.297,-42.480,-35.645,-1000.000,0.000
1680450273.176,-1000.000,-34.180,-29.785,-946.777,0.000
1680450273.180,-113.770,-29.785,-29.297,289.062,0.000
1680450273.183,-949.707,-29.297,-31.250,-829.102,0.000
1680450273.187,936.523,-27.832,-29.785,565.918,0.000
1680450273.191,-279.297,-37.109,-27.344,-721.680,0.000
1680450273.195,-1000.000,-38.086,-21.484,-1000.000,0.000
1680450273.199,-400.391,-29.297,-28.320,-214.355,0.000
1680450273.203,910.156,-23.438,-32.715,-908.691,0.000
1680450273.207,-918.945,-24.414,-27.832,729.004,0.000
1680450273.211,-93.750,-27.832,-26.367,-608.398,0.000
1680450273.215,-1000.000,-31.738,-26.367,-1000.000,0.000
1680450273.219,-268.066,-28.809,-27.344,-176.758,0.000
1680450273.223,963.379,-20.020,-26.367,-943.359,0.000
1680450273.226,-927.734,-20.020,-24.902,876.953,0.000
1680450273.230,60.059,-31.250,-33.203,-374.023,0.000
1680450273.234,-1000.000,-35.645,-39.062,-1000.000,0.000
1680450273.238,-491.699,-28.809,-25.391,-247.070,0.000
1680450273.242,855.957,-25.879,-18.555,-991.211,0.000
1680450273.246,-870.605,-23.438,-28.320,962.402,0.000
1680450273.250,122.070,-31.738,-30.762,-224.121,0.000
1680450273.254,-1000.000,-39.062,-27.344,-1000.000,0.000
1680450273.258,-984.375,-28.809,-27.344,-548.340,0.000
1680450273.262,231.445,-25.879,-35.156,744.141,0.000
1680450273.266,-785.645,-30.762,-37.109,-856.934,0.000
1680450273.269,360.352,-37.109,-29.785,159.180,0.000
1680450273.273,-1000.000,-37.109,-27.832,-1000.000,0.000
1680450273.277,-893.066,-35.156,-30.273,-480.957,0.000
1680450273.281,477.539,-34.668,-28.809,861.816,0.000
1680450273.285,-799.316,-31.250,-17.090,-879.883,0.000
1680450273.289,242.188,-30.762,-22.461,154.297,0.000
1680450273.293,-988.281,-34.668,-35.645,-1000.000,0.000
1680450273.297,-1000.000,-30.762,-32.227,-817.383,0.000
1680450273.301,27.832,-25.391,-30.273,478.516,0.000
1680450273.305,-839.355,-20.508,-29.297,-811.523,0.000
1680450273.308,684.570,-25.879,-25.879,329.590,0.000
1680450273.312,-647.461,-39.551,-29.297,-990.723,0.000
1680450273.316,-1000.000,-36.621,-27.832,-1000.000,0.000
1680450273.320,-88.867,-27.344,-22.461,306.641,0.000
1680450273.324,-958.984,-25.391,-25.391,-923.828,0.000
1680450273.328,941.406,-24.902,-19.043,909.180,0.000
1680450273.332,946.289,-26.855,-17.090,974.609,0.000
1680450273.336,964.355,-26.367,-26.855,942.871,0.000
1680450273.340,916.016,-21.973,-28.320,951.660,0.000
1680450273.344,-906.738,-19.043,-30.762,-978.516,0.000
1680450273.348,52.246,-26.855,-31.250,-194.336,0.000
1680450273.351,-1000.000,-36.133,-30.762,-1000.000,0.000
1680450273.355,-965.332,-33.691,-29.297,-945.312,0.000
1680450273.359,-983.398,-27.832,-31.250,-997.559,0.000
1680450273.363,-1000.000,-28.320,-28.320,-1000.000,0.000
1680450273.367,-999.023,-30.273,-24.414,-978.516,0.000
1680450273.371,-940.918,-25.391,-24.902,-979.004,0.000
1680450273.375,-1000.000,-23.926,-21.973,-1000.000,0.000
1680450273.379,-184.570,-26.367,-23.438,102.539,0.000
1680450273.383,984.863,-24.902,-30.762,-951.172,0.000
1680450273.387,-925.293,-27.832,-30.762,-995.605,0.000
1680450273.391,234.375,-27.832,-23.438,27.832,0.000
1680450273.394,-1000.000,-26.855,-32.227,-1000.000,0.000
1680450273.398,-385.742,-20.508,-41.992,-216.797,0.000
1680450273.402,934.082,-17.090,-31.738,-951.660,0.000
1680450273.406,-900.391,-20.508,-26.855,948.730,0.000
1680450273.410,164.551,-22.949,-33.691,-223.145,0.000
1680450273.414,-1000.000,-26.855,-36.133,-1000.000,0.000
1680450273.418,-900.391,-24.902,-37.598,-476.562,0.000
1680450273.422,407.227,-16.602,-38.086,829.590,0.000
1680450273.426,-788.086,-18.555,-37.109,-892.578,0.000
1680450273.430,139.648,-24.902,-37.109,61.523,0.000
1680450273.433,-1000.000,-31.738,-25.391,-1000.000,0.000
1680450273.437,-1000.000,-32.227,-21.973,-720.703,0.000
1680450273.441,34.180,-25.391,-37.109,597.168,0.000
1680450273.445,-781.738,-22.949,-40.039,-835.938,0.000
1680450273.449,219.727,-27.832,-33.691,137.695,0.000
1680450273.453,-1000.000,-38.086,-30.762,-1000.000,0.000
1680450273.457,-991.211,-35.156,-26.855,-608.887,0.000
1680450273.461,315.918,-23.438,-27.832,745.117,0.000
1680450273.465,-938.477,-18.066,-28.320,-909.668,0.000
1680450273.469,991.211,-18.555,-25.391,673.340,0.000
1680450273.473,-135.742,-31.250,-28.320,-622.559,0.000
1680450273.476,-1000.000,-40.039,-25.391,-1000.000,0.000
1680450273.480,-945.312,-39.062,-21.973,-940.918,0.000
1680450273.484,-1000.000,-36.621,-30.273,-1000.000,0.000
1680450273.488,-952.637,-34.180,-36.133,-932.129,0.000
1680450273.492,-1000.000,-36.621,-29.297,-1000.000,0.000
1680450273.496,-907.715,-39.062,-28.809,-628.418,0.000
1680450273.500,469.727,-33.203,-28.809,795.410,0.000
1680450273.504,-917.969,-27.832,-27.344,-971.680,0.000
1680450273.508,899.902,-31.738,-31.738,910.645,0.000
1680450273.512,977.051,-38.574,-34.668,982.422,0.000
1680450273.516,967.773,-33.691,-27.832,966.309,0.000
1680450273.519,904.297,-32.227,-31.250,907.715,0.000
1680450273.523,-894.531,-40.527,-20.020,-896.973,0.000
1680450273.527,187.012,-48.340,-15.137,154.785,0.000
1680450273.531,-1000.000,-44.434,-31.738,-1000.000,0.000
1680450273.535,-984.375,-39.062,-31.250,-979.980,0.000
1680450273.539,-973.145,-37.109,-29.785,-975.586,0.000
1680450273.543,-1000.000,-34.180,-32.227,-1000.000,0.000
1680450273.547,-999.512,-34.668,-36.133,-982.910,0.000
1680450273.551,-939.941,-38.086,-40.039,-968.750,0.000
1680450273.555,-1000.000,-36.621,-36.133,-1000.000,0.000
1680450273.558,-193.359,-24.902,-37.598,54.199,0.000
1680450273.562,-954.590,-20.020,-37.109,-914.551,0.000
1680450273.566,946.777,-25.391,-31.738,920.410,0.000
1680450273.570,941.895,-27.344,-24.414,958.984,0.000
1680450273.574,981.934,-27.832,-21.973,983.398,0.000
1680450273.578,931.152,-32.715,-30.273,905.762,0.000
1680450273.582,971.680,-31.250,-31.738,-951.172,0.000
1680450273.586,977.051,-23.926,-25.391,694.824,0.000
1680450273.590,-332.031,-28.320,-25.391,-688.477,0.000
1680450273.594,-1000.000,-36.621,-24.902,-1000.000,0.000
1680450273.598,-1000.000,-30.762,-25.879,-981.445,0.000
1680450273.601,-288.086,-20.020,-27.832,75.195,0.000
1680450273.605,-823.730,-20.996,-26.367,-815.430,0.000
1680450273.609,170.410,-27.832,-28.320,12.695,0.000
1680450273.613,-1000.000,-30.762,-17.090,-1000.000,0.000
1680450273.617,-1000.000,-31.738,-14.160,-1000.000,0.000
1680450273.621,-229.492,-29.297,-32.227,-95.703,0.000
1680450273.625,-962.891,-22.949,-36.133,-838.867,0.000
1680450273.629,957.031,-19.531,-30.273,508.789,0.000
1680450273.633,-308.594,-20.996,-24.902,-897.461,0.000
1680450273.637,-1000.000,-22.949,-29.785,-1000.000,0.000
1680450273.641,-165.039,-22.461,-32.715,253.906,0.000
1680450273.644,-830.566,-21.973,-28.809,-799.316,0.000
1680450273.648,508.789,-26.367,-32.227,239.746,0.000
1680450273.652,-894.531,-29.297,-35.645,-1000.000,0.000
1680450273.656,-1000.000,-22.461,-31.738,-868.164,0.000
1680450273.660,-14.160,-25.391,-22.949,443.359,0.000
1680450273.664,-819.824,-29.297,-25.879,-798.340,0.000
1680450273.668,547.363,-27.344,-28.809,246.582,0.000
1680450273.672,-798.340,-31.250,-24.414,-968.750,0.000
1680450273.676,-1000.000,-29.297,-26.855,-1000.000,0.000
1680450273.680,-163.086,-21.973,-28.320,-83.008,0.000
1680450273.683,962.402,-18.555,-30.273,-951.660,0.000
1680450273.687,-922.363,-21.484,-34.180,946.777,0.000
1680450273.691,204.590,-27.832,-31.250,-202.148,0.000
1680450273.695,-1000.000,-25.391,-23.438,-1000.000,0.000
1680450273.699,-406.250,-21.484,-29.297,-205.566,0.000
1680450273.703,962.891,-21.484,-22.949,-893.066,0.000
1680450273.707,-947.266,-23.438,-15.625,748.535,0.000
1680450273.711,-112.305,-25.391,-25.391,-578.613,0.000
1680450273.715,-1000.000,-27.344,-29.785,-1000.000,0.000
1680450273.719,-407.227,-27.344,-26.855,-177.734,0.000
1680450273.723,858.398,-28.809,-27.344,958.496,0.000
1680450273.726,-876.953,-31.250,-35.156,-911.133,0.000
1680450273.730,437.988,-28.809,-29.297,177.734,0.000
1680450273.734,-925.293,-33.203,-25.391,-1000.000,0.000
1680450273.738,-1000.000,-36.133,-27.344,-988.770,0.000
1680450273.742,-949.219,-30.273,-23.926,-971.680,0.000
1680450273.746,-1000.000,-23.438,-20.508,-1000.000,0.000
1680450273.750,-936.523,-18.066,-20.996,-938.965,0.000
1680450273.754,-1000.000,-29.785,-27.344,-1000.000,0.000
1680450273.758,-238.281,-35.156,-33.203,-194.336,0.000
1680450273.762,-987.793,-25.391,-28.809,987.305,0.000
1680450273.766,913.086,-30.273,-20.996,-993.164,0.000
1680450273.769,-927.734,-27.832,-25.391,724.609,0.000
1680450273.773,-102.051,-25.879,-32.715,-767.578,0.000
1680450273.777,-1000.000,-31.250,-37.598,-706.543,0.000
1680450273.781,276.367,-27.344,-37.598,767.578,0.000
1680450273.785,-780.762,-15.137,-36.621,-851.074,0.000
1680450273.789,491.211,-17.578,-37.598,247.559,0.000
1680450273.793,-831.543,-27.344,-38.086,-1000.000,0.000
1680450273.797,-1000.000,-21.973,-42.969,-940.430,0.000
1680450273.801,-109.863,-17.578,-41.016,323.242,0.000
1680450273.805,-833.008,-16.602,-36.621,-791.016,0.000
1680450273.808,534.668,-22.949,-32.227,208.984,0.000
1680450273.812,-825.195,-35.645,-24.414,-994.141,0.000
1680450273.816,-1000.000,-38.086,-29.785,-1000.000,0.000
1680450273.820,-202.148,-29.785,-31.738,-108.398,0.000
1680450273.824,-966.797,-22.461,-29.297,-834.961,0.000
1680450273.828,941.406,-25.879,-24.902,504.883,0.000
1680450273.832,-326.172,-35.645,-29.785,-829.102,0.000
1680450273.836,-1000.000,-37.598,-36.133,-1000.000,0.000
1680450273.840,-196.289,-26.855,-32.715,-178.711,0.000
1680450273.844,-949.707,-26.367,-30.762,-846.680,0.000
1680450273.848,913.086,-31.738,-32.715,496.094,0.000
1680450273.851,-354.004,-34.180,-31.738,-848.633,0.000
1680450273.855,-1000.000,-39.551,-22.461,-1000.000,0.000
1680450273.859,-335.938,-34.180,-26.855,-218.262,0.000
1680450273.863,954.590,-20.996,-32.715,-886.230,0.000
1680450273.867,-959.961,-20.508,-29.785,644.043,0.000
1680450273.871,-177.246,-24.902,-31.250,-707.520,0.000
1680450273.875,-1000.000,-29.297,-31.738,-1000.000,0.000
1680450273.879,-206.543,-23.926,-29.785,-175.781,0.000
1680450273.883,973.145,-16.113,-29.297,-948.730,0.000
1680450273.887,-926.758,-28.809,-34.180,894.043,0.000
1680450273.891,121.094,-33.691,-32.227,-352.539,0.000
1680450273.894,-1000.000,-31.738,-27.344,-1000.000,0.000
1680450273.898,-406.250,-28.809,-12.207,-190.918,0.000
1680450273.902,904.297,-23.438,-11.230,982.422,0.000
1680450273.906,-882.324,-24.902,-26.367,-951.172,0.000
1680450273.910,186.523,-26.367,-28.320,65.918,0.000
1680450273.914,-1000.000,-28.809,-27.832,-1000.000,0.000
1680450273.918,-1000.000,-26.855,-22.461,-699.707,0.000
1680450273.922,117.676,-22.949,-25.391,631.348,0.000
1680450273.926,-783.203,-25.879,-31.250,-837.891,0.000
1680450273.930,216.309,-37.109,-34.180,132.812,0.000
1680450273.933,-1000.000,-40.527,-33.203,-1000.000,0.000
1680450273.937,-796.387,-29.785,-30.273,-454.102,0.000
1680450273.941,573.242,-26.855,-27.832,898.438,0.000
1680450273.945,-805.664,-31.250,-17.578,-892.578,0.000
1680450273.949,121.094,-36.133,-22.949,19.531,0.000
1680450273.953,-996.094,-37.109,-32.227,-1000.000,0.000
1680450273.957,-1000.000,-36.621,-32.227,-1000.000,0.000
1680450273.961,-250.488,-27.832,-31.250,-112.793,0.000
1680450273.965,-907.715,-17.578,-28.809,-813.965,0.000
1680450273.969,775.879,-27.832,-30.273,390.625,0.000
1680450273.973,-581.543,-36.133,-31.738,-964.844,0.000
1680450273.976,-1000.000,-34.668,-28.320,-1000.000,0.000
1680450273.980,-207.031,-29.785,-22.461,55.176,0.000
1680450273.984,-907.227,-20.508,-24.902,-798.340,0.000
1680450273.988,756.348,-28.320,-19.531,345.703,0.000
1680450273.992,-595.215,-40.039,-12.207,-930.664,0.000
1680450273.996,-1000.000,-37.109,-28.320,-1000.000,0.000
1680450274.000,-226.562,-30.762,-34.180,-191.406,0.000
1680450274.004,961.426,-20.996,-29.785,-922.363,0.000
1680450274.008,-932.129,-18.066,-30.273,804.688,0.000
1680450274.012,25.879,-28.320,-30.273,-487.305,0.000
1680450274.016,-1000.000,-38.086,-24.902,-1000.000,0.000
1680450274.019,-375.488,-26.367,-26.855,-219.238,0.000
1680450274.023,980.957,-17.090,-25.879,-868.164,0.000
1680450274.027,997.559,-31.250,-26.855,578.613,0.000
1680450274.031,-240.234,-38.574,-35.645,-772.949,0.000
1680450274.035,-1000.000,-33.691,-30.273,-1000.000,0.000
1680450274.039,-444.824,-29.785,-33.203,-228.027,0.000
1680450274.043,847.656,-24.414,-39.062,979.980,0.000
1680450274.047,-868.164,-26.855,-29.785,-977.539,0.000
1680450274.051,171.387,-37.598,-26.367,-55.176,0.000
1680450274.055,-1000.000,-41.504,-24.902,-1000.000,0.000
1680450274.058,-985.352,-41.504,-30.273,-539.551,0.000
1680450274.062,258.789,-34.668,-32.715,751.953,0.000
1680450274.066,-879.395,-23.926,-25.879,-865.723,0.000
1680450274.070,843.750,-19.043,-23.438,431.641,0.000
1680450274.074,-587.891,-29.785,-26.367,-1000.000,0.000
1680450274.078,-951.660,-31.738,-28.320,-480.469,0.000
1680450274.082,577.148,-18.555,-32.715,991.211,0.000
1680450274.086,-815.430,-21.484,-32.715,981.934,0.000
1680450274.090,53.223,-29.297,-27.832,-251.465,0.000
1680450274.094,-1000.000,-40.039,-17.578,-1000.000,0.000
1680450274.098,-1000.000,-41.992,-14.648,-732.910,0.000
1680450274.101,24.902,-26.855,-26.367,533.691,0.000
1680450274.105,-779.297,-20.996,-29.785,-813.965,0.000
1680450274.109,395.508,-29.785,-27.344,196.289,0.000
1680450274.113,-928.711,-37.598,-27.832,-1000.000,0.000
1680450274.117,-1000.000,-33.203,-30.762,-876.465,0.000
1680450274.121,-48.340,-29.785,-28.809,419.922,0.000
1680450274.125,-818.848,-30.762,-27.832,-798.828,0.000
1680450274.129,533.691,-36.133,-29.785,241.211,0.000
1680450274.133,-817.383,-36.133,-30.762,-1000.000,0.000
1680450274.137,-1000.000,-29.785,-28.320,-1000.000,0.000
1680450274.141,-216.309,-24.414,-21.973,124.023,0.000
1680450274.144,-874.512,-19.043,-22.461,-789.062,0.000
1680450274.148,622.559,-26.855,-24.414,285.645,0.000
1680450274.152,-753.418,-38.574,-24.902,-955.566,0.000
1680450274.156,-1000.000,-35.156,-27.344,-1000.000,0.000
1680450274.160,-296.875,-27.344,-33.203,-218.262,0.000
1680450274.164,-997.070,-18.066,-30.762,-854.980,0.000
1680450274.168,939.453,-19.531,-27.832,528.320,0.000
1680450274.172,-356.934,-24.414,-30.762,-828.613,0.000
1680450274.176,-1000.000,-31.250,-29.785,-1000.000,0.000
1680450274.180,-223.633,-27.344,-27.832,-165.039,0.000
1680450274.183,955.566,-18.066,-20.996,-949.219,0.000
1680450274.187,-919.922,-21.484,-20.020,899.414,0.000
1680450274.191,129.395,-25.879,-28.809,-337.891,0.000
1680450274.195,-1000.000,-30.273,-32.715,-1000.000,0.000
1680450274.199,-400.879,-24.414,-32.227,-194.824,0.000
1680450274.203,914.551,-20.508,-34.668,-975.586,0.000
1680450274.207,-892.090,-23.438,-35.645,975.586,0.000
1680450274.211,177.734,-29.297,-31.738,-198.242,0.000
1680450274.215,-1000.000,-40.527,-35.156,-1000.000,0.000
1680450274.219,-404.297,-35.645,-34.180,-182.129,0.000
1680450274.223,916.992,-31.250,-33.203,989.258,0.000
1680450274.226,-888.184,-31.738,-31.250,-942.871,0.000
1680450274.230,173.340,-35.156,-19.531,97.656,0.000
1680450274.234,-1000.000,-42.480,-22.949,-1000.000,0.000
1680450274.238,-1000.000,-39.062,-31.250,-617.676,0.000
1680450274.242,180.664,-30.273,-27.344,720.215,0.000
1680450274.246,-785.645,-29.297,-27.344,-841.309,0.000
1680450274.250,355.469,-33.203,-28.809,186.523,0.000
1680450274.254,-1000.000,-32.715,-27.832,-1000.000,0.000
1680450274.258,-675.781,-30.273,-26.367,-305.176,0.000
1680450274.262,749.512,-25.879,-24.902,951.172,0.000
1680450274.266,-931.152,-17.578,-26.855,-921.875,0.000
1680450274.269,795.410,-20.020,-30.273,468.750,0.000
1680450274.273,-450.195,-31.738,-22.949,-877.441,0.000
1680450274.277,-1000.000,-30.273,-16.113,-1000.000,0.000
1680450274.281,-224.609,-21.484,-23.926,82.520,0.000
1680450274.285,-866.699,-20.508,-27.832,-794.922,0.000
1680450274.289,598.633,-23.438,-29.297,278.809,0.000
1680450274.293,-857.422,-27.832,-28.320,-1000.000,0.000
1680450274.297,-1000.000,-31.250,-31.250,-1000.000,0.000
1680450274.301,-940.918,-30.762,-34.668,-961.914,0.000
1680450274.305,-1000.000,-30.273,-33.691,-1000.000,0.000
1680450274.308,-936.035,-33.691,-33.691,-928.711,0.000
1680450274.312,-1000.000,-33.203,-31.738,-1000.000,0.000
1680450274.316,-743.652,-28.320,-25.879,-489.746,0.000
1680450274.320,691.406,-28.809,-16.602,910.156,0.000
1680450274.324,-949.219,-27.344,-22.949,-999.512,0.000
1680450274.328,903.320,-24.414,-35.645,918.945,0.000
1680450274.332,981.445,-27.832,-32.715,981.445,0.000
1680450274.336,975.586,-27.832,-25.391,969.238,0.000
1680450274.340,895.508,-31.738,-30.273,903.809,0.000
1680450274.344,-895.508,-30.762,-36.133,-894.043,0.000
1680450274.348,337.891,-32.715,-25.879,202.148,0.000
1680450274.351,-935.059,-38.086,-25.879,-999.512,0.000
1680450274.355,-1000.000,-36.133,-33.691,-1000.000,0.000
1680450274.359,-522.949,-33.691,-33.691,-286.133,0.000
1680450274.363,822.754,-30.762,-21.973,-958.008,0.000
1680450274.367,-872.559,-28.320,-19.531,867.188,0.000
1680450274.371,-54.199,-32.715,-32.715,-433.594,0.000
1680450274.375,-1000.000,-33.203,-32.227,-1000.000,0.000
1680450274.379,-1000.000,-29.785,-28.809,-847.168,0.000
1680450274.383,-152.832,-29.297,-31.250,402.344,0.000
1680450274.387,-811.523,-27.344,-32.227,-889.160,0.000
1680450274.391,183.105,-34.180,-29.785,-163.086,0.000
1680450274.394,-1000.000,-37.598,-34.668,-1000.000,0.000
1680450274.398,-900.391,-28.320,-34.180,-528.320,0.000
1680450274.402,405.273,-21.484,-29.785,794.922,0.000
1680450274.406,-783.691,-23.926,-33.203,-868.652,0.000
1680450274.410,120.117,-40.527,-22.461,29.785,0.000
1680450274.414,-999.512,-47.363,-28.320,-1000.000,0.000
1680450274.418,-1000.000,-36.133,-40.039,-1000.000,0.000
1680450274.422,-259.766,-35.156,-33.691,35.645,0.000
1680450274.426,-829.590,-34.668,-34.668,-805.176,0.000
1680450274.430,229.492,-39.062,-36.133,106.934,0.000
1680450274.433,-1000.000,-40.039,-32.227,-1000.000,0.000
1680450274.437,-1000.000,-38.574,-32.227,-1000.000,0.000
1680450274.441,-259.766,-31.250,-31.250,-15.625,0.000
1680450274.445,-861.328,-23.926,-30.762,-793.457,0.000
1680450274.449,580.566,-26.855,-31.738,234.375,0.000
1680450274.453,-809.082,-33.203,-23.926,-1000.000,0.000
1680450274.457,-1000.000,-34.180,-23.438,-1000.000,0.000
1680450274.461,-236.328,-25.391,-30.273,-140.137,0.000
1680450274.465,-849.609,-21.973,-29.785,-812.988,0.000
1680450274.469,465.820,-27.832,-30.273,204.590,0.000
1680450274.473,-904.785,-31.250,-29.297,-1000.000,0.000
1680450274.476,-1000.000,-28.320,-33.203,-1000.000,0.000
1680450274.480,-212.891,-25.879,-33.691,-132.812,0.000
1680450274.484,-952.637,-21.973,-31.738,-826.660,0.000
1680450274.488,888.184,-19.531,-29.297,462.402,0.000
1680450274.492,-382.812,-27.832,-30.762,-860.352,0.000
1680450274.496,-1000.000,-27.832,-33.691,-1000.000,0.000
1680450274.500,-439.941,-24.902,-25.879,-259.277,0.000
1680450274.504,864.746,-27.344,-25.391,-951.660,0.000
1680450274.508,-885.742,-28.320,-31.250,822.754,0.000
1680450274.512,-10.254,-33.203,-25.879,-468.750,0.000
1680450274.516,-1000.000,-38.574,-15.137,-1000.000,0.000
1680450274.519,-1000.000,-35.645,-17.578,-672.852,0.000
1680450274.523,103.516,-24.414,-21.484,623.047,0.000
1680450274.527,-779.297,-20.508,-18.555,-865.723,0.000
1680450274.531,191.406,-33.203,-21.973,-13.184,0.000
1680450274.535,-1000.000,-34.180,-24.902,-1000.000,0.000
1680450274.539,-741.699,-27.832,-27.344,-377.441,0.000
1680450274.543,634.766,-27.832,-31.250,933.105,0.000
1680450274.547,-820.801,-25.879,-26.855,-932.129,0.000
1680450274.551,149.414,-32.715,-24.902,8.789,0.000
1680450274.555,-1000.000,-36.621,-30.273,-1000.000,0.000
1680450274.558,-1000.000,-32.715,-19.531,-690.918,0.000
1680450274.562,134.766,-31.738,-13.184,632.812,0.000
1680450274.566,-771.484,-26.367,-24.414,-837.402,0.000
1680450274.570,213.867,-31.250,-24.414,119.629,0.000
1680450274.574,-1000.000,-35.645,-20.508,-1000.000,0.000
1680450274.578,-1000.000,-34.180,-21.484,-776.855,0.000
1680450274.582,50.781,-38.574,-22.461,515.137,0.000
1680450274.586,-899.902,-37.109,-20.020,-838.379,0.000
1680450274.590,893.066,-28.809,-21.973,485.840,0.000
1680450274.594,-334.961,-23.926,-20.996,-863.281,0.000
1680450274.598,-1000.000,-26.855,-23.438,-1000.000,0.000
1680450274.601,-200.195,-22.949,-27.832,214.355,0.000
1680450274.605,-825.684,-25.391,-19.531,-791.992,0.000
1680450274.609,371.094,-29.785,-24.902,150.879,0.000
1680450274.613,-951.660,-33.203,-37.598,-1000.000,0.000
1680450274.617,-1000.000,-32.715,-30.762,-1000.000,0.000
1680450274.621,-183.594,-24.414,-25.391,-52.246,0.000
1680450274.625,974.121,-24.414,-33.203,-903.320,0.000
1680450274.629,-923.340,-24.902,-35.156,804.199,0.000
1680450274.633,100.586,-30.762,-29.297,-440.918,0.000
1680450274.637,-1000.000,-38.086,-27.344,-1000.000,0.000
1680450274.641,-216.309,-28.320,-25.879,-127.930,0.000
1680450274.644,-957.031,-25.879,-27.832,-865.234,0.000
1680450274.648,992.676,-33.691,-20.020,647.949,0.000
1680450274.652,-183.594,-38.574,-12.207,-679.688,0.000
1680450274.656,-1000.000,-37.598,-26.367,-1000.000,0.000
1680450274.660,-386.230,-32.715,-30.273,-210.449,0.000
1680450274.664,901.367,-26.855,-25.879,-957.520,0.000
1680450274.668,-902.344,-27.344,-30.273,896.484,0.000
1680450274.672,58.594,-32.715,-32.715,-359.375,0.000
1680450274.676,-1000.000,-34.180,-22.949,-1000.000,0.000
1680450274.680,-466.797,-24.414,-19.043,-209.961,0.000
1680450274.683,865.723,-19.043,-23.438,977.051,0.000
1680450274.687,-869.629,-21.484,-24.902,-951.172,0.000
1680450274.691,164.062,-29.297,-33.691,51.270,0.000
1680450274.695,-1000.000,-35.156,-28.320,-1000.000,0.000
1680450274.699,-1000.000,-33.691,-25.391,-668.457,0.000
1680450274.703,155.762,-28.809,-31.738,748.047,0.000
1680450274.707,-784.180,-30.273,-29.785,-987.793,0.000
1680450274.711,96.191,-35.645,-24.902,-297.363,0.000
1680450274.715,-1000.000,-29.785,-26.855,-1000.000,0.000
1680450274.719,-968.750,-26.855,-34.668,-550.293,0.000
1680450274.723,282.227,-22.461,-33.203,748.047,0.000
1680450274.726,-780.273,-21.973,-32.715,-863.281,0.000
1680450274.730,156.250,-36.621,-34.180,110.352,0.000
1680450274.734,-1000.000,-37.598,-34.668,-1000.000,0.000
1680450274.738,-991.211,-38.086,-26.367,-625.000,0.000
1680450274.742,246.582,-40.527,-19.531,736.328,0.000
1680450274.746,-835.449,-28.320,-32.715,-895.020,0.000
1680450274.750,468.262,-20.996,-33.203,165.039,0.000
1680450274.754,-779.297,-27.832,-32.227,-971.680,0.000
1680450274.758,-1000.000,-40.039,-32.227,-1000.000,0.000
1680450274.762,-238.281,-38.086,-30.273,-4.883,0.000
1680450274.766,-851.074,-23.926,-25.879,-801.758,0.000
1680450274.769,480.469,-20.508,-23.926,231.934,0.000
1680450274.773,-901.367,-27.832,-25.391,-1000.000,0.000
1680450274.777,-1000.000,-26.855,-23.926,-1000.000,0.000
1680450274.781,-175.293,-15.137,-22.949,115.723,0.000
1680450274.785,-926.270,-14.648,-14.160,-797.363,0.000
1680450274.789,831.543,-28.320,-17.578,413.574,0.000
1680450274.793,-462.891,-34.180,-29.785,-855.469,0.000
1680450274.797,-1000.000,-31.250,-31.250,-1000.000,0.000
1680450274.801,-614.258,-32.227,-33.203,-329.590,0.000
1680450274.805,688.477,-27.832,-32.227,931.641,0.000
1680450274.808,-824.707,-25.391,-31.738,-940.430,0.000
1680450274.812,189.453,-29.297,-31.250,-22.461,0.000
1680450274.816,-1000.000,-28.320,-28.320,-1000.000,0.000
1680450274.820,-220.703,-21.484,-26.855,-139.648,0.000
1680450274.824,-987.305,-24.414,-25.391,-919.434,0.000
1680450274.828,-930.176,-25.879,-20.508,905.762,0.000
1680450274.832,16.113,-32.715,-18.555,-354.492,0.000
1680450274.836,-1000.000,-35.645,-25.391,-1000.000,0.000
1680450274.840,-1000.000,-28.320,-29.297,-1000.000,0.000
1680450274.844,-266.113,-25.879,-27.832,26.855,0.000
1680450274.848,-842.773,-20.508,-25.879,-904.785,0.000
1680450274.851,234.375,-23.926,-25.391,-144.531,0.000
1680450274.855,-1000.000,-33.691,-20.996,-1000.000,0.000
1680450274.859,-618.652,-32.715,-20.996,-313.965,0.000
1680450274.863,765.137,-21.973,-25.391,943.848,0.000
1680450274.867,-841.309,-20.508,-25.879,-926.758,0.000
1680450274.871,145.020,-29.785,-24.414,40.527,0.000
1680450274.875,-1000.000,-37.598,-25.879,-1000.000,0.000
1680450274.879,-1000.000,-37.109,-26.367,-816.406,0.000
1680450274.883,19.043,-28.809,-26.855,483.887,0.000
1680450274.887,-779.297,-20.996,-23.926,-825.195,0.000
1680450274.891,155.273,-34.668,-20.508,66.406,0.000
1680450274.894,-1000.000,-42.969,-26.367,-1000.000,0.000
1680450274.898,-1000.000,-35.645,-29.297,-824.707,0.000
1680450274.902,38.086,-26.855,-32.227,482.422,0.000
1680450274.906,-773.438,-25.391,-35.156,-812.012,0.000
1680450274.910,213.379,-33.203,-30.762,86.914,0.000
1680450274.914,-996.582,-35.645,-33.691,-1000.000,0.000
1680450274.918,-1000.000,-36.133,-35.645,-994.629,0.000
1680450274.922,-162.109,-30.273,-29.785,173.828,0.000
1680450274.926,-845.215,-23.438,-28.320,-778.809,0.000
1680450274.930,587.891,-30.762,-37.598,246.094,0.000
1680450274.933,-760.254,-38.086,-27.344,-964.355,0.000
1680450274.937,-1000.000,-39.062,-13.672,-1000.000,0.000
1680450274.941,-443.359,-37.598,-24.902,-248.047,0.000
1680450274.945,-964.355,-36.621,-27.344,-834.961,0.000
1680450274.949,653.809,-41.992,-22.949,259.766,0.000
1680450274.953,-782.227,-44.922,-24.414,-1000.000,0.000
1680450274.957,-1000.000,-43.945,-32.227,-1000.000,0.000
1680450274.961,-188.965,-27.832,-34.668,-157.227,0.000
1680450274.965,950.195,-19.531,-30.762,-998.535,0.000
1680450274.969,-910.645,-20.996,-29.297,-969.238,0.000
1680450274.973,227.539,-26.855,-34.180,29.785,0.000
1680450274.976,-1000.000,-37.109,-33.691,-1000.000,0.000
1680450274.980,-306.641,-33.691,-24.902,-219.727,0.000
1680450274.984,-989.258,-28.809,-24.902,-865.723,0.000
1680450274.988,-972.656,-28.320,-29.785,689.941,0.000
1680450274.992,-116.211,-32.227,-29.785,-632.812,0.000
1680450274.996,-1000.000,-36.621,-30.273,-1000.000,0.000
1680450275.000,-699.219,-37.598,-31.738,-364.746,0.000
1680450275.004,654.297,-34.180,-36.133,-992.188,0.000
1680450275.008,-850.098,-30.762,-33.691,832.031,0.000
1680450275.012,-14.648,-40.527,-28.809,-512.695,0.000
1680450275.016,-1000.000,-38.086,-28.320,-1000.000,0.000
1680450275.019,-473.145,-25.391,-29.785,-243.164,0.000
1680450275.023,883.789,-26.855,-23.438,-978.516,0.000
1680450275.027,-921.875,-33.691,-18.555,929.199,0.000
1680450275.031,1.953,-36.133,-31.250,-325.195,0.000
1680450275.035,-996.094,-36.133,-38.574,-1000.000,0.000
1680450275.039,-1000.000,-34.180,-37.598,-968.262,0.000
1680450275.043,-253.906,-27.344,-35.645,147.949,0.000
1680450275.047,-831.543,-25.879,-33.691,-843.750,0.000
1680450275.051,191.406,-33.691,-31.250,-36.621,0.000
1680450275.055,-1000.000,-38.086,-32.227,-1000.000,0.000
1680450275.058,-1000.000,-37.109,-35.156,-771.484,0.000
1680450275.062,74.707,-28.809,-33.203,521.484,0.000
1680450275.066,-768.555,-28.809,-29.297,-813.965,0.000
1680450275.070,171.875,-39.062,-18.066,89.355,0.000
1680450275.074,-1000.000,-41.992,-20.508,-1000.000,0.000
1680450275.078,-1000.000,-40.039,-34.180,-1000.000,0.000
1680450275.082,-234.375,-30.762,-32.715,79.102,0.000
1680450275.086,-891.113,-20.508,-28.320,-797.852,0.000
1680450275.090,730.957,-28.320,-32.227,324.707,0.000
1680450275.094,-686.523,-34.180,-34.180,-1000.000,0.000
1680450275.098,-1000.000,-30.273,-32.715,-864.258,0.000
1680450275.101,94.727,-26.367,-34.180,469.238,0.000
1680450275.105,-934.082,-25.391,-36.621,-844.727,0.000
1680450275.109,972.656,-26.855,-34.180,560.059,0.000
1680450275.113,-169.922,-41.992,-21.484,-713.379,0.000
1680450275.117,-1000.000,-45.898,-15.137,-1000.000,0.000
1680450275.121,-204.102,-29.785,-24.902,-169.922,0.000
1680450275.125,-936.523,-25.391,-32.227,-843.262,0.000
1680450275.129,895.508,-30.273,-32.227,489.258,0.000
1680450275.133,-401.367,-35.156,-28.809,-864.258,0.000
1680450275.137,-1000.000,-34.668,-25.391,-1000.000,0.000
1680450275.140,-154.297,-25.391,-28.809,-126.953,0.000
1680450275.144,967.773,-23.438,-32.227,-983.887,0.000
1680450275.148,-926.270,-25.879,-30.273,994.141,0.000
1680450275.152,228.027,-31.738,-36.133,-79.590,0.000
1680450275.156,-1000.000,-31.250,-41.016,-1000.000,0.000
1680450275.160,-676.270,-27.832,-24.902,-346.191,0.000
1680450275.164,731.934,-28.320,-19.531,-985.840,0.000
1680450275.168,-855.957,-31.738,-28.320,907.715,0.000
1680450275.172,52.734,-37.109,-33.203,-365.234,0.000
1680450275.176,-1000.000,-43.457,-37.109,-1000.000,0.000
1680450275.180,-806.152,-39.551,-28.809,-452.148,0.000
1680450275.183,523.438,-29.297,-27.832,897.461,0.000
1680450275.187,-811.035,-30.273,-30.762,-988.770,0.000
1680450275.191,160.156,-30.762,-27.832,-220.215,0.000
1680450275.195,-1000.000,-26.367,-26.367,-1000.000,0.000
1680450275.199,-791.992,-27.832,-29.785,-436.035,0.000
1680450275.203,541.016,-21.973,-24.414,844.727,0.000
1680450275.207,-814.941,-23.438,-18.066,-875.000,0.000
1680450275.211,401.367,-34.180,-26.855,208.008,0.000
1680450275.215,-936.523,-43.457,-29.785,-1000.000,0.000
1680450275.219,-1000.000,-40.527,-26.367,-687.988,0.000
1680450275.223,166.504,-28.320,-23.438,667.480,0.000
1680450275.226,-775.879,-27.832,-35.156,-836.426,0.000
1680450275.230,239.746,-34.180,-39.062,132.812,0.000
1680450275.234,-976.074,-34.668,-28.320,-1000.000,0.000
1680450275.238,-1000.000,-35.156,-23.926,-984.375,0.000
1680450275.242,-174.316,-33.203,-28.809,212.402,0.000
1680450275.246,-818.359,-31.738,-31.738,-783.691,0.000
1680450275.250,398.438,-36.133,-25.879,169.434,0.000
1680450275.254,-929.688,-40.527,-26.367,-1000.000,0.000
1680450275.258,-1000.000,-40.527,-33.691,-1000.000,0.000
1680450275.262,-243.164,-40.039,-37.109,-2.441,0.000
1680450275.265,-836.426,-33.691,-25.879,-791.992,0.000
1680450275.269,280.762,-37.598,-27.832,133.789,0.000
1680450275.273,-989.258,-47.363,-38.086,-1000.000,0.000
1680450275.277,-1000.000,-43.945,-38.086,-1000.000,0.000
1680450275.281,-304.688,-40.039,-38.086,-217.285,0.000
1680450275.285,-972.168,-31.250,-37.109,-837.891,0.000
1680450275.289,900.391,-31.250,-32.227,463.379,0.000
1680450275.293,-412.109,-41.504,-32.227,-876.465,0.000
1680450275.297,-1000.000,-41.016,-30.762,-1000.000,0.000
1680450275.301,-203.125,-31.738,-31.250,-185.059,0.000
1680450275.305,952.637,-26.855,-35.645,-980.469,0.000
1680450275.308,-909.668,-30.762,-21.484,977.051,0.000
1680450275.312,204.102,-35.645,-14.648,-190.430,0.000
1680450275.316,-1000.000,-35.156,-29.297,-1000.000,0.000
1680450275.320,-289.062,-29.297,-35.156,-178.223,0.000
1680450275.324,971.191,-20.020,-30.762,-959.961,0.000
1680450275.328,-906.250,-23.926,-24.902,969.238,0.000
1680450275.332,198.242,-38.086,-29.297,-214.844,0.000
1680450275.336,-1000.000,-40.039,-32.715,-1000.000,0.000
1680450275.340,-231.445,-25.391,-28.320,-153.809,0.000
1680450275.344,986.816,-15.137,-21.484,985.352,0.000
1680450275.348,-923.828,-24.414,-23.438,-930.176,0.000
1680450275.351,256.348,-35.645,-32.227,180.664,0.000
1680450275.355,-1000.000,-37.109,-20.020,-1000.000,0.000
1680450275.359,-870.605,-32.227,-18.555,-472.168,0.000
1680450275.363,456.055,-24.414,-27.832,865.234,0.000
1680450275.367,-810.059,-22.949,-20.996,-879.395,0.000
1680450275.371,377.930,-29.785,-19.531,165.527,0.000
1680450275.375,-1000.000,-35.156,-24.414,-1000.000,0.000
1680450275.379,-664.062,-31.738,-25.879,-375.488,0.000
1680450275.383,755.371,-23.926,-25.391,925.293,0.000
1680450275.387,-847.168,-30.273,-37.598,-888.672,0.000
1680450275.390,384.766,-34.180,-42.969,175.293,0.000
1680450275.394,-881.836,-39.551,-39.062,-1000.000,0.000
1680450275.398,-1000.000,-44.434,-25.879,-1000.000,0.000
1680450275.402,-235.352,-32.227,-17.090,-0.977,0.000
1680450275.406,-837.402,-24.902,-31.738,-813.477,0.000
1680450275.410,170.410,-31.250,-34.180,38.086,0.000
1680450275.414,-1000.000,-27.832,-29.297,-1000.000,0.000
1680450275.418,-1000.000,-30.762,-30.762,-1000.000,0.000
1680450275.422,-265.625,-26.855,-28.320,-112.305,0.000
1680450275.426,-853.516,-17.578,-27.832,-803.223,0.000
1680450275.430,546.875,-28.809,-36.133,258.789,0.000
1680450275.433,-839.844,-38.574,-35.156,-1000.000,0.000
1680450275.437,-1000.000,-31.250,-32.715,-1000.000,0.000
1680450275.441,-227.539,-22.461,-30.762,19.043,0.000
1680450275.445,-882.324,-23.438,-16.602,-791.992,0.000
1680450275.449,634.277,-25.391,-18.066,274.414,0.000
1680450275.453,-746.582,-24.902,-29.297,-953.125,0.000
1680450275.457,-1000.000,-25.879,-30.762,-1000.000,0.000
1680450275.461,-816.406,-23.926,-32.227,-478.516,0.000
1680450275.465,490.723,-17.090,-32.715,980.469,0.000
1680450275.469,-832.520,-15.137,-28.809,768.555,0.000
1680450275.473,-103.027,-19.531,-23.926,-643.066,0.000
1680450275.476,-1000.000,-22.949,-21.973,-1000.000,0.000
1680450275.480,-246.582,-16.602,-24.414,-158.691,0.000
1680450275.484,955.566,-11.230,-22.949,-990.723,0.000
1680450275.488,-915.527,-16.602,-19.043,-989.258,0.000
1680450275.492,207.031,-28.809,-22.461,-100.586,0.000
1680450275.496,-1000.000,-33.203,-22.949,-1000.000,0.000
1680450275.500,-587.402,-21.973,-25.391,-281.738,0.000
1680450275.504,812.988,-21.973,-21.973,-977.539,0.000
1680450275.508,-870.117,-23.438,-21.484,942.383,0.000
1680450275.512,53.711,-22.949,-33.691,-284.180,0.000
1680450275.515,-1000.000,-26.367,-33.203,-1000.000,0.000
1680450275.519,-887.207,-23.926,-30.762,-442.871,0.000
1680450275.523,397.461,-16.113,-30.762,856.934,0.000
1680450275.527,-791.016,-15.625,-32.715,-902.832,0.000
1680450275.531,156.738,-23.926,-37.109,41.016,0.000
1680450275.535,-1000.000,-19.531,-38.086,-1000.000,0.000
1680450275.539,-993.652,-18.066,-34.668,-615.234,0.000
1680450275.543,255.859,-28.809,-37.598,750.977,0.000
1680450275.547,-772.949,-34.180,-35.645,-867.188,0.000
1680450275.551,125.977,-44.434,-23.438,3.906,0.000
1680450275.555,-1000.000,-48.340,-26.855,-1000.000,0.000
1680450275.558,-1000.000,-42.969,-34.180,-963.379,0.000
1680450275.562,-199.707,-33.203,-39.062,200.684,0.000
1680450275.566,-860.352,-28.809,-38.574,-790.527,0.000
1680450275.570,646.973,-37.598,-34.180,316.895,0.000
1680450275.574,-755.371,-46.387,-34.180,-1000.000,0.000
1680450275.578,-1000.000,-41.504,-30.273,-938.965,0.000
1680450275.582,-49.805,-36.133,-34.180,371.094,0.000
1680450275.586,-799.316,-36.133,-34.180,-792.969,0.000
1680450275.590,319.824,-38.086,-33.203,135.742,0.000
1680450275.594,-954.590,-38.574,-21.484,-1000.000,0.000
1680450275.598,-1000.000,-32.715,-10.254,-1000.000,0.000
1680450275.601,-248.535,-26.855,-25.391,-112.305,0.000
1680450275.605,-873.047,-21.973,-29.297,-804.688,0.000
1680450275.609,619.141,-26.367,-25.879,293.945,0.000
1680450275.613,-770.020,-25.879,-26.367,-980.469,0.000
1680450275.617,-1000.000,-25.391,-27.832,-1000.000,0.000
1680450275.621,-198.242,-27.832,-31.738,-156.738,0.000
1680450275.625,-966.797,-20.508,-27.832,-849.121,0.000
1680450275.629,937.012,-26.367,-26.367,563.965,0.000
1680450275.633,-315.918,-33.691,-27.344,-784.180,0.000
1680450275.637,-1000.000,-29.297,-28.809,-1000.000,0.000
1680450275.640,-288.574,-27.832,-28.320,-179.688,0.000
1680450275.644,924.316,-24.902,-25.391,-982.910,0.000
1680450275.648,-905.762,-20.508,-28.320,984.375,0.000
1680450275.652,182.129,-24.902,-20.508,-184.082,0.000
1680450275.656,-1000.000,-32.227,-9.277,-1000.000,0.000
1680450275.660,-492.676,-27.344,-26.855,-226.074,0.000
1680450275.664,868.652,-18.555,-37.109,985.352,0.000
1680450275.668,-873.047,-21.973,-30.273,-958.984,0.000
1680450275.672,174.316,-30.273,-30.273,19.043,0.000
1680450275.676,-1000.000,-36.133,-31.738,-1000.000,0.000
1680450275.680,-974.609,-37.598,-28.809,-558.105,0.000
1680450275.683,292.969,-33.203,-19.531,781.738,0.000
1680450275.687,-787.598,-30.762,-20.508,-865.234,0.000
1680450275.691,177.246,-36.621,-27.344,126.953,0.000
1680450275.695,-1000.000,-42.969,-27.832,-1000.000,0.000
1680450275.699,-813.477,-39.551,-19.043,-435.059,0.000
1680450275.703,516.113,-33.691,-15.137,888.672,0.000
1680450275.707,-811.035,-33.203,-24.902,-884.766,0.000
1680450275.711,377.930,-36.621,-27.832,235.352,0.000
1680450275.715,-967.773,-39.062,-27.832,-1000.000,0.000
1680450275.719,-1000.000,-28.809,-23.926,-600.586,0.000
1680450275.723,241.211,-23.926,-26.367,775.391,0.000
1680450275.726,-777.832,-27.832,-29.297,-849.121,0.000
1680450275.730,194.824,-35.156,-17.578,104.980,0.000
1680450275.734,-980.469,-43.945,-19.043,-1000.000,0.000
1680450275.738,-1000.000,-39.062,-30.273,-1000.000,0.000
1680450275.742,-254.395,-31.738,-24.414,-165.527,0.000
1680450275.746,-900.879,-35.156,-27.344,-817.871,0.000
1680450275.750,737.305,-40.527,-35.156,373.047,0.000
1680450275.754,-633.789,-29.297,-33.691,-956.055,0.000
1680450275.758,-1000.000,-21.973,-36.621,-1000.000,0.000
1680450275.762,-162.109,-23.926,-46.387,-61.035,0.000
1680450275.765,972.168,-18.066,-45.898,-926.758,0.000
1680450275.769,-935.547,-14.648,-43.457,872.559,0.000
1680450275.773,108.887,-27.344,-31.250,-327.148,0.000
1680450275.777,-1000.000,-39.062,-24.902,-1000.000,0.000
1680450275.781,-776.855,-35.645,-36.621,-377.930,0.000
1680450275.785,614.746,-23.438,-36.133,-979.492,0.000
1680450275.789,-856.934,-20.020,-31.250,804.688,0.000
1680450275.793,-90.820,-30.762,-30.273,-559.082,0.000
1680450275.797,-1000.000,-37.109,-35.156,-1000.000,0.000
1680450275.801,-436.035,-29.297,-38.086,-225.098,0.000
1680450275.805,874.023,-20.020,-33.691,-979.004,0.000
1680450275.808,-881.348,-21.484,-32.227,945.312,0.000
1680450275.812,148.438,-23.926,-35.156,-270.508,0.000
1680450275.816,-1000.000,-33.691,-35.156,-1000.000,0.000
1680450275.820,-410.645,-30.762,-17.578,-189.453,0.000
1680450275.824,910.156,-25.391,-14.160,980.957,0.000
1680450275.828,-888.672,-25.391,-27.344,-937.988,0.000
1680450275.832,183.105,-28.320,-26.367,111.328,0.000
1680450275.836,-1000.000,-36.133,-25.879,-1000.000,0.000
1680450275.840,-950.684,-36.133,-26.367,-523.926,0.000
1680450275.844,319.336,-31.250,-28.809,813.477,0.000
1680450275.848,-790.527,-27.832,-32.715,-866.211,0.000
1680450275.851,291.016,-34.180,-36.133,179.199,0.000
1680450275.855,-1000.000,-44.922,-35.645,-1000.000,0.000
1680450275.859,-789.062,-38.574,-33.203,-425.781,0.000
1680450275.863,597.656,-32.715,-21.973,906.250,0.000
1680450275.867,-818.359,-33.203,-17.090,-892.578,0.000
1680450275.871,221.680,-34.180,-35.156,180.176,0.000
1680450275.875,-1000.000,-39.062,-32.715,-1000.000,0.000
1680450275.879,-1000.000,-37.598,-28.809,-601.074,0.000
1680450275.883,200.195,-29.297,-35.156,754.395,0.000
1680450275.887,-781.738,-27.344,-37.109,-844.238,0.000
1680450275.890,402.832,-37.598,-31.250,189.941,0.000
1680450275.894,-886.230,-43.945,-28.320,-1000.000,0.000
1680450275.898,-1000.000,-39.062,-31.250,-1000.000,0.000
1680450275.902,-199.707,-33.691,-29.297,12.207,0.000
1680450275.906,-987.793,-20.020,-28.809,-841.797,0.000
1680450275.910,-1000.000,-27.832,-21.973,612.793,0.000
1680450275.914,-197.754,-40.039,-19.043,-693.848,0.000
1680450275.918,-1000.000,-34.180,-27.344,-1000.000,0.000
1680450275.922,-260.254,-27.344,-27.832,-191.895,0.000
1680450275.926,-992.676,-24.902,-22.949,-870.117,0.000
1680450275.930,988.281,-25.879,-22.949,601.074,0.000
1680450275.933,-235.840,-23.438,-22.949,-751.953,0.000
1680450275.937,-1000.000,-30.273,-22.461,-1000.000,0.000
1680450275.941,-357.422,-29.297,-26.855,-212.402,0.000
1680450275.945,943.359,-18.555,-28.320,-896.973,0.000
1680450275.949,-948.242,-23.438,-29.297,698.242,0.000
1680450275.953,-135.742,-31.250,-22.461,-647.949,0.000
1680450275.957,-1000.000,-34.180,-16.602,-1000.000,0.000
1680450275.961,-338.867,-25.879,-26.367,-195.801,0.000
1680450275.965,934.570,-14.160,-29.785,-939.453,0.000
1680450275.969,-918.945,-18.066,-35.156,851.562,0.000
1680450275.973,-6.836,-31.250,-33.691,-416.992,0.000
1680450275.976,-1000.000,-31.250,-33.691,-1000.000,0.000
1680450275.980,-852.539,-23.926,-35.645,-446.777,0.000
1680450275.984,433.105,-19.531,-28.320,849.609,0.000
1680450275.988,-799.316,-19.531,-27.832,-900.879,0.000
1680450275.992,193.848,-22.949,-31.738,21.484,0.000
1680450275.996,-1000.000,-32.227,-28.320,-1000.000,0.000
1680450276.000,-573.242,-34.180,-27.832,-317.871,0.000
1680450276.004,827.637,-29.785,-24.902,-987.305,0.000
1680450276.008,-861.328,-30.762,-28.809,967.773,0.000
1680450276.012,50.293,-34.668,-36.133,-265.625,0.000
1680450276.015,-1000.000,-42.969,-28.320,-1000.000,0.000
1680450276.019,-1000.000,-36.133,-30.762,-833.984,0.000
1680450276.023,-56.152,-23.438,-32.227,395.508,0.000
1680450276.027,-782.227,-24.414,-27.344,-791.992,0.000
1680450276.031,227.051,-31.738,-30.273,105.469,0.000
1680450276.035,-989.746,-35.645,-31.250,-1000.000,0.000
1680450276.039,-1000.000,-30.762,-27.832,-1000.000,0.000
1680450276.043,-233.887,-24.902,-28.809,-116.211,0.000
1680450276.047,-936.035,-21.484,-27.344,-816.895,0.000
1680450276.051,862.793,-20.996,-25.391,406.250,0.000
1680450276.055,-451.660,-26.855,-34.180,-926.758,0.000
1680450276.058,-1000.000,-33.203,-23.438,-1000.000,0.000
1680450276.062,-216.309,-26.855,-9.277,-70.312,0.000
1680450276.066,-894.531,-17.090,-22.461,-808.594,0.000
1680450276.070,716.309,-26.367,-31.250,327.148,0.000
1680450276.074,-647.949,-35.156,-32.227,-952.148,0.000
1680450276.078,-1000.000,-33.203,-31.250,-1000.000,0.000
1680450276.082,-272.461,-22.949,-31.738,-221.191,0.000
1680450276.086,-984.863,-12.695,-36.133,-847.656,0.000
1680450276.090,928.223,-21.484,-30.762,476.074,0.000
1680450276.094,-365.723,-34.180,-26.367,-874.512,0.000
1680450276.098,-1000.000,-40.039,-29.785,-1000.000,0.000
1680450276.101,-224.609,-30.273,-27.832,-192.871,0.000
1680450276.105,982.910,-22.461,-19.531,-899.902,0.000
1680450276.109,-958.984,-27.344,-25.391,725.098,0.000
1680450276.113,-71.777,-29.785,-33.203,-598.633,0.000
1680450276.117,-1000.000,-31.738,-29.785,-1000.000,0.000
1680450276.121,-604.980,-29.297,-26.855,-291.992,0.000
1680450276.125,714.844,-27.344,-26.855,916.504,0.000
1680450276.129,-841.797,-19.531,-23.438,-897.461,0.000
1680450276.133,325.684,-20.508,-18.555,166.504,0.000
1680450276.137,-1000.000,-35.156,-20.996,-1000.000,0.000
1680450276.140,-545.410,-26.367,-23.438,-281.250,0.000
1680450276.144,864.258,-19.043,-30.273,-992.676,0.000
1680450276.148,-877.930,-26.855,-27.344,-967.773,0.000
1680450276.152,205.078,-33.203,-21.484,-41.504,0.000
1680450276.156,-1000.000,-37.109,-27.344,-1000.000,0.000
1680450276.160,-615.234,-27.344,-25.391,-316.406,0.000
1680450276.164,777.344,-22.949,-24.902,979.492,0.000
1680450276.168,-849.609,-29.297,-24.902,-978.516,0.000
1680450276.172,150.391,-35.156,-23.926,-112.305,0.000
1680450276.176,-1000.000,-33.691,-21.484,-1000.000,0.000
1680450276.180,-994.141,-28.809,-21.484,-628.906,0.000
1680450276.183,216.797,-22.949,-27.344,674.316,0.000
1680450276.187,-795.410,-19.531,-34.668,-829.590,0.000
1680450276.191,510.254,-31.738,-33.203,230.957,0.000
1680450276.195,-800.781,-38.086,-20.020,-1000.000,0.000
1680450276.199,-1000.000,-33.691,-23.438,-1000.000,0.000
1680450276.203,-213.867,-28.320,-32.715,94.727,0.000
1680450276.207,-891.602,-22.461,-27.832,-793.457,0.000
1680450276.211,696.289,-26.367,-25.879,297.363,0.000
1680450276.215,-680.176,-29.785,-24.414,-988.770,0.000
1680450276.219,-1000.000,-31.250,-30.762,-1000.000,0.000
1680450276.223,-218.262,-25.879,-30.762,21.973,0.000
1680450276.226,-896.973,-18.555,-27.832,-797.852,0.000
1680450276.230,705.078,-27.832,-29.297,323.730,0.000
1680450276.234,-658.203,-30.762,-26.855,-943.359,0.000
1680450276.238,-1000.000,-32.715,-16.113,-1000.000,0.000
1680450276.242,-289.062,-29.297,-12.695,-202.637,0.000
1680450276.246,934.570,-19.043,-25.391,-932.617,0.000
1680450276.250,-917.480,-22.949,-31.738,840.332,0.000
1680450276.254,26.855,-28.809,-35.156,-443.848,0.000
1680450276.258,-1000.000,-29.785,-35.156,-1000.000,0.000
1680450276.262,-285.156,-26.367,-32.715,-159.180,0.000
1680450276.265,948.730,-24.414,-30.273,-991.699,0.000
1680450276.269,-896.484,-27.344,-26.367,-982.422,0.000
1680450276.273,213.867,-35.156,-23.438,-53.223,0.000
1680450276.277,-1000.000,-38.574,-18.555,-1000.000,0.000
1680450276.281,-209.473,-23.438,-20.996,-157.715,0.000
1680450276.285,-989.258,-27.344,-20.020,-935.059,0.000
1680450276.289,-939.941,-37.109,-21.973,935.547,0.000
1680450276.293,142.090,-33.691,-33.203,-257.324,0.000
1680450276.297,-1000.000,-34.668,-34.668,-1000.000,0.000
1680450276.301,-513.184,-28.809,-32.227,-242.676,0.000
1680450276.305,846.680,-21.484,-27.344,988.770,0.000
1680450276.308,-870.117,-19.531,-23.926,-977.539,0.000
1680450276.312,181.641,-26.367,-25.391,-67.871,0.000
1680450276.316,-1000.000,-29.297,-26.855,-1000.000,0.000
1680450276.320,-837.402,-31.738,-32.227,-409.668,0.000
1680450276.324,496.582,-27.344,-35.156,886.719,0.000
1680450276.328,-797.852,-24.414,-23.438,-888.184,0.000
1680450276.332,203.125,-36.133,-24.414,141.113,0.000
1680450276.336,-997.559,-41.016,-38.086,-1000.000,0.000
1680450276.340,-1000.000,-38.574,-35.156,-821.289,0.000
1680450276.344,-14.648,-31.250,-29.297,493.652,0.000
1680450276.348,-782.227,-28.809,-25.391,-806.641,0.000
1680450276.351,183.105,-33.203,-28.320,86.914,0.000
1680450276.355,-1000.000,-41.016,-32.227,-1000.000,0.000
1680450276.359,-1000.000,-42.480,-33.203,-1000.000,0.000
1680450276.363,-260.254,-31.738,-29.785,-119.141,0.000
1680450276.367,-865.234,-25.391,-29.785,-807.129,0.000
1680450276.371,599.121,-28.809,-31.738,278.320,0.000
1680450276.375,-791.016,-32.715,-31.738,-1000.000,0.000
1680450276.379,-1000.000,-31.250,-31.738,-1000.000,0.000
1680450276.383,-190.430,-18.555,-33.691,-55.664,0.000
1680450276.387,-987.793,-18.066,-33.691,-851.074,0.000
1680450276.390,999.512,-25.879,-25.391,609.863,0.000
1680450276.394,-209.473,-28.320,-27.832,-724.121,0.000
1680450276.398,-1000.000,-31.250,-34.180,-1000.000,0.000
1680450276.402,-177.246,-32.715,-34.668,-131.836,0.000
1680450276.406,-996.094,-32.715,-33.203,-895.508,0.000
1680450276.410,-950.195,-32.227,-34.180,741.211,0.000
1680450276.414,-61.523,-35.156,-35.645,-581.543,0.000
1680450276.418,-1000.000,-42.969,-29.785,-1000.000,0.000
1680450276.422,-196.289,-36.621,-24.414,-149.902,0.000
1680450276.426,-969.727,-26.367,-27.832,-875.488,0.000
1680450276.430,996.582,-32.715,-30.762,663.574,0.000
1680450276.433,-171.875,-41.992,-20.996,-668.457,0.000
1680450276.437,-1000.000,-41.992,-13.672,-1000.000,0.000
1680450276.441,-512.695,-33.203,-27.832,-248.535,0.000
1680450276.445,799.316,-24.902,-36.133,975.098,0.000
1680450276.449,-860.840,-21.484,-32.715,-974.609,0.000
1680450276.453,204.102,-27.832,-29.297,-78.613,0.000
1680450276.457,-1000.000,-33.203,-30.762,-1000.000,0.000
1680450276.461,-594.727,-24.902,-31.250,-277.832,0.000
1680450276.465,794.922,-21.484,-32.715,960.938,0.000
1680450276.469,-849.609,-23.438,-31.250,-927.246,0.000
1680450276.473,150.879,-29.785,-30.762,88.379,0.000
1680450276.476,-1000.000,-32.227,-28.320,-1000.000,0.000
1680450276.480,-1000.000,-27.832,-17.578,-720.703,0.000
1680450276.484,70.312,-19.043,-22.949,610.840,0.000
1680450276.488,-771.484,-12.695,-34.668,-821.777,0.000
1680450276.492,137.207,-25.391,-37.109,65.430,0.000
1680450276.496,-996.094,-30.762,-35.156,-1000.000,0.000
1680450276.500,-1000.000,-27.344,-32.227,-1000.000,0.000
1680450276.504,-519.531,-23.926,-31.738,-278.809,0.000
1680450276.508,-942.383,-16.602,-25.879,-850.586,0.000
1680450276.512,305.176,-26.367,-21.484,178.223,0.000
1680450276.515,-1000.000,-34.668,-24.414,-1000.000,0.000
1680450276.519,-1000.000,-29.297,-31.738,-949.219,0.000
1680450276.523,-139.648,-19.531,-23.438,264.160,0.000
1680450276.527,-825.195,-17.578,-8.789,-782.715,0.000
1680450276.531,514.160,-29.785,-18.066,189.941,0.000
1680450276.535,-842.285,-40.039,-22.949,-998.535,0.000
1680450276.539,-1000.000,-35.645,-18.555,-1000.000,0.000
1680450276.543,-238.770,-22.949,-20.996,-132.324,0.000
1680450276.547,-854.004,-22.949,-27.832,-809.082,0.000
1680450276.551,494.141,-24.902,-28.809,199.219,0.000
1680450276.555,-881.836,-23.438,-27.344,-1000.000,0.000
1680450276.558,-1000.000,-32.715,-28.809,-1000.000,0.000
1680450276.562,-236.816,-29.785,-31.250,-171.387,0.000
1680450276.566,-873.535,-24.902,-32.715,-812.500,0.000
1680450276.570,593.262,-27.832,-27.344,247.070,0.000
1680450276.574,-769.531,-29.785,-27.832,-992.188,0.000
1680450276.578,-1000.000,-30.273,-31.738,-1000.000,0.000
1680450276.582,-493.652,-24.902,-29.297,-321.289,0.000
1680450276.586,944.824,-20.508,-33.691,-867.188,0.000
1680450276.590,873.047,-29.297,-31.250,435.547,0.000
1680450276.594,-527.832,-41.504,-26.855,-908.691,0.000
1680450276.598,-1000.000,-41.016,-27.344,-1000.000,0.000
1680450276.601,-780.273,-35.156,-22.949,-481.445,0.000
1680450276.605,491.699,-28.320,-22.949,901.367,0.000
1680450276.609,-795.898,-22.949,-25.879,958.984,0.000
1680450276.613,73.242,-30.273,-17.578,-379.883,0.000
1680450276.617,-1000.000,-41.016,-13.184,-1000.000,0.000
1680450276.621,-1000.000,-41.992,-27.832,-955.078,0.000
1680450276.625,-215.332,-32.715,-31.738,207.520,0.000
1680450276.629,-830.566,-25.391,-25.391,-874.023,0.000
1680450276.633,215.820,-36.133,-23.926,-125.977,0.000
1680450276.637,-1000.000,-40.527,-28.320,-1000.000,0.000
1680450276.640,-860.352,-34.668,-31.250,-491.699,0.000
1680450276.644,459.961,-34.668,-32.227,818.848,0.000
1680450276.648,-799.316,-31.738,-29.297,-875.488,0.000
1680450276.652,233.398,-33.203,-26.367,129.883,0.000
1680450276.656,-1000.000,-40.039,-30.273,-1000.000,0.000
1680450276.660,-986.816,-46.387,-28.809,-660.156,0.000
1680450276.664,273.438,-37.109,-27.832,694.336,0.000
1680450276.668,-784.668,-33.691,-32.715,-842.285,0.000
1680450276.672,370.605,-40.039,-29.785,164.551,0.000
1680450276.676,-953.125,-37.598,-29.785,-1000.000,0.000
1680450276.680,-1000.000,-31.250,-32.715,-791.504,0.000
1680450276.683,188.477,-23.438,-29.785,549.316,0.000
1680450276.687,-959.961,-23.438,-27.344,-899.902,0.000
1680450276.691,-970.215,-26.367,-23.926,762.695,0.000
1680450276.695,85.449,-32.715,-23.438,-488.770,0.000
1680450276.699,-1000.000,-38.574,-30.273,-1000.000,0.000
1680450276.703,-240.723,-27.344,-23.926,53.711,0.000
1680450276.707,-828.613,-17.578,-20.996,-783.691,0.000
1680450276.711,538.574,-18.066,-28.809,224.609,0.000
1680450276.715,-825.195,-23.926,-29.297,-986.816,0.000
1680450276.719,-1000.000,-30.762,-28.320,-1000.000,0.000
1680450276.723,-363.770,-25.391,-29.785,-239.258,0.000
1680450276.726,962.402,-14.648,-30.762,-862.793,0.000
1680450276.730,986.328,-20.996,-32.715,561.035,0.000
1680450276.734,-301.758,-26.855,-33.203,-800.781,0.000
1680450276.738,-1000.000,-31.738,-29.297,-1000.000,0.000
1680450276.742,-191.406,-33.691,-29.297,-156.738,0.000
1680450276.746,967.773,-24.414,-33.691,-962.891,0.000
1680450276.750,-927.734,-21.484,-29.785,941.895,0.000
1680450276.754,150.391,-33.691,-27.832,-254.395,0.000
1680450276.758,-1000.000,-37.598,-33.691,-1000.000,0.000
1680450276.762,-576.660,-28.320,-32.227,-274.414,0.000
1680450276.765,804.199,-19.531,-24.414,-990.234,0.000
1680450276.769,-863.281,-20.996,-28.320,954.590,0.000
1680450276.773,104.004,-29.297,-34.668,-255.371,0.000
1680450276.777,-1000.000,-32.715,-34.180,-1000.000,0.000
1680450276.781,-875.977,-34.668,-36.133,-449.707,0.000
1680450276.785,397.949,-26.855,-37.598,824.219,0.000
1680450276.789,-811.035,-20.996,-34.180,-863.281,0.000
1680450276.793,505.371,-26.367,-32.227,249.023,0.000
1680450276.797,-1000.000,-35.645,-32.227,-1000.000,0.000
1680450276.801,-670.898,-36.621,-29.297,-306.152,0.000
1680450276.805,801.270,-30.273,-27.344,987.793,0.000
1680450276.808,-856.445,-27.832,-24.902,-936.523,0.000
1680450276.812,160.645,-33.203,-25.879,96.680,0.000
1680450276.816,-1000.000,-34.180,-30.273,-1000.000,0.000
1680450276.820,-1000.000,-28.320,-30.762,-646.484,0.000
1680450276.824,213.867,-22.461,-31.738,735.840,0.000
1680450276.828,-779.297,-23.438,-32.715,-880.859,0.000
1680450276.832,159.180,-28.320,-35.156,-12.695,0.000
1680450276.836,-1000.000,-30.762,-29.785,-1000.000,0.000
1680450276.840,-988.281,-26.367,-34.668,-632.812,0.000
1680450276.844,230.469,-14.160,-39.062,691.406,0.000
1680450276.848,-785.156,-17.090,-34.180,-829.590,0.000
1680450276.851,448.730,-26.855,-30.762,223.145,0.000
1680450276.855,-854.492,-31.250,-25.391,-988.281,0.000
1680450276.859,-1000.000,-26.855,-26.367,-1000.000,0.000
1680450276.863,-219.238,-19.531,-26.367,-43.945,0.000
1680450276.867,-930.664,-22.461,-30.273,-815.430,0.000
1680450276.871,829.590,-29.297,-37.598,443.359,0.000
1680450276.875,-517.578,-30.273,-36.133,-942.383,0.000
1680450276.879,-1000.000,-21.973,-32.227,-1000.000,0.000
1680450276.883,-131.348,-12.695,-28.320,189.941,0.000
1680450276.887,-942.383,-15.625,-26.855,-819.336,0.000
1680450276.890,915.039,-19.531,-24.414,533.203,0.000
1680450276.894,-337.891,-23.926,-28.809,-765.625,0.000
1680450276.898,-1000.000,-29.297,-19.531,-1000.000,0.000
1680450276.902,-279.297,-33.203,-20.020,-187.500,0.000
1680450276.906,964.355,-26.855,-34.180,-907.227,0.000
1680450276.910,-953.613,-26.367,-25.391,749.023,0.000
1680450276.914,-103.027,-38.086,-22.461,-562.500,0.000
1680450276.918,-1000.000,-42.480,-23.926,-1000.000,0.000
1680450276.922,-706.543,-42.969,-21.484,-342.773,0.000
1680450276.926,609.375,-38.086,-19.043,918.945,0.000
1680450276.930,-823.242,-28.320,-19.531,-930.664,0.000
1680450276.933,189.941,-28.320,-26.855,-5.371,0.000
1680450276.937,-1000.000,-29.785,-28.320,-1000.000,0.000
1680450276.941,-688.477,-27.344,-24.902,-358.398,0.000
1680450276.945,700.195,-25.879,-17.090,965.332,0.000
1680450276.949,-837.402,-25.391,-23.438,-971.191,0.000
1680450276.953,147.461,-33.203,-34.180,-119.629,0.000
1680450276.957,-1000.000,-38.574,-26.855,-1000.000,0.000
1680450276.961,-947.266,-28.320,-25.391,-537.598,0.000
1680450276.965,339.355,-14.160,-33.203,833.496,0.000
1680450276.969,-783.203,-13.184,-34.668,-941.895,0.000
1680450276.973,116.699,-29.785,-35.645,-177.246,0.000
1680450276.976,-1000.000,-36.133,-35.156,-1000.000,0.000
1680450276.980,-1000.000,-34.180,-32.227,-795.410,0.000
1680450276.984,44.434,-27.344,-33.203,479.980,0.000
1680450276.988,-773.438,-26.367,-22.949,-810.547,0.000
1680450276.992,145.996,-39.062,-16.113,95.215,0.000
1680450276.996,-1000.000,-40.527,-31.738,-1000.000,0.000
1680450277.000,-1000.000,-35.645,-35.645,-945.312,0.000
1680450277.004,-109.863,-25.391,-31.738,291.992,0.000
1680450277.008,-796.387,-19.043,-31.738,-790.527,0.000
1680450277.012,281.250,-27.832,-32.227,150.391,0.000
1680450277.015,-992.676,-31.250,-26.855,-1000.000,0.000
1680450277.019,-1000.000,-27.344,-26.367,-943.359,0.000
1680450277.023,-58.105,-23.926,-33.203,297.363,0.000
1680450277.027,-963.867,-29.785,-35.645,-849.609,0.000
1680450277.031,-983.887,-32.227,-33.203,668.457,0.000
1680450277.035,-102.051,-38.574,-22.949,-638.184,0.000
1680450277.039,-1000.000,-38.086,-23.438,-1000.000,0.000
1680450277.043,-195.312,-21.484,-30.762,37.598,0.000
1680450277.047,-965.820,-21.484,-25.879,-839.355,0.000
1680450277.051,983.398,-25.879,-23.926,600.098,0.000
1680450277.055,-216.309,-28.809,-23.438,-711.914,0.000
1680450277.058,-1000.000,-32.227,-22.461,-1000.000,0.000
1680450277.062,-357.910,-27.832,-23.926,-211.914,0.000
1680450277.066,966.797,-24.902,-26.855,-875.488,0.000
1680450277.070,-990.234,-26.367,-27.344,618.164,0.000
1680450277.074,-257.812,-36.621,-24.414,-750.977,0.000
1680450277.078,-1000.000,-39.062,-12.695,-1000.000,0.000
1680450277.082,-184.082,-29.297,-9.277,-157.227,0.000
1680450277.086,981.934,-27.832,-23.926,-940.430,0.000
1680450277.090,-935.059,-26.367,-27.832,866.211,0.000
1680450277.094,42.969,-26.855,-24.902,-373.535,0.000
1680450277.098,-1000.000,-27.832,-27.832,-1000.000,0.000
1680450277.101,-931.641,-26.855,-28.320,-528.809,0.000
1680450277.105,346.191,-20.996,-33.691,863.281,0.000
1680450277.109,-799.805,-20.020,-37.598,970.215,0.000
1680450277.113,19.043,-27.832,-32.227,-349.121,0.000
1680450277.117,-1000.000,-28.320,-33.203,-1000.000,0.000
1680450277.121,-933.105,-25.879,-32.715,-548.828,0.000
1680450277.125,321.777,-21.973,-31.738,765.625,0.000
1680450277.129,-778.320,-24.414,-34.180,-877.441,0.000
1680450277.133,142.578,-37.109,-39.062,23.438,0.000
1680450277.137,-1000.000,-41.992,-38.086,-1000.000,0.000
1680450277.140,-1000.000,-35.645,-29.297,-744.141,0.000
1680450277.144,59.570,-24.902,-29.297,562.500,0.000
1680450277.148,-786.621,-21.484,-32.715,-819.336,0.000
1680450277.152,452.637,-27.344,-29.297,221.191,0.000
1680450277.156,-912.598,-33.691,-27.832,-1000.000,0.000
1680450277.160,-1000.000,-34.180,-29.785,-810.059,0.000
1680450277.164,68.848,-28.809,-26.367,526.367,0.000
1680450277.168,-793.945,-30.762,-20.508,-804.688,0.000
1680450277.172,455.566,-33.691,-25.391,186.523,0.000
1680450277.176,-860.352,-32.715,-27.832,-982.422,0.000
1680450277.180,-1000.000,-30.273,-23.926,-1000.000,0.000
1680450277.183,-264.648,-26.367,-23.438,-190.918,0.000
1680450277.187,-854.492,-25.391,-25.391,-817.871,0.000
1680450277.191,437.012,-33.203,-33.691,191.406,0.000
1680450277.195,-918.945,-39.551,-34.180,-1000.000,0.000
1680450277.199,-1000.000,-37.598,-30.762,-1000.000,0.000
1680450277.203,-265.137,-31.250,-31.250,-222.656,0.000
1680450277.207,994.629,-25.879,-30.273,-858.887,0.000
1680450277.211,999.023,-27.344,-27.832,568.848,0.000
1680450277.215,-230.469,-31.738,-31.738,-803.223,0.000
1680450277.219,-1000.000,-32.227,-32.227,-1000.000,0.000
1680450277.223,-198.242,-29.785,-32.227,-107.910,0.000
1680450277.226,-950.195,-23.438,-31.738,-836.426,0.000
1680450277.230,919.922,-27.344,-26.367,498.535,0.000
1680450277.234,-327.637,-31.738,-25.391,-826.172,0.000
1680450277.238,-1000.000,-32.227,-33.203,-1000.000,0.000
1680450277.242,-521.484,-30.273,-34.180,-301.758,0.000
1680450277.246,798.340,-24.902,-32.227,-993.652,0.000
1680450277.250,-862.305,-28.320,-28.320,910.645,0.000
1680450277.254,66.406,-31.250,-20.996,-356.934,0.000
1680450277.258,-1000.000,-37.109,-26.367,-1000.000,0.000
1680450277.262,-995.605,-41.992,-31.250,-609.375,0.000
1680450277.265,223.633,-30.273,-29.297,727.539,0.000
1680450277.269,-771.484,-31.738,-36.621,-903.320,0.000
1680450277.273,123.047,-43.945,-26.367,-147.949,0.000
1680450277.277,-1000.000,-44.922,-20.508,-1000.000,0.000
1680450277.281,-1000.000,-43.457,-40.039,-791.016,0.000
1680450277.285,-46.875,-33.203,-34.668,409.180,0.000
1680450277.289,-784.180,-28.809,-29.785,-802.246,0.000
1680450277.293,201.660,-33.691,-32.715,111.816,0.000
1680450277.297,-1000.000,-35.645,-38.574,-1000.000,0.000
1680450277.301,-1000.000,-34.668,-38.086,-979.980,0.000
1680450277.305,-166.016,-26.855,-30.273,187.012,0.000
1680450277.308,-944.336,-22.461,-25.879,-812.988,0.000
1680450277.312,935.059,-29.297,-26.367,479.492,0.000
1680450277.316,-333.496,-35.645,-27.344,-906.250,0.000
1680450277.320,-1000.000,-38.574,-14.160,-1000.000,0.000
1680450277.324,-148.926,-31.738,-19.043,313.477,0.000
1680450277.328,-819.336,-25.391,-28.320,-798.340,0.000
1680450277.332,444.824,-33.203,-25.879,202.148,0.000
1680450277.336,-917.480,-36.133,-27.832,-1000.000,0.000
1680450277.340,-1000.000,-37.109,-27.344,-974.121,0.000
1680450277.344,-115.723,-34.180,-29.297,246.094,0.000
1680450277.348,-921.387,-27.344,-23.926,-808.594,0.000
1680450277.351,867.188,-30.762,-22.949,481.445,0.000
1680450277.355,-421.387,-42.969,-24.902,-847.168,0.000
1680450277.359,-1000.000,-41.016,-26.855,-1000.000,0.000
1680450277.363,-191.895,-31.250,-17.090,36.621,0.000
1680450277.367,-933.105,-33.203,-11.719,-811.523,0.000
1680450277.371,862.793,-39.551,-29.785,460.938,0.000
1680450277.375,-448.242,-41.992,-32.715,-852.051,0.000
1680450277.379,-1000.000,-37.109,-34.180,-1000.000,0.000
1680450277.383,-204.590,-28.809,-32.715,-151.855,0.000
1680450277.387,991.699,-23.438,-26.855,-922.852,0.000
1680450277.390,-993.164,-24.902,-20.020,834.961,0.000
1680450277.394,-46.387,-28.809,-19.531,-445.801,0.000
1680450277.398,-1000.000,-29.297,-22.461,-1000.000,0.000
1680450277.402,-403.320,-25.391,-21.484,-184.570,0.000
1680450277.406,895.996,-20.996,-24.902,-989.258,0.000
1680450277.410,-890.137,-22.949,-19.043,-999.512,0.000
1680450277.414,194.336,-33.203,-16.602,-119.629,0.000
1680450277.418,-1000.000,-31.250,-25.391,-1000.000,0.000
1680450277.422,-580.566,-27.344,-27.832,-254.395,0.000
1680450277.426,799.805,-28.320,-22.949,974.121,0.000
1680450277.430,-861.328,-29.785,-20.508,-936.523,0.000
1680450277.433,200.684,-32.715,-26.855,49.805,0.000
1680450277.437,-1000.000,-33.691,-27.832,-1000.000,0.000
1680450277.441,-635.254,-28.809,-25.879,-317.383,0.000
1680450277.445,753.418,-20.996,-27.832,948.730,0.000
1680450277.449,-839.844,-23.926,-32.227,-915.527,0.000
1680450277.453,163.086,-31.250,-29.785,130.859,0.000
1680450277.457,-1000.000,-34.668,-26.367,-1000.000,0.000
1680450277.461,-1000.000,-31.738,-25.879,-765.625,0.000
1680450277.465,39.062,-26.367,-32.227,547.363,0.000
1680450277.469,-818.359,-29.297,-32.227,-816.406,0.000
1680450277.472,614.746,-33.691,-24.414,303.223,0.000
1680450277.476,-722.168,-29.297,-25.879,-998.535,0.000
1680450277.480,-1000.000,-31.738,-29.785,-1000.000,0.000
1680450277.484,-161.621,-31.738,-28.320,216.309,0.000
1680450277.488,-905.273,-31.738,-20.996,-804.199,0.000
1680450277.492,784.180,-39.062,-22.461,409.668,0.000
1680450277.496,-587.402,-42.969,-29.297,-987.305,0.000
1680450277.500,-1000.000,-40.527,-29.297,-940.430,0.000
1680450277.504,-41.992,-33.691,-34.180,387.695,0.000
1680450277.508,-854.492,-31.738,-40.527,-799.805,0.000
1680450277.512,676.758,-34.180,-39.551,331.055,0.000
1680450277.515,-650.879,-39.062,-29.785,-914.062,0.000
1680450277.519,-1000.000,-43.945,-27.832,-1000.000,0.000
1680450277.523,-331.543,-34.668,-27.832,-226.562,0.000
1680450277.527,990.234,-26.855,-23.926,-857.910,0.000
1680450277.531,941.895,-31.738,-25.391,526.855,0.000
1680450277.535,-365.723,-30.762,-23.926,-831.543,0.000
1680450277.539,-1000.000,-28.809,-25.391,-1000.000,0.000
1680450277.543,-270.020,-23.926,-26.855,-216.309,0.000
1680450277.547,-965.332,-18.555,-23.438,-853.516,0.000
1680450277.551,895.508,-24.414,-25.879,502.930,0.000
1680450277.555,-419.922,-26.367,-33.203,-859.375,0.000
1680450277.558,-1000.000,-20.996,-25.391,-1000.000,0.000
1680450277.562,-203.613,-17.090,-20.508,-176.270,0.000
1680450277.566,965.820,-17.090,-32.715,-946.777,0.000
1680450277.570,-926.270,-17.578,-31.250,877.441,0.000
1680450277.574,56.152,-21.973,-24.414,-363.281,0.000
1680450277.578,-1000.000,-29.297,-25.879,-1000.000,0.000
1680450277.582,-987.305,-29.297,-28.320,-615.723,0.000
1680450277.586,225.586,-24.902,-27.832,708.984,0.000
1680450277.590,-780.273,-22.949,-27.344,-880.859,0.000
1680450277.594,176.758,-26.367,-22.949,-7.324,0.000
1680450277.597,-1000.000,-30.273,-27.832,-1000.000,0.000
1680450277.601,-847.656,-27.344,-32.227,-468.750,0.000
1680450277.605,494.629,-23.438,-20.508,883.789,0.000
1680450277.609,-809.082,-21.973,-27.344,-920.410,0.000
1680450277.613,181.641,-22.461,-39.551,-41.992,0.000
1680450277.617,-1000.000,-28.320,-42.969,-1000.000,0.000
1680450277.621,-765.137,-26.367,-40.039,-454.590,0.000
1680450277.625,591.309,-19.531,-31.738,852.051,0.000
1680450277.629,-810.059,-18.066,-25.879,-865.723,0.000
1680450277.633,280.273,-23.438,-21.484,137.207,0.000
1680450277.637,-932.617,-37.109,-20.996,-1000.000,0.000
1680450277.640,-1000.000,-33.203,-22.461,-1000.000,0.000
1680450277.644,-244.629,-19.531,-29.785,-30.273,0.000
1680450277.648,-834.473,-17.578,-23.926,-806.641,0.000
1680450277.652,189.453,-26.367,-12.695,69.824,0.000
1680450277.656,-1000.000,-31.250,-24.902,-1000.000,0.000
1680450277.660,-1000.000,-27.344,-27.832,-1000.000,0.000
1680450277.664,-260.742,-23.438,-21.484,-128.906,0.000
1680450277.668,-831.543,-21.484,-25.879,-806.152,0.000
1680450277.672,288.574,-31.250,-28.320,138.672,0.000
1680450277.676,-991.211,-39.062,-23.438,-1000.000,0.000
1680450277.680,-1000.000,-33.691,-23.438,-1000.000,0.000
1680450277.683,-232.910,-31.250,-29.785,-172.852,0.000
1680450277.687,-932.129,-27.344,-29.785,-817.383,0.000
1680450277.691,835.938,-28.809,-27.344,382.324,0.000
1680450277.695,-461.426,-39.551,-22.949,-926.270,0.000
1680450277.699,-1000.000,-45.898,-23.926,-1000.000,0.000
1680450277.703,-458.496,-41.992,-29.785,-303.223,0.000
1680450277.707,877.441,-30.273,-29.785,-911.133,0.000
1680450277.711,-915.039,-30.273,-27.344,665.527,0.000
1680450277.715,-116.211,-39.062,-31.250,-712.402,0.000
1680450277.719,-1000.000,-42.969,-36.621,-1000.000,0.000
1680450277.722,-219.727,-28.809,-30.273,-198.730,0.000
1680450277.726,977.539,-20.508,-27.832,-938.965,0.000
1680450277.730,-933.105,-29.297,-35.156,846.191,0.000
1680450277.734,92.285,-32.715,-38.086,-427.734,0.000
1680450277.738,-1000.000,-34.180,-24.902,-1000.000,0.000
1680450277.742,-740.234,-34.668,-20.020,-415.527,0.000
1680450277.746,641.113,-31.250,-27.832,969.238,0.000
1680450277.750,-832.520,-27.344,-24.414,898.926,0.000
1680450277.754,-65.918,-31.250,-26.855,-479.492,0.000
1680450277.758,-1000.000,-38.086,-25.879,-1000.000,0.000
1680450277.762,-1000.000,-37.598,-17.090,-974.121,0.000
1680450277.765,-219.238,-26.855,-12.207,144.043,0.000
1680450277.769,-828.125,-23.438,-13.672,-818.848,0.000
1680450277.773,227.539,-34.180,-13.672,11.719,0.000
1680450277.777,-1000.000,-41.016,-16.602,-1000.000,0.000
1680450277.781,-719.727,-33.691,-19.043,-420.410,0.000
1680450277.785,645.996,-29.297,-11.230,887.207,0.000
1680450277.789,-817.383,-30.273,-7.324,-879.883,0.000
1680450277.793,216.309,-33.691,-16.602,131.836,0.000
1680450277.797,-965.332,-43.945,-21.484,-1000.000,0.000
1680450277.801,-1000.000,-42.480,-20.508,-1000.000,0.000
1680450277.805,-204.102,-34.180,-19.043,123.535,0.000
1680450277.808,-821.777,-35.156,-21.973,-792.969,0.000
1680450277.812,278.809,-48.340,-30.273,138.184,0.000
1680450277.816,-1000.000,-46.875,-29.297,-1000.000,0.000
1680450277.820,-1000.000,-37.598,-28.809,-962.891,0.000
1680450277.824,-76.172,-32.715,-36.621,268.555,0.000
1680450277.828,-797.363,-24.902,-26.367,-781.738,0.000
1680450277.832,377.930,-34.180,-19.043,147.949,0.000
1680450277.836,-925.781,-37.598,-29.297,-1000.000,0.000
1680450277.840,-1000.000,-32.227,-37.109,-1000.000,0.000
1680450277.844,-243.652,-26.855,-32.227,-44.922,0.000
1680450277.847,-873.047,-20.996,-28.320,-794.922,0.000
1680450277.851,608.398,-28.320,-29.785,263.672,0.000
1680450277.855,-773.438,-35.156,-27.832,-978.027,0.000
1680450277.859,-1000.000,-34.668,-24.414,-1000.000,0.000
1680450277.863,-232.910,-28.809,-27.832,-226.562,0.000
1680450277.867,979.980,-18.555,-36.133,-879.395,0.000
1680450277.871,-963.867,-17.090,-28.320,642.090,0.000
1680450277.875,-107.422,-25.879,-21.484,-708.984,0.000
1680450277.879,-1000.000,-43.457,-27.832,-1000.000,0.000
1680450277.883,-275.879,-43.945,-30.273,-196.777,0.000
1680450277.887,970.703,-33.691,-31.250,-932.129,0.000
1680450277.890,-937.012,-39.062,-26.855,839.844,0.000
1680450277.894,-22.949,-42.480,-23.926,-462.402,0.000
1680450277.898,-1000.000,-41.504,-32.715,-1000.000,0.000
1680450277.902,-367.676,-28.809,-33.691,-184.082,0.000
1680450277.906,907.227,-20.508,-28.320,980.469,0.000
1680450277.910,-893.066,-22.949,-33.203,-944.824,0.000
1680450277.914,204.102,-27.344,-37.109,57.617,0.000
1680450277.918,-1000.000,-37.109,-37.109,-1000.000,0.000
1680450277.922,-778.809,-28.809,-35.156,-431.641,0.000
1680450277.926,600.098,-18.555,-30.273,951.172,0.000
1680450277.930,-827.148,-23.926,-32.227,-997.070,0.000
1680450277.933,97.168,-33.691,-27.344,-218.750,0.000
1680450277.937,-1000.000,-32.227,-17.090,-1000.000,0.000
1680450277.941,-868.164,-26.367,-25.879,-487.793,0.000
1680450277.945,445.312,-24.414,-28.809,817.871,0.000
1680450277.949,-793.457,-23.438,-26.855,-875.000,0.000
1680450277.953,148.438,-27.344,-25.879,114.746,0.000
1680450277.957,-1000.000,-28.809,-30.762,-1000.000,0.000
1680450277.961,-1000.000,-24.414,-33.203,-713.867,0.000
1680450277.965,153.320,-19.531,-29.297,633.301,0.000
1680450277.969,-768.555,-14.648,-32.715,-826.660,0.000
1680450277.972,156.738,-19.531,-41.016,119.141,0.000
1680450277.976,-1000.000,-26.367,-36.621,-1000.000,0.000
1680450277.980,-1000.000,-31.738,-24.414,-1000.000,0.000
1680450277.984,-194.824,-29.785,-28.320,152.344,0.000
1680450277.988,-824.219,-23.926,-38.086,-776.855,0.000
1680450277.992,456.055,-30.273,-35.156,184.570,0.000
1680450277.996,-899.414,-29.785,-31.250,-1000.000,0.000
1680450278.000,-1000.000,-30.273,-27.832,-1000.000,0.000
1680450278.004,-222.656,-21.484,-28.809,-167.480,0.000
1680450278.008,-925.781,-17.090,-29.297,-822.266,0.000
1680450278.012,812.988,-27.832,-25.879,413.574,0.000
1680450278.015,-529.785,-34.668,-28.320,-923.340,0.000
1680450278.019,-1000.000,-36.621,-24.902,-1000.000,0.000
1680450278.023,-189.941,-35.156,-20.020,-143.555,0.000
1680450278.027,-968.750,-33.203,-18.555,-859.863,0.000
1680450278.031,954.102,-34.668,-21.484,612.793,0.000
1680450278.035,-285.645,-42.480,-28.809,-737.793,0.000
1680450278.039,-1000.000,-43.457,-22.949,-1000.000,0.000
1680450278.043,-284.668,-31.738,-19.531,-188.477,0.000
1680450278.047,933.105,-20.508,-30.273,-961.426,0.000
1680450278.051,-908.203,-25.879,-28.809,924.805,0.000
1680450278.055,132.812,-35.156,-25.391,-312.500,0.000
1680450278.058,-1000.000,-37.109,-27.832,-1000.000,0.000
1680450278.062,-383.301,-25.391,-29.785,-205.078,0.000
1680450278.066,924.805,-22.949,-31.738,-980.957,0.000
1680450278.070,-898.926,-26.367,-19.531,978.027,0.000
1680450278.074,153.809,-27.832,-20.996,-183.594,0.000
1680450278.078,-1000.000,-34.180,-35.645,-1000.000,0.000
1680450278.082,-868.164,-31.250,-33.203,-486.328,0.000
1680450278.086,454.590,-24.414,-32.227,836.426,0.000
1680450278.090,-791.504,-24.902,-34.668,-892.090,0.000
1680450278.094,135.742,-36.133,-34.668,4.395,0.000
1680450278.097,-1000.000,-41.016,-29.297,-1000.000,0.000
1680450278.101,-1000.000,-36.133,-34.668,-860.840,0.000
1680450278.105,-20.996,-31.250,-40.527,407.715,0.000
1680450278.109,-783.203,-24.414,-38.574,-798.340,0.000
1680450278.113,290.039,-32.715,-27.832,155.762,0.000
1680450278.117,-986.328,-48.828,-19.043,-1000.000,0.000
1680450278.121,-1000.000,-41.504,-30.762,-916.992,0.000
1680450278.125,-48.340,-26.855,-35.156,359.863,0.000
1680450278.129,-793.945,-22.949,-33.203,-792.480,0.000
1680450278.133,369.629,-29.297,-33.691,168.457,0.000
1680450278.137,-942.871,-29.785,-30.273,-1000.000,0.000
1680450278.140,-1000.000,-26.855,-24.414,-985.352,0.000
1680450278.144,-122.070,-24.902,-27.832,226.562,0.000
1680450278.148,-840.332,-22.461,-34.180,-782.715,0.000
1680450278.152,584.473,-28.320,-30.762,276.855,0.000
1680450278.156,-780.273,-32.227,-24.902,-977.539,0.000
1680450278.160,-1000.000,-34.180,-13.184,-1000.000,0.000
1680450278.164,-205.078,-30.273,-15.137,-36.133,0.000
1680450278.168,-951.172,-18.555,-31.250,-821.289,0.000
1680450278.172,892.578,-25.879,-31.738,490.723,0.000
1680450278.176,-406.738,-35.645,-29.297,-855.469,0.000
1680450278.180,-1000.000,-34.180,-27.832,-1000.000,0.000
1680450278.183,-173.828,-26.855,-28.809,-78.125,0.000
1680450278.187,999.023,-23.438,-29.297,-895.508,0.000
1680450278.191,-962.402,-21.484,-29.785,775.879,0.000
1680450278.195,-65.918,-29.297,-30.762,-517.578,0.000
1680450278.199,-1000.000,-39.062,-30.762,-1000.000,0.000
1680450278.203,-379.883,-30.273,-33.691,-204.590,0.000
1680450278.207,904.785,-25.391,-36.621,-971.680,0.000
1680450278.211,-898.438,-30.762,-34.668,941.406,0.000
1680450278.215,131.836,-35.645,-31.250,-268.066,0.000
1680450278.219,-1000.000,-36.621,-21.973,-1000.000,0.000
1680450278.222,-608.887,-32.227,-24.414,-294.922,0.000
1680450278.226,770.508,-23.926,-31.738,985.840,0.000
1680450278.230,-856.934,-21.973,-31.738,-1000.000,0.000
1680450278.234,147.949,-25.391,-35.645,-190.430,0.000
1680450278.238,-1000.000,-27.344,-31.738,-1000.000,0.000
1680450278.242,-654.785,-26.367,-34.668,-306.641,0.000
1680450278.246,721.680,-24.902,-36.621,933.594,0.000
1680450278.250,-838.867,-20.020,-31.250,-914.062,0.000
1680450278.254,164.062,-26.855,-29.785,112.793,0.000
1680450278.258,-1000.000,-32.715,-30.273,-1000.000,0.000
1680450278.262,-978.027,-28.809,-30.762,-603.027,0.000
1680450278.265,280.762,-28.320,-24.414,748.535,0.000
1680450278.269,-773.438,-21.973,-23.438,-849.609,0.000
1680450278.273,169.922,-26.367,-30.273,135.742,0.000
1680450278.277,-999.023,-31.738,-28.809,-1000.000,0.000
1680450278.281,-1000.000,-23.926,-27.832,-944.336,0.000
1680450278.285,-157.227,-24.902,-32.227,286.133,0.000
1680450278.289,-822.266,-21.484,-29.297,-793.457,0.000
1680450278.293,489.746,-24.902,-29.785,239.746,0.000
1680450278.297,-911.133,-29.785,-31.738,-1000.000,0.000
1680450278.301,-1000.000,-25.391,-27.344,-866.699,0.000
1680450278.305,30.273,-19.531,-27.832,458.496,0.000
1680450278.308,-789.551,-20.508,-21.484,-797.363,0.000
1680450278.312,373.535,-31.738,-24.414,164.551,0.000
1680450278.316,-917.969,-36.621,-36.621,-1000.000,0.000
1680450278.320,-1000.000,-29.785,-34.180,-1000.000,0.000
1680450278.324,-242.188,-26.855,-29.297,-113.770,0.000
1680450278.328,-879.395,-31.250,-26.855,-806.152,0.000
1680450278.332,639.160,-37.109,-30.762,315.918,0.000
1680450278.336,-748.047,-39.551,-32.227,-968.750,0.000
1680450278.340,-1000.000,-37.109,-32.715,-1000.000,0.000
1680450278.344,-172.363,-26.367,-31.250,-156.250,0.000
1680450278.347,980.957,-23.438,-32.715,-912.598,0.000
1680450278.351,-944.336,-28.320,-35.156,805.664,0.000
1680450278.355,20.996,-39.062,-23.438,-485.352,0.000
1680450278.359,-1000.000,-46.387,-24.902,-1000.000,0.000
1680450278.363,-354.004,-36.133,-31.738,-191.895,0.000
1680450278.367,932.617,-30.762,-26.855,-955.078,0.000
1680450278.371,-907.227,-33.691,-30.762,916.016,0.000
1680450278.375,88.379,-41.992,-35.645,-330.078,0.000
1680450278.379,-1000.000,-44.434,-34.668,-1000.000,0.000
1680450278.383,-400.391,-34.180,-30.762,-190.918,0.000
1680450278.387,909.180,-28.809,-30.762,-985.840,0.000
1680450278.390,-888.184,-19.531,-31.250,994.629,0.000
1680450278.394,146.484,-20.020,-34.668,-139.160,0.000
1680450278.398,-1000.000,-26.367,-22.949,-1000.000,0.000
1680450278.402,-1000.000,-25.879,-13.672,-619.629,0.000
1680450278.406,228.027,-21.973,-25.391,726.074,0.000
1680450278.410,-770.020,-23.926,-33.203,-876.465,0.000
1680450278.414,125.488,-30.762,-36.621,-79.590,0.000
1680450278.418,-1000.000,-28.320,-33.691,-1000.000,0.000
1680450278.422,-1000.000,-24.414,-36.621,-976.562,0.000
1680450278.426,-220.215,-24.902,-42.480,173.340,0.000
1680450278.430,-831.055,-24.414,-39.062,-803.711,0.000
1680450278.433,221.680,-27.344,-32.715,115.234,0.000
1680450278.437,-1000.000,-30.273,-33.203,-1000.000,0.000
1680450278.441,-941.895,-28.320,-29.297,-619.629,0.000
1680450278.445,327.637,-22.949,-16.602,732.422,0.000
1680450278.449,-778.809,-24.902,-20.508,-844.238,0.000
1680450278.453,262.695,-33.691,-29.297,149.902,0.000
1680450278.457,-963.379,-34.668,-29.297,-1000.000,0.000
1680450278.461,-1000.000,-26.855,-31.250,-968.262,0.000
1680450278.465,-106.934,-20.996,-24.414,240.234,0.000
1680450278.469,-879.883,-22.949,-21.484,-786.621,0.000
1680450278.472,756.348,-27.344,-26.367,349.609,0.000
1680450278.476,-570.801,-31.738,-31.738,-927.246,0.000
1680450278.480,-1000.000,-36.133,-31.250,-1000.000,0.000
1680450278.484,-218.750,-27.344,-27.344,-108.887,0.000
1680450278.488,-893.066,-26.367,-26.367,-812.988,0.000
1680450278.492,698.730,-34.180,-23.926,357.910,0.000
1680450278.496,-669.434,-39.062,-26.367,-941.406,0.000
1680450278.500,-1000.000,-40.527,-30.273,-1000.000,0.000
1680450278.504,-279.297,-31.250,-35.156,-217.773,0.000
1680450278.508,978.516,-22.461,-38.574,-876.465,0.000
1680450278.512,-984.863,-24.414,-36.133,631.348,0.000
1680450278.515,-212.402,-28.320,-31.250,-731.445,0.000
1680450278.519,-1000.000,-26.367,-31.738,-1000.000,0.000
1680450278.523,-184.082,-18.555,-28.809,-151.367,0.000
1680450278.527,968.750,-13.672,-28.320,-984.863,0.000
1680450278.531,-924.316,-17.578,-32.227,993.164,0.000
1680450278.535,193.359,-26.367,-22.949,-128.906,0.000
1680450278.539,-1000.000,-27.832,-20.996,-1000.000,0.000
1680450278.543,-742.188,-23.926,-29.785,-384.277,0.000
1680450278.547,632.324,-21.973,-32.715,935.547,0.000
1680450278.551,-830.078,-20.508,-30.762,-950.195,0.000
1680450278.555,162.109,-30.273,-26.855,-113.281,0.000
1680450278.558,-1000.000,-35.645,-24.414,-1000.000,0.000
1680450278.562,-682.129,-25.879,-25.391,-327.148,0.000
1680450278.566,695.801,-20.508,-27.832,938.965,0.000
1680450278.570,-839.844,-21.484,-31.250,-916.504,0.000
1680450278.574,198.730,-25.391,-31.250,54.688,0.000
1680450278.578,-1000.000,-27.832,-17.578,-1000.000,0.000
1680450278.582,-564.453,-24.414,-14.160,-299.805,0.000
1680450278.586,822.266,-20.020,-31.738,954.102,0.000
1680450278.590,-852.051,-22.461,-34.180,-909.180,0.000
1680450278.594,136.230,-31.738,-27.832,127.930,0.000
1680450278.597,-1000.000,-34.668,-26.367,-1000.000,0.000
1680450278.601,-1000.000,-31.250,-31.250,-970.703,0.000
1680450278.605,-171.387,-23.926,-30.762,247.559,0.000
1680450278.609,-811.035,-20.996,-31.250,-791.016,0.000
1680450278.613,261.230,-29.785,-33.203,146.973,0.000
1680450278.617,-1000.000,-30.273,-33.203,-1000.000,0.000
1680450278.621,-1000.000,-28.320,-32.715,-921.387,0.000
1680450278.625,-30.273,-27.344,-34.180,350.098,0.000
1680450278.629,-790.527,-26.855,-38.086,-784.180,0.000
1680450278.633,390.625,-28.320,-33.691,162.598,0.000
1680450278.637,-913.574,-30.762,-26.367,-1000.000,0.000
1680450278.640,-1000.000,-33.691,-26.367,-1000.000,0.000
1680450278.644,-221.680,-28.320,-36.133,-97.168,0.000
1680450278.648,-937.988,-20.508,-32.715,-821.289,0.000
1680450278.652,858.398,-23.438,-26.367,468.262,0.000
1680450278.656,-464.844,-30.762,-36.133,-907.227,0.000
1680450278.660,-1000.000,-28.809,-37.598,-1000.000,0.000
1680450278.664,-158.203,-20.508,-34.668,81.055,0.000
1680450278.668,-986.816,-25.879,-33.203,-853.027,0.000
1680450278.672,-984.375,-36.133,-32.227,677.246,0.000
1680450278.676,-136.719,-44.434,-33.691,-618.652,0.000
1680450278.680,-1000.000,-44.434,-34.668,-1000.000,0.000
1680450278.683,-303.711,-34.180,-28.320,-203.613,0.000
1680450278.687,967.285,-30.273,-20.508,-906.738,0.000
1680450278.691,-952.637,-32.227,-26.367,739.258,0.000
1680450278.695,-109.863,-33.691,-30.273,-582.031,0.000
1680450278.699,-1000.000,-36.621,-28.809,-1000.000,0.000
1680450278.703,-721.191,-31.250,-30.762,-349.121,0.000
1680450278.707,588.867,-19.531,-31.738,910.156,0.000
1680450278.711,-818.848,-17.578,-32.227,-923.340,0.000
1680450278.715,179.199,-20.508,-27.344,25.879,0.000
1680450278.719,-1000.000,-25.879,-23.438,-1000.000,0.000
1680450278.722,-811.523,-30.273,-26.855,-423.340,0.000
1680450278.726,542.480,-22.949,-27.832,906.738,0.000
1680450278.730,-810.059,-18.066,-16.113,-914.062,0.000
1680450278.734,157.715,-26.855,-17.578,41.504,0.000
1680450278.738,-1000.000,-32.227,-30.273,-1000.000,0.000
1680450278.742,-989.746,-29.297,-33.691,-630.859,0.000
1680450278.746,267.578,-26.855,-29.785,719.727,0.000
1680450278.750,-778.320,-25.879,-25.879,-852.539,0.000
1680450278.754,153.320,-32.715,-29.785,117.676,0.000
1680450278.758,-1000.000,-42.480,-34.668,-1000.000,0.000
1680450278.762,-1000.000,-42.480,-27.832,-732.422,0.000
1680450278.765,149.902,-29.785,-20.996,609.375,0.000
1680450278.769,-770.508,-22.949,-27.832,-815.918,0.000
1680450278.773,310.547,-32.227,-22.461,134.277,0.000
1680450278.777,-936.035,-42.480,-18.066,-1000.000,0.000
1680450278.781,-1000.000,-34.180,-28.320,-1000.000,0.000
1680450278.785,-252.441,-26.367,-26.367,-104.004,0.000
1680450278.789,-845.215,-22.461,-20.508,-805.664,0.000
1680450278.793,455.078,-26.855,-22.949,209.473,0.000
1680450278.797,-915.527,-32.227,-26.855,-1000.000,0.000
1680450278.801,-1000.000,-29.297,-24.414,-1000.000,0.000
1680450278.805,-152.832,-24.902,-25.391,72.754,0.000
1680450278.808,-997.070,-28.320,-32.715,-862.793,0.000
1680450278.812,-965.820,-30.273,-34.668,737.305,0.000
1680450278.816,-68.359,-35.156,-32.227,-531.738,0.000
1680450278.820,-1000.000,-42.969,-24.414,-1000.000,0.000
1680450278.824,-366.211,-31.738,-24.902,-221.191,0.000
1680450278.828,-969.238,-20.020,-33.203,-847.656,0.000
1680450278.832,856.934,-23.926,-32.227,464.355,0.000
1680450278.836,-500.000,-28.320,-33.691,-885.742,0.000
1680450278.840,-1000.000,-33.691,-36.621,-1000.000,0.000
1680450278.844,-278.809,-30.762,-35.156,-208.496,0.000
1680450278.847,945.801,-24.902,-38.086,-937.012,0.000
1680450278.851,-928.711,-28.320,-37.598,849.121,0.000
1680450278.855,-1.465,-37.109,-33.691,-447.754,0.000
1680450278.859,-1000.000,-35.156,-31.738,-1000.000,0.000
1680450278.863,-366.211,-28.809,-23.438,-201.660,0.000
1680450278.867,923.828,-32.715,-18.555,-965.820,0.000
1680450278.871,-906.738,-35.156,-32.227,934.082,0.000
1680450278.875,95.215,-39.062,-39.062,-284.180,0.000
1680450278.879,-1000.000,-42.969,-37.109,-1000.000,0.000
1680450278.883,-725.586,-34.668,-32.715,-379.883,0.000
1680450278.887,636.719,-30.273,-34.180,946.777,0.000
1680450278.890,-830.078,-35.156,-33.203,-997.559,0.000
1680450278.894,120.117,-40.039,-32.715,-211.914,0.000
1680450278.898,-1000.000,-43.945,-37.109,-1000.000,0.000
1680450278.902,-861.816,-40.039,-35.645,-477.539,0.000
1680450278.906,446.289,-28.809,-39.551,816.406,0.000
1680450278.910,-790.527,-32.227,-27.344,-866.699,0.000
1680450278.914,249.512,-36.621,-21.484,156.738,0.000
1680450278.918,-978.516,-39.062,-37.598,-1000.000,0.000
1680450278.922,-1000.000,-42.480,-41.016,-884.766,0.000
1680450278.926,-23.438,-33.691,-39.062,412.109,0.000
1680450278.930,-787.109,-25.879,-39.551,-801.270,0.000
1680450278.933,252.441,-36.621,-39.062,137.207,0.000
1680450278.937,-1000.000,-45.898,-36.621,-1000.000,0.000
1680450278.941,-1000.000,-36.133,-34.668,-922.852,0.000
1680450278.945,-34.180,-22.949,-30.273,318.848,0.000
1680450278.949,-917.480,-19.043,-31.738,-808.594,0.000
1680450278.953,914.062,-20.508,-24.414,459.961,0.000
1680450278.957,-317.871,-26.855,-16.602,-860.840,0.000
1680450278.961,-1000.000,-30.762,-24.902,-1000.000,0.000
1680450278.965,-197.754,-26.367,-31.250,43.457,0.000
1680450278.969,-916.016,-25.391,-29.297,-804.199,0.000
1680450278.972,818.359,-30.273,-25.879,414.551,0.000
1680450278.976,-519.043,-34.668,-25.391,-894.043,0.000
1680450278.980,-1000.000,-34.180,-25.879,-1000.000,0.000
1680450278.984,-186.523,-26.367,-30.273,-147.949,0.000
1680450278.988,-976.562,-24.414,-32.227,-861.328,0.000
1680450278.992,980.957,-22.461,-28.809,610.352,0.000
1680450278.996,-248.047,-27.832,-31.250,-756.348,0.000
1680450279.000,-1000.000,-30.273,-34.668,-1000.000,0.000
1680450279.004,-175.781,-20.508,-32.227,-99.121,0.000
1680450279.008,-998.047,-18.066,-33.203,-906.738,0.000
1680450279.012,-959.961,-18.066,-29.297,799.805,0.000
1680450279.015,-46.875,-25.879,-21.484,-492.188,0.000
1680450279.019,-1000.000,-32.227,-24.414,-1000.000,0.000
1680450279.023,-422.852,-23.926,-34.180,-217.285,0.000
1680450279.027,885.742,-13.672,-33.691,-983.398,0.000
1680450279.031,-890.625,-22.949,-32.227,963.867,0.000
1680450279.035,104.980,-33.203,-35.645,-232.910,0.000
1680450279.039,-1000.000,-27.344,-33.203,-1000.000,0.000
1680450279.043,-791.016,-25.879,-28.809,-423.340,0.000
1680450279.047,547.852,-20.996,-28.809,896.484,0.000
1680450279.051,-807.129,-21.973,-29.297,-931.152,0.000
1680450279.055,149.414,-25.391,-33.203,-68.848,0.000
1680450279.058,-1000.000,-27.832,-23.438,-1000.000,0.000
1680450279.062,-1000.000,-28.320,-15.625,-670.410,0.000
1680450279.066,151.855,-23.926,-24.902,643.066,0.000
1680450279.070,-773.926,-25.391,-27.344,-833.984,0.000
1680450279.074,291.016,-31.738,-27.344,158.203,0.000
1680450279.078,-988.770,-34.668,-24.414,-1000.000,0.000
1680450279.082,-1000.000,-27.832,-23.926,-775.879,0.000
1680450279.086,68.359,-23.926,-23.926,555.664,0.000
1680450279.090,-787.598,-22.949,-24.414,-813.965,0.000
1680450279.094,437.500,-22.949,-27.832,209.961,0.000
1680450279.097,-888.184,-36.621,-30.273,-1000.000,0.000
1680450279.101,-1000.000,-40.039,-32.227,-999.512,0.000
1680450279.105,-145.020,-30.273,-23.926,228.027,0.000
1680450279.109,-816.895,-27.832,-23.926,-782.227,0.000
1680450279.113,332.520,-34.668,-32.227,131.348,0.000
1680450279.117,-959.961,-39.062,-30.762,-1000.000,0.000
1680450279.121,-1000.000,-37.598,-33.691,-1000.000,0.000
1680450279.125,-230.469,-34.180,-34.180,-150.879,0.000
1680450279.129,-928.223,-23.926,-29.297,-820.801,0.000
1680450279.133,831.543,-26.855,-26.855,430.664,0.000
1680450279.137,-502.930,-38.086,-28.320,-916.504,0.000
1680450279.140,-1000.000,-32.715,-26.855,-1000.000,0.000
1680450279.144,-183.594,-25.391,-28.809,-89.355,0.000
1680450279.148,-982.910,-27.832,-22.461,-856.934,0.000
1680450279.152,986.328,-35.156,-16.113,613.770,0.000
1680450279.156,-213.867,-36.133,-27.832,-702.148,0.000
1680450279.160,-1000.000,-37.109,-32.715,-1000.000,0.000
1680450279.164,-770.020,-31.738,-31.738,-453.613,0.000
1680450279.168,574.707,-27.344,-36.621,986.328,0.000
1680450279.172,-859.863,-31.738,-38.574,770.508,0.000
1680450279.176,-125.488,-38.574,-33.691,-624.023,0.000
1680450279.180,-1000.000,-41.504,-34.180,-1000.000,0.000
1680450279.183,-655.762,-35.156,-32.227,-361.328,0.000
1680450279.187,687.012,-25.879,-29.785,971.680,0.000
1680450279.191,-844.238,-26.367,-35.645,942.871,0.000
1680450279.195,96.191,-36.133,-26.367,-334.961,0.000
1680450279.199,-1000.000,-38.574,-25.879,-1000.000,0.000
1680450279.203,-574.707,-29.297,-38.086,-296.875,0.000
1680450279.207,797.363,-20.020,-32.227,970.703,0.000
1680450279.211,-858.398,-23.438,-29.297,-980.957,0.000
1680450279.215,151.855,-29.297,-28.809,-131.348,0.000
1680450279.219,-1000.000,-30.762,-32.227,-1000.000,0.000
1680450279.222,-869.141,-28.320,-32.715,-482.422,0.000
1680450279.226,451.660,-26.855,-24.414,825.684,0.000
1680450279.230,-788.574,-28.320,-23.438,-868.652,0.000
1680450279.234,156.250,-35.156,-27.344,104.492,0.000
1680450279.238,-993.652,-41.016,-18.066,-1000.000,0.000
1680450279.242,-1000.000,-37.598,-12.207,-995.117,0.000
1680450279.246,-194.336,-29.297,-25.391,191.895,0.000
1680450279.250,-817.383,-28.320,-32.715,-786.133,0.000
1680450279.254,350.098,-31.738,-32.715,141.602,0.000
1680450279.258,-961.914,-32.715,-30.273,-1000.000,0.000
1680450279.262,-1000.000,-34.668,-31.738,-1000.000,0.000
1680450279.265,-188.965,-32.227,-31.250,158.691,0.000
1680450279.269,-829.590,-29.297,-30.762,-786.133,0.000
1680450279.273,441.895,-32.227,-29.297,200.195,0.000
1680450279.277,-932.617,-38.574,-25.879,-1000.000,0.000
1680450279.281,-1000.000,-35.156,-29.785,-962.402,0.000
1680450279.285,-50.293,-29.297,-20.996,277.832,0.000
1680450279.289,-844.727,-29.785,-18.555,-784.668,0.000
1680450279.293,643.066,-32.227,-30.273,299.316,0.000
1680450279.297,-702.148,-38.086,-27.832,-947.266,0.000
1680450279.301,-1000.000,-38.574,-27.832,-1000.000,0.000
1680450279.304,-198.730,-31.250,-27.832,-139.648,0.000
1680450279.308,-959.473,-23.438,-29.297,-843.262,0.000
1680450279.312,917.969,-28.809,-30.762,543.457,0.000
1680450279.316,-355.957,-36.621,-25.879,-805.176,0.000
1680450279.320,-1000.000,-30.762,-23.438,-1000.000,0.000
1680450279.324,-249.512,-26.855,-26.367,-189.453,0.000
1680450279.328,971.680,-23.926,-23.438,-914.062,0.000
1680450279.332,-952.148,-30.273,-22.461,768.555,0.000
1680450279.336,-63.965,-36.133,-34.180,-537.109,0.000
1680450279.340,-1000.000,-31.250,-28.809,-1000.000,0.000
1680450279.344,-585.449,-25.391,-20.020,-315.918,0.000
1680450279.347,753.418,-18.555,-25.391,966.309,0.000
1680450279.351,-848.633,-21.484,-31.250,-993.164,0.000
1680450279.355,176.758,-32.715,-30.273,-191.406,0.000
1680450279.359,-1000.000,-39.551,-27.832,-1000.000,0.000
1680450279.363,-481.445,-31.250,-28.320,-232.422,0.000
1680450279.367,876.953,-18.555,-22.461,967.773,0.000
1680450279.371,-879.395,-26.855,-21.973,-930.176,0.000
1680450279.375,199.219,-33.691,-25.391,119.629,0.000
1680450279.379,-1000.000,-41.016,-25.879,-1000.000,0.000
1680450279.383,-852.539,-38.086,-30.273,-476.074,0.000
1680450279.387,490.723,-23.926,-29.785,871.094,0.000
1680450279.390,-796.875,-31.250,-20.996,-889.648,0.000
1680450279.394,136.230,-36.133,-21.973,92.285,0.000
1680450279.398,-1000.000,-33.691,-29.785,-1000.000,0.000
1680450279.402,-1000.000,-33.203,-27.344,-821.777,0.000
1680450279.406,-24.414,-26.855,-28.809,476.074,0.000
1680450279.410,-791.504,-27.344,-34.180,-809.082,0.000
1680450279.414,415.039,-33.203,-29.785,220.215,0.000
1680450279.418,-943.848,-34.180,-29.785,-1000.000,0.000
1680450279.422,-1000.000,-29.785,-34.180,-767.090,0.000
1680450279.426,68.359,-19.531,-28.809,593.262,0.000
1680450279.429,-779.785,-20.996,-26.855,-817.871,0.000
1680450279.433,262.207,-34.180,-23.438,141.113,0.000
1680450279.437,-968.750,-37.598,-20.996,-1000.000,0.000
1680450279.441,-1000.000,-31.250,-28.809,-1000.000,0.000
1680450279.445,-231.934,-24.414,-27.832,78.613,0.000
1680450279.449,-862.305,-23.926,-30.762,-782.715,0.000
1680450279.453,601.074,-29.785,-38.086,294.434,0.000
1680450279.457,-782.227,-34.180,-35.156,-953.125,0.000
1680450279.461,-1000.000,-32.227,-29.297,-1000.000,0.000
1680450279.465,-231.445,-22.461,-28.809,-207.520,0.000
1680450279.469,993.652,-16.602,-26.367,-883.789,0.000
1680450279.472,-992.188,-23.926,-29.297,675.293,0.000
1680450279.476,-183.594,-31.738,-33.691,-672.852,0.000
1680450279.480,-1000.000,-36.133,-24.414,-1000.000,0.000
1680450279.484,-354.004,-30.273,-23.438,-213.867,0.000
1680450279.488,954.102,-21.973,-27.832,-898.438,0.000
1680450279.492,-961.426,-25.391,-23.926,707.031,0.000
1680450279.496,-166.016,-37.598,-22.949,-641.113,0.000
1680450279.500,-1000.000,-41.992,-25.391,-1000.000,0.000
1680450279.504,-357.422,-30.273,-27.832,-204.102,0.000
1680450279.508,916.016,-26.367,-27.832,-961.426,0.000
1680450279.512,-900.391,-34.668,-27.832,903.809,0.000
1680450279.515,32.227,-35.645,-26.855,-332.031,0.000
1680450279.519,-1000.000,-33.203,-26.855,-1000.000,0.000
1680450279.523,-1000.000,-34.180,-18.555,-625.977,0.000
1680450279.527,181.641,-28.809,-9.277,729.004,0.000
1680450279.531,-777.832,-22.949,-26.367,-922.363,0.000
1680450279.535,136.230,-32.227,-38.574,-164.551,0.000
1680450279.539,-1000.000,-36.133,-32.715,-1000.000,0.000
1680450279.543,-966.309,-29.297,-31.738,-532.227,0.000
1680450279.547,298.340,-22.949,-30.273,802.734,0.000
1680450279.551,-786.621,-24.414,-23.438,-893.066,0.000
1680450279.554,174.805,-30.273,-21.484,5.371,0.000
1680450279.558,-1000.000,-33.203,-23.438,-1000.000,0.000
1680450279.562,-842.773,-30.762,-22.949,-479.004,0.000
1680450279.566,488.770,-24.414,-23.926,844.238,0.000
1680450279.570,-794.434,-24.902,-19.531,-866.211,0.000
1680450279.574,225.586,-34.180,-19.043,145.020,0.000
1680450279.578,-961.914,-42.969,-24.414,-1000.000,0.000
1680450279.582,-1000.000,-36.133,-23.438,-1000.000,0.000
1680450279.586,-220.703,-28.809,-25.879,116.211,0.000
1680450279.590,-875.977,-27.344,-26.367,-789.062,0.000
1680450279.594,672.363,-27.832,-28.809,341.309,0.000
1680450279.597,-709.473,-33.691,-25.879,-976.074,0.000
1680450279.601,-1000.000,-37.598,-20.996,-1000.000,0.000
1680450279.605,-179.199,-37.109,-23.926,101.562,0.000
1680450279.609,-931.641,-35.156,-23.926,-804.199,0.000
1680450279.613,852.539,-39.551,-20.508,454.590,0.000
1680450279.617,-464.355,-49.316,-23.438,-854.492,0.000
1680450279.621,-1000.000,-44.922,-27.344,-1000.000,0.000
1680450279.625,-203.613,-29.785,-24.902,-169.922,0.000
1680450279.629,-931.152,-25.879,-26.367,-836.914,0.000
1680450279.633,837.402,-32.227,-30.273,447.266,0.000
1680450279.637,-468.750,-30.762,-27.832,-885.742,0.000
1680450279.640,-1000.000,-29.785,-26.855,-1000.000,0.000
1680450279.644,-371.094,-22.949,-28.320,-226.074,0.000
1680450279.648,900.391,-12.207,-26.855,-936.035,0.000
1680450279.652,-910.645,-18.555,-28.320,825.684,0.000
1680450279.656,29.785,-21.973,-34.180,-472.168,0.000
1680450279.660,-1000.000,-24.414,-31.738,-1000.000,0.000
1680450279.664,-592.285,-23.926,-28.809,-315.918,0.000
1680450279.668,812.500,-16.602,-35.156,-952.637,0.000
1680450279.672,-897.949,-20.508,-30.762,787.598,0.000
1680450279.676,-115.234,-27.832,-22.949,-559.082,0.000
1680450279.679,-1000.000,-30.273,-25.879,-1000.000,0.000
1680450279.683,-701.660,-31.738,-31.738,-365.234,0.000
1680450279.687,617.188,-28.809,-30.273,885.742,0.000
1680450279.691,-822.754,-25.879,-28.320,-896.973,0.000
1680450279.695,177.734,-33.691,-34.668,125.488,0.000
1680450279.699,-1000.000,-37.598,-38.574,-1000.000,0.000
1680450279.703,-836.914,-28.809,-30.762,-486.328,0.000
1680450279.707,510.742,-26.855,-22.461,865.234,0.000
1680450279.711,-800.781,-28.809,-34.668,-887.695,0.000
1680450279.715,141.602,-31.738,-31.738,88.867,0.000
1680450279.719,-1000.000,-32.227,-24.414,-1000.000,0.000
1680450279.722,-1000.000,-26.367,-29.785,-792.969,0.000
1680450279.726,53.223,-18.555,-29.785,525.391,0.000
1680450279.730,-772.461,-15.137,-29.785,-811.035,0.000
1680450279.734,259.277,-20.020,-30.273,136.230,0.000
1680450279.738,-979.004,-27.832,-30.762,-1000.000,0.000
1680450279.742,-1000.000,-28.320,-33.691,-979.004,0.000
1680450279.746,-143.066,-20.996,-36.621,226.562,0.000
1680450279.750,-833.496,-17.578,-32.227,-780.762,0.000
1680450279.754,551.758,-24.902,-30.762,246.582,0.000
1680450279.758,-813.965,-30.273,-33.691,-981.445,0.000
1680450279.762,-1000.000,-28.809,-34.180,-1000.000,0.000
1680450279.765,-229.492,-30.762,-31.250,-95.703,0.000
1680450279.769,-886.230,-24.902,-29.785,-806.641,0.000
1680450279.773,659.180,-22.949,-32.715,313.477,0.000
1680450279.777,-725.586,-32.227,-30.762,-971.680,0.000
1680450279.781,-1000.000,-28.809,-30.273,-1000.000,0.000
1680450279.785,-188.965,-21.484,-31.250,-145.020,0.000
1680450279.789,-983.887,-21.484,-33.203,-853.516,0.000
1680450279.793,976.074,-28.320,-33.203,586.426,0.000
1680450279.797,-216.309,-36.621,-33.691,-747.070,0.000
1680450279.801,-1000.000,-41.016,-35.645,-1000.000,0.000
1680450279.804,-548.828,-32.715,-32.227,-296.875,0.000
1680450279.808,835.938,-27.832,-27.344,-923.340,0.000
1680450279.812,-934.082,-41.504,-22.949,701.172,0.000
1680450279.816,-196.777,-48.828,-30.273,-666.504,0.000
1680450279.820,-1000.000,-40.039,-37.598,-1000.000,0.000
1680450279.824,-468.750,-33.691,-39.551,-260.254,0.000
1680450279.828,851.074,-34.668,-40.039,-991.211,0.000
1680450279.832,-879.883,-35.156,-36.133,950.684,0.000
1680450279.836,101.562,-37.598,-32.227,-294.434,0.000
1680450279.840,-1000.000,-41.992,-32.715,-1000.000,0.000
1680450279.844,-480.469,-30.762,-31.738,-246.094,0.000
1680450279.847,866.211,-21.484,-33.203,968.750,0.000
1680450279.851,-871.094,-21.484,-31.250,-946.777,0.000
1680450279.855,170.898,-28.809,-20.996,17.578,0.000
1680450279.859,-1000.000,-32.227,-23.438,-1000.000,0.000
1680450279.863,-991.699,-20.508,-29.785,-617.188,0.000
1680450279.867,234.375,-11.719,-25.879,713.867,0.000
1680450279.871,-781.250,-7.812,-24.902,-845.703,0.000
1680450279.875,347.656,-21.973,-29.297,178.711,0.000
1680450279.879,-980.469,-36.133,-26.855,-1000.000,0.000
1680450279.883,-1000.000,-29.785,-24.902,-688.965,0.000
1680450279.887,193.359,-21.484,-26.367,677.246,0.000
1680450279.890,-773.926,-21.973,-30.762,-835.938,0.000
1680450279.894,191.895,-31.738,-40.039,114.746,0.000
1680450279.898,-989.258,-38.574,-32.227,-1000.000,0.000
1680450279.902,-1000.000,-41.016,-22.949,-1000.000,0.000
1680450279.906,-215.332,-37.109,-33.203,162.109,0.000
1680450279.910,-830.078,-30.762,-33.203,-780.762,0.000
1680450279.914,451.660,-30.273,-31.250,189.453,0.000
1680450279.918,-905.762,-32.227,-32.715,-1000.000,0.000
1680450279.922,-1000.000,-29.785,-30.273,-1000.000,0.000
1680450279.926,-192.383,-31.250,-30.273,-68.359,0.000
1680450279.929,999.023,-30.762,-31.250,-858.887,0.000
1680450279.933,-967.773,-32.227,-34.180,667.480,0.000
1680450279.937,-117.676,-31.250,-33.203,-667.969,0.000
1680450279.941,-1000.000,-32.715,-33.203,-1000.000,0.000
1680450279.945,-193.848,-25.879,-23.926,-92.773,0.000
1680450279.949,-969.727,-17.578,-23.438,-865.723,0.000
1680450279.953,999.512,-25.879,-40.039,657.715,0.000
1680450279.957,-199.707,-33.691,-42.969,-679.688,0.000
1680450279.961,-1000.000,-30.762,-35.645,-1000.000,0.000
1680450279.965,-208.496,-25.391,-33.691,-155.273,0.000
1680450279.969,960.449,-28.809,-33.203,-978.027,0.000
1680450279.972,-914.062,-26.855,-28.809,979.980,0.000
1680450279.976,202.148,-27.832,-29.297,-174.805,0.000
1680450279.980,-1000.000,-34.668,-28.320,-1000.000,0.000
1680450279.984,-375.000,-27.344,-23.438,-198.730,0.000
1680450279.988,953.613,-29.785,-20.020,-948.730,0.000
1680450279.992,-922.363,-39.062,-17.090,930.664,0.000
1680450279.996,40.039,-42.480,-25.391,-294.922,0.000
1680450280.000,-1000.000,-43.457,-31.738,-1000.000,0.000
1680450280.004,-600.098,-37.109,-30.762,-299.805,0.000
1680450280.008,753.906,-21.484,-28.320,938.965,0.000
1680450280.012,-838.867,-17.578,-29.785,-927.734,0.000
1680450280.015,148.438,-28.809,-32.227,40.527,0.000
1680450280.019,-1000.000,-39.062,-32.715,-1000.000,0.000
1680450280.023,-1000.000,-38.086,-34.668,-752.930,0.000
1680450280.027,58.105,-26.367,-32.715,574.219,0.000
1680450280.031,-776.855,-15.137,-33.203,-826.172,0.000
1680450280.035,184.082,-29.297,-26.855,122.070,0.000
1680450280.039,-1000.000,-38.574,-29.297,-1000.000,0.000
