timestamps,TP9,AF7,AF8,TP10,Right AUX
1680450924.062,-32.715,-27.832,-17.578,-20.508,0.000
1680450924.066,-43.457,-28.320,-22.949,-27.344,0.000
1680450924.070,-41.992,-37.598,-34.668,-42.969,0.000
1680450924.074,-32.227,-40.527,-28.809,-43.457,0.000
1680450924.078,-34.180,-47.363,-23.438,-16.113,0.000
1680450924.082,-44.922,-60.547,-24.902,4.395,0.000
1680450924.086,-41.504,-66.406,-18.555,-21.973,0.000
1680450924.089,-22.949,-83.008,-27.344,-42.480,0.000
1680450924.093,-4.883,-88.867,-20.508,-15.625,0.000
1680450924.097,-12.695,-85.449,-5.371,12.695,0.000
1680450924.101,-30.762,-98.145,-10.742,3.906,0.000
1680450924.105,-36.133,-107.910,-26.367,-24.902,0.000
1680450924.109,-47.852,-109.863,-39.062,-42.480,0.000
1680450924.113,-47.852,-106.934,-35.645,-29.785,0.000
1680450924.117,-28.809,-98.633,-23.438,-6.348,0.000
1680450924.121,-23.926,-92.773,-25.391,-0.977,0.000
1680450924.125,-31.250,-104.492,-35.645,-16.602,0.000
1680450924.128,-31.250,-106.445,-37.598,-31.250,0.000
1680450924.132,-35.156,-102.051,-33.203,-21.484,0.000
1680450924.136,-38.086,-112.305,-33.203,-2.441,0.000
1680450924.140,-36.621,-111.816,-23.438,2.930,0.000
1680450924.144,-33.691,-99.121,-19.531,-2.441,0.000
1680450924.148,-28.809,-97.168,-24.902,-20.996,0.000
1680450924.152,-21.484,-93.262,-23.926,-14.648,0.000
1680450924.156,-15.137,-80.078,-12.695,10.254,0.000
1680450924.160,-5.859,-71.777,-2.441,20.996,0.000
1680450924.164,-30.273,-90.820,-22.949,-4.883,0.000
1680450924.168,-34.668,-101.074,-27.832,-28.320,0.000
1680450924.171,-23.926,-91.797,-20.020,-16.602,0.000
1680450924.175,-36.621,-83.496,-26.367,1.465,0.000
1680450924.179,-40.039,-86.426,-19.043,3.906,0.000
1680450924.183,-30.762,-90.332,-10.254,-0.977,0.000
1680450924.187,-22.461,-68.848,-15.625,-12.695,0.000
1680450924.191,-24.902,-49.805,-24.902,-21.484,0.000
1680450924.195,-32.715,-45.410,-25.879,-8.301,0.000
1680450924.199,-31.738,-37.109,-26.367,10.742,0.000
1680450924.203,-21.484,-20.020,-23.926,0.977,0.000
1680450924.207,-29.785,-20.020,-30.273,-30.273,0.000
1680450924.211,-32.715,-18.555,-31.250,-28.320,0.000
1680450924.214,-8.301,2.441,-13.672,2.930,0.000
1680450924.218,-5.371,11.230,-15.137,13.672,0.000
1680450924.222,-29.785,-5.859,-32.227,-9.277,0.000
1680450924.226,-33.691,-21.973,-27.832,-33.691,0.000
1680450924.230,-43.945,-27.832,-26.855,-34.180,0.000
1680450924.234,-36.621,-21.484,-26.855,-9.766,0.000
1680450924.238,-15.625,-14.160,-21.973,7.324,0.000
1680450924.242,-20.020,-10.742,-22.949,0.488,0.000
1680450924.246,-14.160,-0.977,-23.926,-22.461,0.000
1680450924.250,-15.137,-1.953,-32.715,-38.086,0.000
1680450924.254,-16.602,-2.930,-31.250,-30.762,0.000
1680450924.257,-3.418,-4.395,-23.926,-11.719,0.000
1680450924.261,0.977,-6.836,-26.855,-9.277,0.000
1680450924.265,-10.742,-16.113,-31.738,-30.762,0.000
1680450924.269,-15.625,-23.438,-29.785,-40.527,0.000
1680450924.273,-16.113,-27.832,-23.438,-30.762,0.000
1680450924.277,-22.949,-37.109,-22.461,-9.766,0.000
1680450924.281,-33.203,-43.945,-23.438,-13.184,0.000
1680450924.285,-39.551,-41.016,-17.090,-31.250,0.000
1680450924.289,-26.855,-37.109,-17.578,-38.574,0.000
1680450924.293,-6.836,-34.180,-25.391,-16.602,0.000
1680450924.296,-14.648,-32.715,-20.020,0.488,0.000
1680450924.300,-20.996,-32.715,-9.766,0.488,0.000
1680450924.304,-27.832,-28.809,-21.973,-12.207,0.000
1680450924.308,-30.762,-31.250,-29.297,-30.273,0.000
1680450924.312,-15.137,-32.715,-23.438,-29.297,0.000
1680450924.316,-12.207,-28.809,-20.996,-12.695,0.000
1680450924.320,-18.066,-32.715,-19.043,-0.488,0.000
1680450924.324,-15.137,-37.109,-22.949,-18.555,0.000
1680450924.328,-17.578,-36.621,-23.926,-41.992,0.000
1680450924.332,-20.508,-36.621,-17.090,-40.527,0.000
1680450924.336,-23.438,-40.527,-21.484,-28.809,0.000
1680450924.339,-25.879,-41.016,-19.043,-19.043,0.000
1680450924.343,-35.156,-45.410,-16.113,-30.273,0.000
1680450924.347,-32.715,-49.805,-26.855,-44.922,0.000
1680450924.351,-13.672,-51.270,-34.668,-43.945,0.000
1680450924.355,-19.043,-55.664,-25.391,-28.320,0.000
1680450924.359,-25.879,-57.129,-20.508,-13.184,0.000
1680450924.363,-25.879,-61.035,-27.344,-15.625,0.000
1680450924.367,-22.949,-61.035,-26.855,-37.598,0.000
1680450924.371,-9.277,-62.988,-31.738,-43.457,0.000
1680450924.375,-14.648,-80.566,-20.020,-26.855,0.000
1680450924.379,-1.953,-75.195,3.906,2.930,0.000
1680450924.382,9.766,-66.895,-5.859,1.465,0.000
1680450924.386,-13.672,-89.355,-25.879,-39.062,0.000
1680450924.390,-15.625,-87.891,-24.414,-42.969,0.000
1680450924.394,-10.742,-83.984,-12.695,-18.066,0.000
1680450924.398,-19.531,-91.309,-10.742,-4.883,0.000
1680450924.402,-21.973,-97.168,-7.324,-6.836,0.000
1680450924.406,-21.973,-99.609,-12.207,-26.855,0.000
1680450924.410,-9.766,-88.867,-14.648,-36.621,0.000
1680450924.414,1.953,-88.379,-11.230,-14.648,0.000
1680450924.418,-14.160,-103.027,-14.648,-2.441,0.000
1680450924.421,-28.320,-112.305,-13.672,-14.160,0.000
1680450924.425,-30.762,-103.516,-18.066,-26.855,0.000
1680450924.429,-22.949,-99.609,-35.156,-46.387,0.000
1680450924.433,-19.043,-103.027,-33.203,-41.992,0.000
1680450924.437,-13.184,-95.703,-20.996,-10.254,0.000
1680450924.441,-4.883,-89.844,-14.160,0.488,0.000
1680450924.445,-23.926,-92.285,-23.926,-21.973,0.000
1680450924.449,-21.973,-93.262,-37.109,-45.410,0.000
1680450924.453,1.465,-94.238,-31.738,-37.109,0.000
1680450924.457,-9.766,-92.773,-27.344,-14.160,0.000
1680450924.461,-22.461,-92.773,-31.738,-12.695,0.000
1680450924.464,-21.484,-90.332,-14.648,-20.020,0.000
1680450924.468,-13.184,-89.844,-6.348,-18.555,0.000
1680450924.472,-23.438,-89.355,-24.902,-16.602,0.000
1680450924.476,-29.785,-88.379,-29.785,-17.090,0.000
1680450924.480,-37.598,-93.262,-34.668,-27.832,0.000
1680450924.484,-47.363,-93.262,-38.574,-37.598,0.000
1680450924.488,-36.621,-84.473,-37.598,-45.410,0.000
1680450924.492,-14.160,-79.102,-35.645,-48.340,0.000
1680450924.496,-8.301,-78.125,-27.832,-19.531,0.000
1680450924.500,-23.438,-72.754,-18.555,-5.859,0.000
1680450924.504,-24.414,-64.453,-13.672,-18.555,0.000
1680450924.507,-17.578,-60.059,-17.090,-33.691,0.000
1680450924.511,-20.996,-69.336,-20.508,-43.945,0.000
1680450924.515,-18.066,-66.895,-20.996,-29.785,0.000
1680450924.519,-17.578,-58.105,-15.625,-9.277,0.000
1680450924.523,-22.461,-57.129,-13.184,-14.160,0.000
1680450924.527,-24.902,-57.617,-19.043,-34.668,0.000
1680450924.531,-10.254,-56.152,-22.461,-42.969,0.000
1680450924.535,-9.766,-48.828,-23.926,-27.344,0.000
1680450924.539,-11.230,-47.363,-17.090,-5.859,0.000
1680450924.543,-34.668,-59.570,-19.531,-9.766,0.000
1680450924.546,-52.734,-62.500,-36.133,-36.133,0.000
1680450924.550,-22.461,-52.246,-38.086,-49.316,0.000
1680450924.554,-25.879,-53.223,-19.043,-29.297,0.000
1680450924.558,-40.527,-60.547,-11.230,-5.371,0.000
1680450924.562,-40.527,-56.152,-24.902,-8.789,0.000
1680450924.566,-37.598,-48.828,-25.391,-30.273,0.000
1680450924.570,-23.926,-44.922,-20.996,-38.086,0.000
1680450924.574,-12.695,-48.828,-21.973,-24.414,0.000
1680450924.578,-23.438,-47.852,-23.926,-12.207,0.000
1680450924.582,-26.855,-41.992,-20.020,-17.090,0.000
1680450924.586,-26.367,-42.969,-19.531,-40.527,0.000
1680450924.589,-21.973,-43.457,-22.461,-46.387,0.000
1680450924.593,-8.301,-38.086,-21.973,-26.367,0.000
1680450924.597,-13.672,-30.762,-16.602,-4.883,0.000
1680450924.601,-28.809,-39.551,-12.695,2.930,0.000
1680450924.605,-35.156,-52.246,-24.902,-24.902,0.000
1680450924.609,-20.996,-45.898,-28.320,-46.875,0.000
1680450924.613,-13.672,-42.480,-22.949,-34.668,0.000
1680450924.617,-24.902,-44.922,-24.902,-12.207,0.000
1680450924.621,-29.297,-37.109,-20.996,4.883,0.000
1680450924.625,-32.715,-20.996,-21.973,-16.113,0.000
1680450924.629,-30.273,-24.902,-30.273,-50.293,0.000
1680450924.632,-25.391,-40.527,-35.645,-45.898,0.000
1680450924.636,-28.320,-41.504,-36.133,-21.973,0.000
1680450924.640,-26.855,-43.457,-32.715,-10.742,0.000
1680450924.644,-26.367,-38.086,-20.996,-31.250,0.000
1680450924.648,-27.344,-36.621,-15.625,-49.316,0.000
1680450924.652,-19.531,-33.203,-26.367,-32.227,0.000
1680450924.656,-18.555,-34.668,-19.531,-10.742,0.000
1680450924.660,-23.926,-41.992,-18.066,-5.859,0.000
1680450924.664,-28.320,-40.039,-25.391,-20.508,0.000
1680450924.668,-34.668,-42.480,-32.715,-37.109,0.000
1680450924.671,-34.668,-42.480,-28.809,-40.039,0.000
1680450924.675,-37.598,-38.086,-20.996,-23.926,0.000
1680450924.679,-43.945,-39.062,-22.949,-12.695,0.000
1680450924.683,-44.922,-38.086,-24.414,-30.273,0.000
1680450924.687,-42.969,-39.062,-22.949,-45.410,0.000
1680450924.691,-41.992,-38.574,-25.879,-41.992,0.000
1680450924.695,-35.645,-37.598,-25.879,-25.391,0.000
1680450924.699,-39.551,-42.480,-24.414,-10.742,0.000
1680450924.703,-47.363,-41.504,-28.809,-16.113,0.000
1680450924.707,-55.664,-35.156,-34.668,-42.480,0.000
1680450924.711,-47.852,-39.062,-39.551,-51.758,0.000
1680450924.714,-28.320,-44.922,-40.527,-28.809,0.000
1680450924.718,-29.785,-38.574,-33.691,-13.184,0.000
1680450924.722,-31.250,-36.621,-27.344,-15.625,0.000
1680450924.726,-34.180,-41.504,-32.227,-32.715,0.000
1680450924.730,-30.762,-44.434,-40.039,-38.086,0.000
1680450924.734,-29.297,-46.387,-37.598,-27.344,0.000
1680450924.738,-37.598,-40.039,-28.320,-12.695,0.000
1680450924.742,-27.344,-38.574,-20.508,3.906,0.000
1680450924.746,-23.438,-36.621,-21.484,-7.324,0.000
1680450924.750,-21.484,-37.598,-20.020,-23.926,0.000
1680450924.754,-14.160,-36.621,-16.113,-20.020,0.000
1680450924.757,-25.879,-34.668,-25.879,-5.859,0.000
1680450924.761,-29.297,-44.434,-27.832,-4.395,0.000
1680450924.765,-14.648,-33.691,-26.367,-21.973,0.000
1680450924.769,-15.625,-29.297,-30.762,-35.645,0.000
1680450924.773,-23.438,-36.133,-33.203,-26.367,0.000
1680450924.777,-25.879,-32.227,-28.809,-8.301,0.000
1680450924.781,-29.297,-30.273,-21.484,-13.184,0.000
1680450924.785,-32.227,-22.949,-20.996,-35.156,0.000
1680450924.789,-36.133,-21.484,-33.691,-45.898,0.000
1680450924.793,-33.203,-27.832,-35.645,-31.250,0.000
1680450924.796,-28.809,-33.203,-25.391,-2.930,0.000
1680450924.800,-29.785,-26.367,-18.066,1.465,0.000
1680450924.804,-32.227,-24.902,-23.926,-25.391,0.000
1680450924.808,-31.738,-34.668,-26.367,-47.363,0.000
1680450924.812,-31.738,-37.109,-21.484,-38.574,0.000
1680450924.816,-33.203,-35.156,-20.996,-24.902,0.000
1680450924.820,-34.668,-30.762,-21.973,-11.719,0.000
1680450924.824,-42.480,-36.621,-25.879,-21.484,0.000
1680450924.828,-45.898,-47.852,-33.203,-49.316,0.000
1680450924.832,-49.316,-47.852,-34.180,-51.270,0.000
1680450924.836,-46.387,-40.039,-37.109,-34.180,0.000
1680450924.839,-49.316,-49.316,-22.949,-28.320,0.000
1680450924.843,-49.805,-57.617,-16.602,-28.320,0.000
1680450924.847,-44.434,-48.828,-35.645,-47.852,0.000
1680450924.851,-38.086,-47.852,-39.062,-53.223,0.000
1680450924.855,-38.086,-54.199,-35.156,-27.832,0.000
1680450924.859,-35.645,-48.828,-24.902,-1.953,0.000
1680450924.863,-45.898,-48.828,-27.344,-12.695,0.000
1680450924.867,-51.270,-53.223,-27.832,-45.898,0.000
1680450924.871,-47.852,-45.898,-32.715,-42.969,0.000
1680450924.875,-41.992,-34.668,-34.180,-15.625,0.000
1680450924.879,-38.574,-28.809,-15.625,-7.324,0.000
1680450924.882,-42.969,-40.039,-18.555,-22.461,0.000
1680450924.886,-41.992,-46.875,-33.203,-36.133,0.000
1680450924.890,-46.875,-41.504,-32.715,-40.527,0.000
1680450924.894,-34.668,-34.180,-25.391,-24.902,0.000
1680450924.898,-29.297,-30.273,-18.066,-5.859,0.000
1680450924.902,-39.062,-29.297,-12.695,-16.602,0.000
1680450924.906,-41.016,-32.715,-20.020,-45.410,0.000
1680450924.910,-39.551,-29.785,-25.879,-46.875,0.000
1680450924.914,-34.668,-25.391,-22.949,-22.949,0.000
1680450924.918,-29.785,-33.203,-27.832,-7.324,0.000
1680450924.921,-35.645,-36.621,-31.738,-8.301,0.000
1680450924.925,-33.203,-26.855,-28.809,-22.461,0.000
1680450924.929,-23.438,-30.273,-35.156,-28.809,0.000
1680450924.933,-23.926,-30.762,-36.133,-23.926,0.000
1680450924.937,-27.344,-29.297,-37.598,-14.648,0.000
1680450924.941,-35.156,-35.156,-34.180,-5.371,0.000
1680450924.945,-41.992,-33.691,-34.668,-17.090,0.000
1680450924.949,-40.527,-35.645,-35.645,-39.551,0.000
1680450924.953,-33.691,-30.762,-26.367,-33.203,0.000
1680450924.957,-33.203,-26.367,-20.996,-8.789,0.000
1680450924.961,-39.062,-37.598,-17.090,-4.395,0.000
1680450924.964,-41.016,-45.898,-25.391,-17.578,0.000
1680450924.968,-43.945,-48.828,-30.273,-32.227,0.000
1680450924.972,-38.574,-44.434,-22.949,-37.598,0.000
1680450924.976,-33.203,-34.180,-7.324,-23.926,0.000
1680450924.980,-38.086,-26.367,-8.301,-7.324,0.000
1680450924.984,-40.527,-27.832,-32.715,-15.137,0.000
1680450924.988,-40.527,-32.227,-36.133,-42.480,0.000
1680450924.992,-35.645,-34.668,-32.715,-41.992,0.000
1680450924.996,-37.598,-37.598,-36.133,-11.230,0.000
1680450925.000,-38.574,-34.180,-29.297,4.883,0.000
1680450925.004,-33.203,-32.227,-28.320,-12.695,0.000
1680450925.007,-33.203,-33.203,-37.598,-39.062,0.000
1680450925.011,-27.832,-34.668,-34.180,-41.504,0.000
1680450925.015,-18.555,-33.691,-33.691,-27.344,0.000
1680450925.019,-25.391,-30.762,-17.578,-20.020,0.000
1680450925.023,-38.086,-33.691,-16.113,-27.344,0.000
1680450925.027,-36.621,-32.227,-35.156,-41.016,0.000
1680450925.031,-25.391,-33.203,-40.039,-50.781,0.000
1680450925.035,-29.785,-32.227,-39.551,-39.551,0.000
1680450925.039,-45.898,-41.504,-29.785,-13.672,0.000
1680450925.043,-53.223,-44.434,-27.832,-20.020,0.000
1680450925.046,-49.805,-36.621,-33.203,-46.387,0.000
1680450925.050,-40.527,-38.574,-35.156,-54.688,0.000
1680450925.054,-27.344,-38.086,-31.738,-29.297,0.000
1680450925.058,-28.320,-34.668,-27.344,-4.395,0.000
1680450925.062,-31.250,-26.855,-22.461,-14.648,0.000
1680450925.066,-20.996,-23.438,-20.508,-40.039,0.000
1680450925.070,-23.438,-32.715,-29.297,-54.688,0.000
1680450925.074,-29.297,-41.016,-39.062,-52.246,0.000
1680450925.078,-24.902,-33.203,-22.949,-24.902,0.000
1680450925.082,-20.996,-25.391,-3.906,-15.137,0.000
1680450925.086,-24.414,-24.902,-18.066,-38.574,0.000
1680450925.089,-32.227,-29.297,-27.344,-55.176,0.000
1680450925.093,-40.527,-24.902,-25.879,-47.363,0.000
1680450925.097,-39.551,-24.414,-20.996,-22.949,0.000
1680450925.101,-46.387,-25.879,-22.949,-18.066,0.000
1680450925.105,-56.152,-28.320,-33.691,-41.992,0.000
1680450925.109,-41.992,-29.785,-31.250,-50.781,0.000
1680450925.113,-40.527,-23.438,-23.926,-40.039,0.000
1680450925.117,-48.828,-22.461,-22.461,-32.715,0.000
1680450925.121,-45.898,-23.438,-20.996,-28.809,0.000
1680450925.125,-42.480,-28.809,-4.883,-35.645,0.000
1680450925.129,-49.316,-29.297,-5.859,-50.781,0.000
1680450925.132,-54.688,-31.738,-18.066,-42.480,0.000
1680450925.136,-46.875,-36.621,-18.555,-17.090,0.000
1680450925.140,-44.434,-25.879,-24.414,-9.766,0.000
1680450925.144,-52.734,-24.414,-23.926,-23.926,0.000
1680450925.148,-35.645,-36.621,-30.762,-36.133,0.000
1680450925.152,-20.020,-33.691,-33.203,-36.621,0.000
1680450925.156,-27.344,-26.855,-22.949,-17.578,0.000
1680450925.160,-28.320,-19.043,-18.066,1.465,0.000
1680450925.164,-27.832,-16.113,-23.438,-16.113,0.000
1680450925.168,-22.949,-20.508,-29.785,-41.016,0.000
1680450925.171,-19.043,-19.043,-23.438,-28.809,0.000
1680450925.175,-20.020,-18.066,-26.367,-13.672,0.000
1680450925.179,-34.180,-23.438,-38.086,-7.812,0.000
1680450925.183,-31.738,-24.902,-31.738,-3.418,0.000
1680450925.187,-21.973,-19.531,-39.551,-21.973,0.000
1680450925.191,-30.762,-19.531,-47.852,-44.922,0.000
1680450925.195,-23.438,-24.414,-37.598,-34.668,0.000
1680450925.199,-26.855,-18.066,-30.273,-14.648,0.000
1680450925.203,-33.691,-17.090,-29.297,-13.184,0.000
1680450925.207,-25.879,-11.719,-29.785,-27.832,0.000
1680450925.211,-29.297,-6.836,-34.180,-41.504,0.000
1680450925.214,-39.551,-19.531,-24.414,-20.996,0.000
1680450925.218,-36.133,-27.344,-17.090,0.000,0.000
1680450925.222,-36.133,-19.043,-23.926,-3.906,0.000
1680450925.226,-39.551,-11.230,-29.297,-25.879,0.000
1680450925.230,-31.250,-12.207,-34.668,-38.574,0.000
1680450925.234,-25.879,-11.230,-38.086,-23.926,0.000
1680450925.238,-31.250,-2.441,-27.832,-8.301,0.000
1680450925.242,-36.133,-5.371,-23.926,-4.395,0.000
1680450925.246,-39.551,-11.230,-31.250,-22.461,0.000
1680450925.250,-37.109,-10.742,-32.227,-41.504,0.000
1680450925.254,-31.738,-4.395,-25.391,-24.902,0.000
1680450925.257,-20.020,1.953,-27.344,-3.906,0.000
1680450925.261,-24.902,-4.883,-21.973,-8.789,0.000
1680450925.265,-30.762,-0.488,-20.508,-29.785,0.000
1680450925.269,-26.855,3.906,-28.809,-45.410,0.000
1680450925.273,-27.832,-2.930,-25.879,-46.387,0.000
1680450925.277,-21.484,-3.418,-21.973,-28.320,0.000
1680450925.281,-30.273,2.441,-21.484,-11.719,0.000
1680450925.285,-35.645,3.906,-20.996,-26.367,0.000
1680450925.289,-27.344,0.000,-24.902,-50.781,0.000
1680450925.293,-19.531,3.906,-22.461,-38.086,0.000
1680450925.297,-24.902,4.395,-22.461,-12.207,0.000
1680450925.300,-31.250,5.859,-17.578,-12.207,0.000
1680450925.304,-32.715,6.836,-24.902,-25.391,0.000
1680450925.308,-28.320,-2.441,-35.645,-43.457,0.000
1680450925.312,-24.414,-0.488,-26.855,-37.598,0.000
1680450925.316,-20.508,3.906,-29.785,-16.602,0.000
1680450925.320,-29.297,-1.465,-29.297,-16.113,0.000
1680450925.324,-43.457,-5.371,-28.320,-24.414,0.000
1680450925.328,-29.297,-1.465,-26.367,-40.039,0.000
1680450925.332,-26.855,-5.371,-23.438,-45.410,0.000
1680450925.336,-32.715,-12.695,-30.273,-28.320,0.000
1680450925.339,-31.250,-8.789,-26.367,-17.578,0.000
1680450925.343,-38.086,-6.348,-19.043,-21.973,0.000
1680450925.347,-47.363,-10.254,-28.809,-35.645,0.000
1680450925.351,-44.922,-10.742,-38.574,-42.969,0.000
1680450925.355,-35.156,-13.184,-30.273,-23.926,0.000
1680450925.359,-31.738,-12.695,-21.484,-1.953,0.000
1680450925.363,-31.738,-6.348,-15.137,-12.207,0.000
1680450925.367,-23.438,-6.348,-17.090,-28.320,0.000
1680450925.371,-18.066,-10.742,-19.043,-32.715,0.000
1680450925.375,-28.320,-13.672,-21.973,-30.762,0.000
1680450925.379,-23.926,-17.090,-23.926,-13.672,0.000
1680450925.382,-13.672,-13.184,-20.996,-8.789,0.000
1680450925.386,-31.250,-9.766,-28.809,-36.133,0.000
1680450925.390,-25.391,-12.207,-28.320,-41.504,0.000
1680450925.394,-10.742,-10.254,-11.230,-26.855,0.000
1680450925.398,-27.344,-12.695,-5.371,-17.578,0.000
1680450925.402,-38.086,-18.555,-19.043,-21.484,0.000
1680450925.406,-33.691,-18.066,-29.297,-44.922,0.000
1680450925.410,-27.344,-15.625,-30.273,-50.781,0.000
1680450925.414,-24.902,-17.578,-23.438,-25.391,0.000
1680450925.418,-21.484,-19.531,-6.836,-6.348,0.000
1680450925.422,-26.855,-12.207,-9.277,-6.836,0.000
1680450925.425,-40.039,-16.602,-21.973,-23.926,0.000
1680450925.429,-32.227,-28.809,-24.902,-45.898,0.000
1680450925.433,-22.949,-27.344,-22.461,-32.227,0.000
1680450925.437,-29.785,-29.785,-19.043,-5.371,0.000
1680450925.441,-33.203,-26.855,-19.531,-5.859,0.000
1680450925.445,-40.039,-23.926,-26.855,-25.391,0.000
1680450925.449,-43.457,-30.273,-32.227,-44.434,0.000
1680450925.453,-33.203,-36.621,-24.902,-38.086,0.000
1680450925.457,-33.691,-33.691,-12.695,-21.973,0.000
1680450925.461,-41.016,-26.367,-14.160,-20.020,0.000
1680450925.464,-32.715,-20.996,-17.578,-26.855,0.000
1680450925.468,-19.531,-20.996,-20.996,-32.227,0.000
1680450925.472,-22.461,-23.438,-26.367,-24.414,0.000
1680450925.476,-27.344,-22.461,-23.926,-11.230,0.000
1680450925.480,-33.203,-22.461,-21.484,-2.441,0.000
1680450925.484,-41.016,-24.902,-23.438,-18.555,0.000
1680450925.488,-42.480,-22.461,-29.785,-47.363,0.000
1680450925.492,-34.180,-21.973,-27.344,-43.457,0.000
1680450925.496,-29.785,-19.531,-26.367,-15.625,0.000
1680450925.500,-27.832,-18.555,-28.809,1.465,0.000
1680450925.504,-32.715,-17.090,-20.996,-3.906,0.000
1680450925.507,-33.203,-15.625,-28.809,-36.621,0.000
1680450925.511,-32.715,-25.879,-33.691,-51.270,0.000
1680450925.515,-23.926,-15.625,-20.020,-17.578,0.000
1680450925.519,-17.090,-7.812,-4.395,5.859,0.000
1680450925.523,-36.133,-23.438,-16.602,-12.695,0.000
1680450925.527,-33.691,-28.809,-33.691,-44.922,0.000
1680450925.531,-10.742,-22.461,-26.855,-47.363,0.000
1680450925.535,-16.602,-18.555,-30.273,-28.320,0.000
1680450925.539,-31.250,-13.672,-28.809,-9.277,0.000
1680450925.543,-34.668,-15.625,-12.695,-3.418,0.000
1680450925.547,-35.156,-27.344,-6.348,-23.438,0.000
1680450925.550,-40.039,-30.762,-18.555,-48.340,0.000
1680450925.554,-37.598,-26.855,-25.391,-38.574,0.000
1680450925.558,-35.156,-24.902,-18.555,-8.301,0.000
1680450925.562,-38.086,-30.762,-27.832,-8.301,0.000
1680450925.566,-26.855,-25.879,-29.785,-25.879,0.000
1680450925.570,-24.902,-18.066,-31.250,-44.922,0.000
1680450925.574,-19.043,-15.625,-27.832,-30.762,0.000
1680450925.578,-4.883,-15.137,-18.066,-4.883,0.000
1680450925.582,-19.043,-16.113,-31.738,-12.695,0.000
1680450925.586,-25.879,-13.184,-35.645,-26.367,0.000
1680450925.589,-11.230,-16.113,-22.949,-33.691,0.000
1680450925.593,-8.301,-18.066,-14.160,-36.133,0.000
1680450925.597,-19.043,-21.484,-14.648,-32.715,0.000
1680450925.601,-25.879,-24.902,-16.602,-25.391,0.000
1680450925.605,-32.227,-24.414,-20.020,-28.320,0.000
1680450925.609,-31.738,-22.461,-25.879,-35.645,0.000
1680450925.613,-14.160,-15.625,-25.391,-36.621,0.000
1680450925.617,-14.648,-9.766,-17.090,-17.090,0.000
1680450925.621,-38.574,-11.719,-14.648,-0.977,0.000
1680450925.625,-27.832,-10.742,-21.484,-13.184,0.000
1680450925.629,-7.812,-6.348,-17.578,-32.227,0.000
1680450925.632,-10.742,-3.906,-19.043,-35.645,0.000
1680450925.636,-21.484,-9.277,-32.227,-27.832,0.000
1680450925.640,-36.621,-20.508,-32.227,-16.602,0.000
1680450925.644,-46.387,-16.602,-24.902,-21.973,0.000
1680450925.648,-32.227,-6.836,-30.273,-40.527,0.000
1680450925.652,-17.090,2.441,-35.156,-39.062,0.000
1680450925.656,-19.531,1.465,-27.344,-24.902,0.000
1680450925.660,-21.484,-6.836,-13.184,-9.277,0.000
1680450925.664,-24.414,-7.812,-5.859,-12.207,0.000
1680450925.668,-27.344,-14.648,-20.508,-36.621,0.000
1680450925.672,-33.203,-18.066,-28.809,-39.062,0.000
1680450925.675,-18.555,-11.719,-24.414,-28.320,0.000
1680450925.679,-8.789,-9.277,-3.418,-16.602,0.000
1680450925.683,-12.695,-9.766,-2.930,-13.672,0.000
1680450925.687,-21.973,-12.695,-28.809,-31.738,0.000
1680450925.691,-9.766,-13.672,-22.461,-31.738,0.000
1680450925.695,0.000,-6.348,-10.254,-11.230,0.000
1680450925.699,-17.090,-12.207,-17.578,-1.953,0.000
1680450925.703,-29.297,-18.066,-16.113,-15.137,0.000
1680450925.707,-32.227,-24.414,-22.949,-41.504,0.000
1680450925.711,-28.809,-25.391,-27.832,-45.410,0.000
1680450925.714,-32.715,-24.414,-24.414,-28.320,0.000
1680450925.718,-36.621,-29.785,-31.250,-18.555,0.000
1680450925.722,-43.945,-27.344,-23.926,-23.438,0.000
1680450925.726,-39.551,-32.715,-19.531,-40.527,0.000
1680450925.730,-24.414,-34.668,-34.180,-45.410,0.000
1680450925.734,-19.531,-24.414,-39.551,-32.227,0.000
1680450925.738,-14.160,-14.648,-28.320,0.488,0.000
1680450925.742,-37.109,-26.855,-29.297,4.395,0.000
1680450925.746,-34.668,-33.691,-31.738,-26.855,0.000
1680450925.750,-24.902,-32.715,-23.926,-41.016,0.000
1680450925.754,-26.855,-31.738,-23.438,-32.227,0.000
1680450925.757,-21.973,-26.367,-23.926,-15.137,0.000
1680450925.761,-22.461,-26.367,-21.484,-9.766,0.000
1680450925.765,-20.020,-27.344,-26.367,-24.414,0.000
1680450925.769,-25.391,-25.879,-21.973,-36.133,0.000
1680450925.773,-23.438,-28.320,-19.043,-26.367,0.000
1680450925.777,-25.391,-27.344,-33.691,-11.230,0.000
1680450925.781,-37.109,-29.785,-33.691,-12.695,0.000
1680450925.785,-43.457,-35.645,-24.902,-22.461,0.000
1680450925.789,-30.762,-30.273,-22.461,-23.926,0.000
1680450925.793,-29.297,-25.391,-29.297,-23.926,0.000
1680450925.797,-39.062,-22.461,-25.391,-20.996,0.000
1680450925.800,-26.855,-21.973,-22.461,1.953,0.000
1680450925.804,-36.133,-30.762,-38.086,-12.207,0.000
1680450925.808,-40.527,-35.645,-44.922,-47.852,0.000
1680450925.812,-27.344,-36.133,-30.762,-45.898,0.000
1680450925.816,-20.508,-25.391,-22.461,-18.066,0.000
1680450925.820,-27.832,-24.902,-26.855,-12.695,0.000
1680450925.824,-41.504,-36.621,-32.715,-32.715,0.000
1680450925.828,-44.434,-39.062,-41.504,-50.781,0.000
1680450925.832,-37.109,-35.156,-34.180,-48.340,0.000
1680450925.836,-28.809,-27.344,-20.996,-26.367,0.000
1680450925.839,-35.156,-27.344,-18.066,-12.207,0.000
1680450925.843,-44.434,-32.715,-24.902,-22.461,0.000
1680450925.847,-41.504,-29.297,-26.855,-43.457,0.000
1680450925.851,-36.621,-28.809,-30.762,-47.852,0.000
1680450925.855,-35.156,-32.715,-33.691,-23.438,0.000
1680450925.859,-37.598,-29.785,-23.438,0.488,0.000
1680450925.863,-48.828,-22.461,-20.508,-11.230,0.000
1680450925.867,-50.781,-22.949,-26.367,-34.668,0.000
1680450925.871,-38.086,-30.273,-35.156,-48.828,0.000
1680450925.875,-51.270,-35.156,-29.297,-49.805,0.000
1680450925.879,-50.781,-33.691,-15.137,-27.832,0.000
1680450925.882,-46.875,-32.227,-20.020,-19.043,0.000
1680450925.886,-43.945,-34.180,-28.320,-36.621,0.000
1680450925.890,-35.645,-28.320,-24.414,-52.734,0.000
1680450925.894,-37.598,-27.832,-23.438,-42.969,0.000
1680450925.898,-29.297,-24.902,-19.531,-18.066,0.000
1680450925.902,-29.297,-15.137,-15.625,-20.020,0.000
1680450925.906,-23.438,-20.020,-25.879,-34.668,0.000
1680450925.910,-26.367,-25.879,-35.156,-49.805,0.000
1680450925.914,-26.855,-25.879,-39.062,-44.922,0.000
1680450925.918,-26.855,-26.855,-30.762,-18.555,0.000
1680450925.922,-36.133,-23.926,-15.137,-14.648,0.000
1680450925.925,-35.645,-16.602,-16.602,-39.551,0.000
1680450925.929,-33.691,-16.602,-28.320,-52.246,0.000
1680450925.933,-31.250,-18.555,-30.762,-34.180,0.000
1680450925.937,-32.715,-21.973,-20.996,-11.230,0.000
1680450925.941,-41.016,-24.902,-20.996,-4.395,0.000
1680450925.945,-41.016,-19.531,-25.879,-25.879,0.000
1680450925.949,-31.738,-21.484,-24.902,-42.480,0.000
1680450925.953,-20.996,-24.414,-27.832,-31.738,0.000
1680450925.957,-18.555,-18.066,-20.020,-8.789,0.000
1680450925.961,-20.996,-18.555,-26.367,-4.883,0.000
1680450925.965,-24.902,-26.855,-25.879,-20.996,0.000
1680450925.968,-23.926,-34.180,-17.090,-23.926,0.000
1680450925.972,-32.715,-32.227,-28.809,-22.949,0.000
1680450925.976,-35.645,-26.855,-28.320,-8.301,0.000
1680450925.980,-28.320,-26.855,-19.531,2.930,0.000
1680450925.984,-31.738,-25.391,-17.090,-17.090,0.000
1680450925.988,-35.156,-33.203,-23.926,-40.039,0.000
1680450925.992,-29.785,-38.574,-22.461,-43.945,0.000
1680450925.996,-10.254,-30.273,-17.090,-19.531,0.000
1680450926.000,-16.602,-30.762,-22.949,-0.488,0.000
1680450926.004,-26.855,-24.902,-23.926,-10.742,0.000
1680450926.007,-16.113,-25.879,-33.203,-26.855,0.000
1680450926.011,-19.043,-37.109,-25.391,-38.574,0.000
1680450926.015,-20.020,-33.691,-19.043,-28.320,0.000
1680450926.019,-17.578,-29.785,-27.832,-13.184,0.000
1680450926.023,-24.902,-36.621,-28.809,-18.555,0.000
1680450926.027,-22.461,-39.551,-40.039,-41.016,0.000
1680450926.031,-17.578,-41.992,-39.551,-53.711,0.000
1680450926.035,-27.344,-46.875,-31.738,-28.809,0.000
1680450926.039,-35.156,-47.363,-33.691,-7.812,0.000
1680450926.043,-29.785,-41.504,-28.809,-12.207,0.000
1680450926.047,-22.949,-38.086,-26.367,-29.785,0.000
1680450926.050,-18.555,-36.621,-31.250,-38.086,0.000
1680450926.054,-23.438,-38.574,-31.250,-28.809,0.000
1680450926.058,-27.832,-41.016,-29.785,-16.602,0.000
1680450926.062,-27.344,-41.992,-31.738,-12.207,0.000
1680450926.066,-26.855,-43.945,-37.598,-34.180,0.000
1680450926.070,-33.691,-46.387,-30.762,-51.758,0.000
1680450926.074,-31.250,-47.363,-22.461,-42.480,0.000
1680450926.078,-25.391,-39.062,-27.344,-19.531,0.000
1680450926.082,-30.273,-40.039,-27.344,-16.113,0.000
1680450926.086,-38.086,-49.316,-27.344,-38.086,0.000
1680450926.090,-29.785,-44.434,-32.715,-50.781,0.000
1680450926.093,-31.250,-44.922,-36.621,-38.086,0.000
1680450926.097,-42.969,-46.875,-32.715,-23.926,0.000
1680450926.101,-34.180,-46.387,-17.090,-18.555,0.000
1680450926.105,-32.715,-49.316,-20.996,-27.344,0.000
1680450926.109,-39.062,-54.199,-37.109,-40.039,0.000
1680450926.113,-26.855,-40.527,-29.297,-20.996,0.000
1680450926.117,-7.812,-37.598,-22.949,8.789,0.000
1680450926.121,-27.832,-50.781,-35.156,-8.301,0.000
1680450926.125,-38.086,-55.176,-43.945,-41.016,0.000
1680450926.129,-26.367,-51.270,-41.504,-38.574,0.000
1680450926.132,-30.273,-47.852,-36.133,-21.484,0.000
1680450926.136,-26.367,-53.711,-32.227,-20.996,0.000
1680450926.140,-20.020,-53.223,-28.809,-22.461,0.000
1680450926.144,-27.832,-39.551,-17.090,-21.973,0.000
1680450926.148,-30.762,-39.551,-20.020,-36.621,0.000
1680450926.152,-30.273,-49.805,-36.621,-40.527,0.000
1680450926.156,-14.648,-42.969,-29.785,-13.672,0.000
1680450926.160,-13.184,-41.992,-9.277,4.883,0.000
1680450926.164,-28.320,-51.270,-9.766,-14.648,0.000
1680450926.168,-23.926,-52.246,-35.156,-41.016,0.000
1680450926.172,-14.648,-39.551,-41.504,-29.297,0.000
1680450926.175,-15.625,-31.250,-38.086,-9.766,0.000
1680450926.179,-20.996,-38.574,-27.832,-6.348,0.000
1680450926.183,-27.832,-45.410,-22.461,-7.324,0.000
1680450926.187,-30.762,-49.805,-28.809,-25.391,0.000
1680450926.191,-25.879,-42.969,-27.832,-35.645,0.000
1680450926.195,-26.367,-37.598,-24.902,-10.742,0.000
1680450926.199,-30.762,-43.457,-30.762,1.465,0.000
1680450926.203,-33.203,-45.410,-27.832,-18.066,0.000
1680450926.207,-28.809,-44.922,-18.555,-33.691,0.000
1680450926.211,-29.785,-46.387,-28.320,-42.969,0.000
1680450926.215,-29.297,-41.992,-37.109,-25.879,0.000
1680450926.218,-24.902,-33.203,-26.855,-0.488,0.000
1680450926.222,-24.902,-23.438,-19.531,-4.883,0.000
1680450926.226,-27.344,-18.555,-25.391,-17.090,0.000
1680450926.230,-27.832,-21.484,-24.414,-21.973,0.000
1680450926.234,-35.156,-29.785,-22.949,-22.949,0.000
1680450926.238,-33.691,-20.508,-18.066,-7.324,0.000
1680450926.242,-23.438,-13.184,-12.207,-0.488,0.000
1680450926.246,-42.969,-21.484,-27.832,-32.227,0.000
1680450926.250,-38.086,-23.926,-15.137,-45.898,0.000
1680450926.254,-26.855,-20.508,0.977,-25.391,0.000
1680450926.257,-37.109,-20.996,-13.672,-10.254,0.000
1680450926.261,-36.133,-26.367,-20.508,-7.324,0.000
1680450926.265,-33.691,-21.973,-26.367,-16.113,0.000
1680450926.269,-30.762,-20.508,-25.879,-33.691,0.000
1680450926.273,-25.879,-22.461,-22.949,-38.086,0.000
1680450926.277,-31.250,-19.531,-17.578,-20.996,0.000
1680450926.281,-38.574,-15.137,-19.043,-7.324,0.000
1680450926.285,-31.738,-7.324,-17.090,-14.160,0.000
1680450926.289,-21.484,-5.371,-18.066,-20.020,0.000
1680450926.293,-15.137,-14.160,-14.648,-21.484,0.000
1680450926.297,-28.809,-19.531,9.277,-13.184,0.000
1680450926.300,-36.133,-18.066,0.977,2.930,0.000
1680450926.304,-22.949,-15.137,-15.625,-1.465,0.000
1680450926.308,-13.672,-12.695,-13.184,-28.809,0.000
1680450926.312,-19.043,-12.695,-19.531,-35.645,0.000
1680450926.316,-19.043,-7.812,-16.113,-13.184,0.000
1680450926.320,-20.020,-12.695,-2.930,13.672,0.000
1680450926.324,-30.273,-18.555,-15.137,4.395,0.000
1680450926.328,-31.738,-21.484,-25.879,-38.086,0.000
1680450926.332,-14.160,-15.625,-29.785,-40.527,0.000
1680450926.336,-16.113,-15.625,-32.715,-20.508,0.000
1680450926.340,-24.414,-30.273,-19.531,-12.695,0.000
1680450926.343,-21.973,-31.250,-0.977,-10.254,0.000
1680450926.347,-23.926,-27.344,-17.578,-23.926,0.000
1680450926.351,-22.949,-32.227,-39.062,-33.691,0.000
1680450926.355,-17.578,-33.691,-25.879,-27.832,0.000
1680450926.359,-18.555,-27.832,-16.602,-9.766,0.000
1680450926.363,-21.484,-26.367,-19.043,-3.418,0.000
1680450926.367,-17.578,-32.227,-19.531,-25.391,0.000
1680450926.371,-13.184,-29.785,-24.414,-32.715,0.000
1680450926.375,-14.648,-35.156,-20.996,-16.602,0.000
1680450926.379,-21.484,-37.109,-21.973,-1.953,0.000
1680450926.382,-28.320,-32.715,-30.762,-14.160,0.000
1680450926.386,-29.785,-38.086,-21.973,-38.086,0.000
1680450926.390,-21.973,-32.227,-23.438,-43.945,0.000
1680450926.394,-23.926,-31.250,-33.691,-27.832,0.000
1680450926.398,-29.785,-35.645,-32.227,-2.441,0.000
1680450926.402,-32.227,-36.621,-31.738,-9.766,0.000
1680450926.406,-29.297,-42.969,-45.410,-39.551,0.000
1680450926.410,-26.855,-48.340,-47.363,-54.688,0.000
1680450926.414,-23.926,-47.363,-41.504,-40.527,0.000
1680450926.418,-30.762,-44.434,-37.598,-21.484,0.000
1680450926.422,-41.992,-43.945,-34.180,-19.531,0.000
1680450926.425,-43.457,-38.086,-42.969,-33.691,0.000
1680450926.429,-37.598,-42.969,-36.133,-51.270,0.000
1680450926.433,-42.480,-52.246,-23.438,-43.945,0.000
1680450926.437,-40.039,-47.852,-27.832,-21.484,0.000
1680450926.441,-42.480,-46.387,-26.855,-15.625,0.000
1680450926.445,-46.875,-50.781,-20.996,-28.320,0.000
1680450926.449,-41.992,-47.852,-26.855,-35.156,0.000
1680450926.453,-32.715,-35.156,-28.809,-30.273,0.000
1680450926.457,-26.367,-28.809,-16.602,-24.414,0.000
1680450926.461,-40.039,-38.574,-13.184,-17.578,0.000
1680450926.465,-37.109,-41.992,-15.137,-20.508,0.000
1680450926.468,-26.855,-39.062,-22.461,-35.156,0.000
1680450926.472,-23.926,-31.250,-23.438,-33.203,0.000
1680450926.476,-29.297,-38.086,-11.230,-17.578,0.000
1680450926.480,-35.156,-47.852,-13.184,-2.930,0.000
1680450926.484,-32.715,-45.410,-26.367,-9.766,0.000
1680450926.488,-37.598,-39.551,-36.133,-34.668,0.000
1680450926.492,-32.715,-33.691,-34.180,-35.645,0.000
1680450926.496,-17.090,-38.086,-26.367,-17.578,0.000
1680450926.500,-26.855,-40.039,-21.973,-2.441,0.000
1680450926.504,-33.203,-33.691,-18.555,-2.441,0.000
1680450926.507,-23.926,-34.180,-21.973,-25.879,0.000
1680450926.511,-25.391,-43.945,-30.273,-37.109,0.000
1680450926.515,-23.926,-46.387,-31.738,-19.531,0.000
1680450926.519,-32.715,-42.969,-14.160,7.324,0.000
1680450926.523,-33.691,-43.457,-12.695,5.859,0.000
1680450926.527,-24.414,-50.293,-26.367,-25.879,0.000
1680450926.531,-24.902,-49.316,-23.926,-41.992,0.000
1680450926.535,-20.508,-42.969,-22.461,-28.320,0.000
1680450926.539,-12.695,-40.039,-20.508,-3.906,0.000
1680450926.543,-18.555,-44.922,-25.879,-11.719,0.000
1680450926.547,-26.855,-50.293,-22.949,-37.109,0.000
1680450926.550,-27.344,-46.875,-22.949,-37.109,0.000
1680450926.554,-18.555,-45.410,-29.297,-10.254,0.000
1680450926.558,-17.090,-42.969,-22.461,11.719,0.000
1680450926.562,-29.297,-54.199,-21.484,-9.277,0.000
1680450926.566,-22.949,-52.246,-21.973,-36.621,0.000
1680450926.570,-17.090,-41.992,-23.438,-42.480,0.000
1680450926.574,-29.297,-54.688,-29.297,-39.551,0.000
1680450926.578,-32.227,-65.918,-21.484,-18.555,0.000
1680450926.582,-33.203,-60.547,-7.324,-4.883,0.000
1680450926.586,-30.273,-55.176,-16.113,-14.648,0.000
1680450926.590,-27.344,-59.082,-22.949,-26.855,0.000
1680450926.593,-24.414,-60.059,-25.391,-17.090,0.000
1680450926.597,-23.438,-56.152,-22.461,0.488,0.000
1680450926.601,-32.227,-53.223,-19.531,4.395,0.000
1680450926.605,-41.992,-52.734,-23.438,-13.184,0.000
1680450926.609,-22.949,-48.340,-15.137,-32.227,0.000
1680450926.613,-15.137,-51.758,-13.672,-28.320,0.000
1680450926.617,-29.785,-57.129,-16.602,-15.625,0.000
1680450926.621,-30.273,-56.152,-15.625,2.441,0.000
1680450926.625,-26.855,-53.711,-15.137,-12.695,0.000
1680450926.629,-33.691,-49.805,-16.602,-41.504,0.000
1680450926.632,-29.297,-43.457,-19.531,-36.133,0.000
1680450926.636,-16.602,-43.457,-18.066,-19.043,0.000
1680450926.640,-22.461,-42.480,-17.090,-15.625,0.000
1680450926.644,-34.668,-39.062,-22.949,-26.855,0.000
1680450926.648,-25.879,-40.039,-29.785,-43.457,0.000
1680450926.652,-11.719,-39.062,-27.344,-43.945,0.000
1680450926.656,-18.555,-45.898,-24.902,-26.367,0.000
1680450926.660,-24.414,-47.852,-20.508,-10.742,0.000
1680450926.664,-22.949,-43.457,-22.949,-16.602,0.000
1680450926.668,-15.625,-48.340,-29.785,-35.156,0.000
1680450926.672,-17.090,-53.223,-18.555,-30.762,0.000
1680450926.675,-27.344,-53.711,-14.160,-12.695,0.000
1680450926.679,-25.879,-53.223,-20.020,4.395,0.000
1680450926.683,-22.949,-49.805,-10.254,3.418,0.000
1680450926.687,-27.832,-51.758,-12.207,-26.855,0.000
1680450926.691,-19.043,-51.270,-23.926,-43.945,0.000
1680450926.695,-9.277,-47.363,-25.391,-31.738,0.000
1680450926.699,-14.160,-46.875,-24.414,-3.906,0.000
1680450926.703,-24.414,-50.781,-21.484,-6.836,0.000
1680450926.707,-27.832,-48.828,-20.020,-28.809,0.000
1680450926.711,-21.973,-40.039,-28.320,-26.367,0.000
1680450926.715,-21.973,-41.992,-20.508,-7.812,0.000
1680450926.718,-25.879,-38.574,-16.602,-13.184,0.000
1680450926.722,-35.645,-20.996,-28.320,-20.508,0.000
1680450926.726,-30.273,-17.090,-23.926,-22.461,0.000
1680450926.730,-13.672,-18.555,-22.949,-39.551,0.000
1680450926.734,-20.508,-16.113,-24.902,-45.410,0.000
1680450926.738,-31.738,-18.555,-30.762,-32.715,0.000
1680450926.742,-32.227,-20.996,-29.785,-17.090,0.000
1680450926.746,-35.156,-17.090,-23.926,-29.297,0.000
1680450926.750,-29.785,-14.648,-22.461,-44.434,0.000
1680450926.754,-23.438,-9.766,-20.508,-33.691,0.000
1680450926.758,-30.273,-3.418,-14.160,-16.113,0.000
1680450926.761,-34.668,-10.254,-3.906,-10.254,0.000
1680450926.765,-37.109,-14.160,-10.254,-21.484,0.000
1680450926.769,-29.297,-6.348,-17.090,-37.109,0.000
1680450926.773,-10.742,3.418,-16.113,-26.855,0.000
1680450926.777,-21.484,1.465,-17.090,-14.648,0.000
1680450926.781,-35.645,-2.441,-20.020,-12.695,0.000
1680450926.785,-35.645,2.930,-28.809,-15.625,0.000
1680450926.789,-26.855,10.254,-29.297,-33.691,0.000
1680450926.793,-21.484,9.277,-27.832,-42.969,0.000
1680450926.797,-28.320,5.371,-27.344,-26.367,0.000
1680450926.800,-37.109,5.859,-25.391,-16.113,0.000
1680450926.804,-33.691,5.859,-19.043,-27.344,0.000
1680450926.808,-29.297,4.883,-17.090,-48.828,0.000
1680450926.812,-26.855,9.277,-24.414,-49.805,0.000
1680450926.816,-23.926,10.742,-27.344,-24.902,0.000
1680450926.820,-26.855,12.695,-21.973,-12.695,0.000
1680450926.824,-31.250,18.066,-12.207,-17.578,0.000
1680450926.828,-31.250,23.926,-16.113,-37.109,0.000
1680450926.832,-23.926,24.414,-31.250,-44.922,0.000
1680450926.836,-23.438,20.508,-30.273,-15.625,0.000
1680450926.840,-27.344,20.508,-23.438,6.348,0.000
1680450926.843,-29.785,24.902,-24.902,-5.859,0.000
1680450926.847,-27.344,32.715,-24.414,-28.809,0.000
1680450926.851,-24.414,25.391,-19.043,-43.457,0.000
1680450926.855,-23.926,15.625,-15.625,-28.320,0.000
1680450926.859,-28.809,19.531,-15.137,-8.301,0.000
1680450926.863,-33.203,20.508,-16.602,-12.207,0.000
1680450926.867,-34.668,11.719,-19.531,-34.180,0.000
1680450926.871,-30.762,6.836,-25.879,-50.781,0.000
1680450926.875,-19.043,7.812,-25.391,-33.691,0.000
1680450926.879,-22.461,7.812,-15.137,-2.930,0.000
1680450926.883,-36.133,5.859,-19.531,-4.883,0.000
1680450926.886,-35.156,0.488,-24.902,-27.344,0.000
1680450926.890,-23.926,-3.418,-20.996,-31.250,0.000
1680450926.894,-23.926,-3.906,-21.484,-25.879,0.000
1680450926.898,-28.809,-10.254,-20.996,-11.230,0.000
1680450926.902,-34.668,-16.113,-15.137,-6.348,0.000
1680450926.906,-32.715,-17.578,-18.066,-31.250,0.000
1680450926.910,-32.227,-18.066,-28.320,-48.828,0.000
1680450926.914,-32.715,-17.578,-27.832,-43.457,0.000
1680450926.918,-32.715,-20.996,-25.391,-15.137,0.000
1680450926.922,-42.480,-23.926,-26.367,-0.977,0.000
1680450926.925,-42.480,-20.996,-28.809,-22.461,0.000
1680450926.929,-33.691,-21.973,-36.133,-39.551,0.000
1680450926.933,-31.738,-21.973,-35.156,-33.691,0.000
1680450926.937,-27.344,-21.973,-26.855,-11.719,0.000
1680450926.941,-31.738,-13.672,-21.484,0.000,0.000
1680450926.945,-43.457,-19.531,-22.949,-21.484,0.000
1680450926.949,-31.738,-33.691,-33.203,-42.969,0.000
1680450926.953,-27.344,-33.203,-26.855,-28.320,0.000
1680450926.957,-35.645,-32.227,-13.184,-13.184,0.000
1680450926.961,-40.039,-32.715,-26.367,-16.602,0.000
1680450926.965,-46.875,-36.133,-34.180,-26.367,0.000
1680450926.968,-48.340,-35.645,-31.738,-39.551,0.000
1680450926.972,-43.457,-32.227,-34.668,-48.828,0.000
1680450926.976,-44.434,-30.762,-35.156,-34.668,0.000
1680450926.980,-42.480,-25.879,-25.879,-13.672,0.000
1680450926.984,-52.734,-28.320,-20.508,-16.602,0.000
1680450926.988,-57.129,-32.715,-26.855,-36.133,0.000
1680450926.992,-43.945,-33.203,-29.785,-45.410,0.000
1680450926.996,-40.039,-33.203,-27.344,-26.855,0.000
1680450927.000,-36.133,-30.762,-14.160,6.348,0.000
1680450927.004,-34.668,-30.762,-5.859,-12.207,0.000
1680450927.008,-38.574,-27.832,-19.531,-43.945,0.000
1680450927.011,-27.832,-21.484,-22.949,-36.621,0.000
1680450927.015,-22.949,-18.066,-12.207,-16.602,0.000
1680450927.019,-34.668,-26.855,-17.578,-9.766,0.000
1680450927.023,-32.715,-32.715,-20.996,-17.578,0.000
1680450927.027,-27.344,-29.297,-19.531,-37.109,0.000
1680450927.031,-25.391,-31.250,-25.391,-42.480,0.000
1680450927.035,-23.438,-20.020,-25.879,-19.531,0.000
1680450927.039,-25.879,-17.090,-23.926,-5.371,0.000
1680450927.043,-28.809,-29.785,-19.531,-8.301,0.000
1680450927.047,-31.250,-36.133,-12.695,-25.391,0.000
1680450927.050,-30.273,-38.574,-12.695,-41.016,0.000
1680450927.054,-33.203,-40.039,-26.855,-28.809,0.000
1680450927.058,-34.668,-35.156,-24.902,-1.465,0.000
1680450927.062,-43.457,-33.691,-20.996,-5.859,0.000
1680450927.066,-48.340,-32.227,-27.344,-30.762,0.000
1680450927.070,-40.039,-29.785,-23.438,-40.039,0.000
1680450927.074,-37.109,-28.320,-20.508,-25.391,0.000
1680450927.078,-43.457,-30.273,-17.090,-6.836,0.000
1680450927.082,-53.711,-37.598,-13.184,3.906,0.000
1680450927.086,-51.758,-38.574,-16.602,-9.277,0.000
1680450927.090,-42.480,-41.016,-8.789,-36.133,0.000
1680450927.093,-36.133,-41.504,1.465,-42.480,0.000
1680450927.097,-37.109,-42.969,-16.602,-18.555,0.000
1680450927.101,-44.922,-48.340,-27.832,-3.906,0.000
1680450927.105,-38.574,-51.270,-27.832,-26.855,0.000
1680450927.109,-31.250,-49.805,-30.273,-42.969,0.000
1680450927.113,-24.902,-42.969,-27.832,-28.809,0.000
1680450927.117,-17.578,-47.363,-23.438,-11.230,0.000
1680450927.121,-26.367,-54.199,-19.531,-6.836,0.000
1680450927.125,-31.738,-49.805,-17.578,-18.555,0.000
1680450927.129,-25.879,-45.410,-26.367,-38.574,0.000
1680450927.133,-19.531,-51.758,-40.039,-40.527,0.000
1680450927.136,-22.461,-59.570,-28.320,-21.973,0.000
1680450927.140,-26.367,-56.152,-16.113,-9.277,0.000
1680450927.144,-28.809,-50.781,-25.391,-17.090,0.000
1680450927.148,-31.250,-60.059,-32.715,-42.480,0.000
1680450927.152,-25.879,-61.523,-35.645,-50.781,0.000
1680450927.156,-20.508,-52.734,-32.715,-26.367,0.000
1680450927.160,-24.414,-46.875,-25.391,-5.859,0.000
1680450927.164,-40.039,-50.293,-26.367,-12.207,0.000
1680450927.168,-49.805,-55.176,-30.762,-40.039,0.000
1680450927.172,-39.551,-55.664,-28.320,-49.316,0.000
1680450927.175,-33.203,-58.105,-30.762,-26.855,0.000
1680450927.179,-41.016,-60.059,-12.695,-9.277,0.000
1680450927.183,-51.758,-62.012,-1.953,-13.184,0.000
1680450927.187,-50.293,-65.430,-27.832,-27.832,0.000
1680450927.191,-40.039,-63.965,-31.250,-34.180,0.000
1680450927.195,-34.668,-60.547,-30.273,-23.926,0.000
1680450927.199,-34.180,-58.594,-26.855,-1.465,0.000
1680450927.203,-41.992,-57.617,-25.391,-7.812,0.000
1680450927.207,-39.062,-58.594,-22.461,-31.738,0.000
1680450927.211,-21.484,-54.199,-23.926,-32.227,0.000
1680450927.215,-19.531,-47.363,-29.785,-24.902,0.000
1680450927.218,-31.250,-54.688,-30.273,-20.508,0.000
1680450927.222,-30.762,-54.199,-20.996,-11.719,0.000
1680450927.226,-27.832,-50.293,-20.508,-26.367,0.000
1680450927.230,-33.691,-57.617,-21.973,-39.062,0.000
1680450927.234,-25.391,-55.176,-25.879,-21.484,0.000
1680450927.238,-22.949,-48.340,-31.738,-7.324,0.000
1680450927.242,-48.340,-54.199,-21.484,0.977,0.000
1680450927.246,-46.875,-63.965,-29.297,-4.883,0.000
1680450927.250,-24.902,-63.965,-44.922,-31.738,0.000
1680450927.254,-26.855,-60.059,-41.016,-41.504,0.000
1680450927.258,-31.738,-62.012,-25.879,-24.414,0.000
1680450927.261,-35.156,-59.570,-23.438,-14.160,0.000
1680450927.265,-36.621,-61.523,-27.832,-34.180,0.000
1680450927.269,-36.133,-67.871,-30.762,-52.734,0.000
1680450927.273,-36.621,-65.918,-45.898,-36.621,0.000
1680450927.277,-38.086,-71.777,-41.992,-22.461,0.000
1680450927.281,-39.062,-79.102,-20.996,-30.273,0.000
1680450927.285,-36.133,-78.125,-21.973,-31.250,0.000
1680450927.289,-38.574,-82.031,-26.855,-46.875,0.000
1680450927.293,-40.527,-83.008,-28.809,-53.711,0.000
1680450927.297,-32.715,-74.707,-27.344,-29.785,0.000
1680450927.300,-31.250,-69.336,-20.996,-14.160,0.000
1680450927.304,-34.668,-74.707,-23.438,-27.832,0.000
1680450927.308,-37.109,-74.707,-29.785,-41.992,0.000
1680450927.312,-30.762,-68.359,-23.438,-38.086,0.000
1680450927.316,-23.438,-62.500,-20.996,-22.949,0.000
1680450927.320,-25.391,-64.453,-24.902,-13.184,0.000
1680450927.324,-33.203,-71.777,-24.414,-29.785,0.000
1680450927.328,-32.715,-74.707,-34.180,-43.945,0.000
1680450927.332,-27.344,-71.777,-40.527,-36.133,0.000
1680450927.336,-28.809,-65.430,-31.250,-30.762,0.000
1680450927.340,-32.227,-62.500,-27.344,-26.855,0.000
1680450927.343,-48.340,-68.359,-29.297,-38.574,0.000
1680450927.347,-53.223,-65.918,-32.715,-50.781,0.000
1680450927.351,-39.062,-62.988,-35.156,-52.734,0.000
1680450927.355,-39.551,-71.777,-35.645,-46.387,0.000
1680450927.359,-41.504,-72.266,-31.738,-29.297,0.000
1680450927.363,-43.457,-69.336,-28.320,-27.344,0.000
1680450927.367,-38.574,-69.824,-31.250,-43.945,0.000
1680450927.371,-31.738,-72.754,-37.598,-59.570,0.000
1680450927.375,-26.367,-73.730,-30.273,-40.527,0.000
1680450927.379,-30.762,-67.383,-20.020,-15.625,0.000
1680450927.383,-38.574,-59.570,-30.273,-18.555,0.000
1680450927.386,-35.156,-55.176,-31.738,-27.832,0.000
1680450927.390,-30.273,-53.223,-30.762,-43.945,0.000
1680450927.394,-26.855,-52.734,-32.227,-35.156,0.000
1680450927.398,-28.320,-49.805,-29.785,-8.789,0.000
1680450927.402,-41.992,-48.828,-25.391,-9.277,0.000
1680450927.406,-42.969,-53.711,-31.250,-29.297,0.000
1680450927.410,-27.832,-50.293,-30.762,-41.504,0.000
1680450927.414,-20.020,-44.434,-28.809,-30.273,0.000
1680450927.418,-30.762,-55.176,-24.414,-20.020,0.000
1680450927.422,-41.016,-57.617,-9.277,-20.996,0.000
1680450927.425,-34.668,-44.922,-26.855,-27.832,0.000
1680450927.429,-28.320,-44.922,-38.086,-43.945,0.000
1680450927.433,-27.344,-47.852,-27.832,-42.969,0.000
1680450927.437,-35.645,-47.852,-27.344,-27.344,0.000
1680450927.441,-39.551,-45.410,-29.785,-20.996,0.000
1680450927.445,-38.086,-42.969,-20.996,-21.973,0.000
1680450927.449,-34.668,-42.480,-17.578,-25.879,0.000
1680450927.453,-28.320,-36.133,-19.043,-36.621,0.000
1680450927.457,-24.414,-28.809,-15.137,-29.297,0.000
1680450927.461,-32.227,-35.156,-19.043,-15.625,0.000
1680450927.465,-45.410,-44.922,-10.742,-25.391,0.000
1680450927.468,-39.551,-47.852,-12.207,-42.969,0.000
1680450927.472,-30.273,-47.852,-30.762,-43.945,0.000
1680450927.476,-35.156,-42.480,-20.020,-27.344,0.000
1680450927.480,-38.086,-41.992,-14.160,-15.625,0.000
1680450927.484,-39.062,-45.410,-22.949,-6.836,0.000
1680450927.488,-47.363,-44.922,-28.809,-29.297,0.000
1680450927.492,-39.062,-43.945,-28.809,-39.062,0.000
1680450927.496,-24.414,-40.039,-19.531,-16.113,0.000
1680450927.500,-28.320,-41.992,-18.066,-9.766,0.000
1680450927.504,-31.738,-35.645,-20.508,-18.066,0.000
1680450927.508,-29.297,-29.785,-18.555,-27.344,0.000
1680450927.511,-23.438,-35.645,-22.949,-37.109,0.000
1680450927.515,-23.438,-38.574,-25.391,-31.250,0.000
1680450927.519,-26.367,-33.203,-21.973,-4.883,0.000
1680450927.523,-33.203,-36.621,-21.484,-7.324,0.000
1680450927.527,-36.133,-39.062,-25.879,-27.832,0.000
1680450927.531,-30.762,-30.273,-36.133,-32.715,0.000
1680450927.535,-32.227,-31.738,-34.180,-21.484,0.000
1680450927.539,-36.133,-41.016,-30.762,-5.859,0.000
1680450927.543,-38.086,-43.457,-31.738,-10.742,0.000
1680450927.547,-31.250,-44.922,-35.645,-35.645,0.000
1680450927.550,-21.484,-36.621,-37.598,-38.086,0.000
1680450927.554,-15.137,-34.668,-23.438,-23.438,0.000
1680450927.558,-11.230,-41.992,-12.695,-8.301,0.000
1680450927.562,-22.949,-39.062,-19.043,-4.395,0.000
1680450927.566,-23.926,-35.156,-15.625,-22.461,0.000
1680450927.570,-12.207,-30.762,-19.531,-30.273,0.000
1680450927.574,-13.672,-30.762,-28.809,-19.531,0.000
1680450927.578,-24.414,-32.715,-20.508,-3.906,0.000
1680450927.582,-29.785,-30.762,-9.277,3.418,0.000
1680450927.586,-30.762,-32.715,-14.648,-3.418,0.000
1680450927.590,-36.621,-40.039,-27.344,-30.273,0.000
1680450927.593,-36.621,-41.016,-29.297,-45.898,0.000
1680450927.597,-27.344,-33.203,-22.461,-13.672,0.000
1680450927.601,-26.367,-35.645,-17.578,-7.324,0.000
1680450927.605,-35.156,-40.527,-20.996,-34.180,0.000
1680450927.609,-38.574,-42.969,-29.297,-50.293,0.000
1680450927.613,-34.180,-45.898,-32.715,-43.945,0.000
1680450927.617,-24.902,-40.527,-23.438,-9.766,0.000
1680450927.621,-23.926,-43.945,-22.461,-2.441,0.000
1680450927.625,-31.738,-52.246,-23.926,-20.996,0.000
1680450927.629,-35.156,-53.223,-27.832,-35.156,0.000
1680450927.633,-23.438,-48.340,-35.645,-33.203,0.000
1680450927.636,-24.414,-43.945,-41.504,-14.648,0.000
1680450927.640,-33.691,-43.457,-33.203,2.930,0.000
1680450927.644,-34.668,-37.598,-20.996,0.000,0.000
1680450927.648,-34.180,-41.504,-25.879,-30.762,0.000
1680450927.652,-22.949,-45.410,-27.344,-38.086,0.000
1680450927.656,-2.441,-35.645,-20.020,-3.906,0.000
1680450927.660,2.441,-30.762,-16.602,14.160,0.000
1680450927.664,-17.578,-35.645,-17.578,-5.371,0.000
1680450927.668,-24.902,-39.551,-24.414,-28.320,0.000
1680450927.672,-12.207,-39.062,-27.832,-25.391,0.000
1680450927.676,-3.906,-32.715,-21.973,-4.883,0.000
1680450927.679,-10.254,-35.156,-15.137,5.371,0.000
1680450927.683,-17.578,-36.133,-18.066,-3.418,0.000
1680450927.687,-16.113,-28.320,-27.832,-21.484,0.000
1680450927.691,-13.184,-23.926,-24.414,-25.391,0.000
1680450927.695,-12.207,-24.414,-22.461,-14.648,0.000
1680450927.699,-15.137,-32.715,-25.879,-0.977,0.000
1680450927.703,-17.090,-33.691,-24.414,-3.418,0.000
1680450927.707,-21.484,-32.227,-20.508,-20.996,0.000
1680450927.711,-24.414,-38.574,-27.832,-32.715,0.000
1680450927.715,-24.414,-39.062,-27.832,-33.691,0.000
1680450927.718,-23.926,-38.086,-22.461,-3.906,0.000
1680450927.722,-22.461,-37.598,-20.996,18.066,0.000
1680450927.726,-28.809,-32.227,-26.367,-12.207,0.000
1680450927.730,-26.855,-35.156,-33.691,-34.180,0.000
1680450927.734,-20.020,-30.762,-31.250,-15.137,0.000
1680450927.738,-13.184,-34.668,-13.672,3.418,0.000
1680450927.742,-18.555,-54.199,2.441,3.418,0.000
1680450927.746,-19.531,-40.527,-6.836,-2.441,0.000
1680450927.750,-7.324,-20.996,-18.555,-23.926,0.000
1680450927.754,-10.254,-24.414,-14.648,-27.832,0.000
1680450927.758,-18.555,-27.832,-14.160,3.906,0.000
1680450927.761,-20.508,-27.344,-9.766,15.625,0.000
1680450927.765,-20.020,-26.855,-7.324,-11.230,0.000
1680450927.769,-21.484,-30.273,-18.555,-38.086,0.000
1680450927.773,-25.879,-36.133,-23.438,-31.250,0.000
1680450927.777,-26.367,-38.086,-19.531,-3.906,0.000
1680450927.781,-22.461,-40.039,-23.438,0.000,0.000
1680450927.785,-20.996,-38.086,-24.414,-21.484,0.000
1680450927.789,-21.484,-39.551,-32.715,-42.480,0.000
1680450927.793,-22.461,-42.480,-31.250,-29.297,0.000
1680450927.797,-27.832,-43.457,-22.461,-17.090,0.000
1680450927.801,-32.227,-39.062,-21.973,-20.020,0.000
1680450927.804,-27.832,-35.645,-20.508,-19.531,0.000
1680450927.808,-21.973,-35.156,-18.555,-35.156,0.000
1680450927.812,-26.855,-37.598,-15.625,-37.109,0.000
1680450927.816,-37.109,-43.457,-23.926,-25.879,0.000
1680450927.820,-36.621,-43.457,-23.438,-16.113,0.000
1680450927.824,-39.062,-43.457,-19.043,-18.555,0.000
1680450927.828,-45.410,-46.387,-23.438,-39.551,0.000
1680450927.832,-41.504,-41.016,-32.227,-40.039,0.000
1680450927.836,-37.598,-41.504,-39.551,-25.879,0.000
1680450927.840,-41.992,-51.758,-34.180,-20.508,0.000
1680450927.843,-47.852,-51.270,-28.320,-20.020,0.000
1680450927.847,-46.875,-45.410,-38.086,-28.320,0.000
1680450927.851,-37.598,-43.457,-41.016,-43.457,0.000
1680450927.855,-36.621,-39.062,-32.715,-40.527,0.000
1680450927.859,-40.527,-30.762,-25.391,-14.648,0.000
1680450927.863,-39.062,-32.227,-28.320,-6.836,0.000
1680450927.867,-39.551,-40.039,-34.668,-26.367,0.000
1680450927.871,-37.109,-41.016,-30.762,-46.387,0.000
1680450927.875,-38.574,-40.039,-26.367,-41.504,0.000
1680450927.879,-35.645,-31.250,-20.996,-12.695,0.000
1680450927.883,-28.320,-28.320,-26.367,-0.977,0.000
1680450927.886,-29.297,-34.180,-29.785,-22.461,0.000
1680450927.890,-34.668,-36.621,-23.926,-48.828,0.000
1680450927.894,-35.645,-32.227,-31.250,-44.922,0.000
1680450927.898,-39.062,-29.785,-28.809,-15.625,0.000
1680450927.902,-36.133,-31.250,-19.531,-8.301,0.000
1680450927.906,-30.762,-33.203,-26.367,-26.367,0.000
1680450927.910,-27.832,-29.785,-36.621,-31.250,0.000
1680450927.914,-27.832,-23.438,-30.273,-31.250,0.000
1680450927.918,-34.668,-26.367,-22.461,-23.438,0.000
1680450927.922,-27.832,-27.832,-19.043,-7.324,0.000
1680450927.926,-25.879,-20.508,-21.484,-16.602,0.000
1680450927.929,-32.227,-25.391,-24.902,-44.434,0.000
1680450927.933,-36.621,-33.691,-34.668,-49.805,0.000
1680450927.937,-38.574,-34.180,-34.668,-20.020,0.000
1680450927.941,-29.297,-31.250,-22.949,4.395,0.000
1680450927.945,-22.461,-31.250,-22.461,-9.766,0.000
1680450927.949,-35.645,-35.156,-34.668,-38.574,0.000
1680450927.953,-42.969,-35.645,-39.551,-36.133,0.000
1680450927.957,-35.156,-36.133,-30.273,-14.160,0.000
1680450927.961,-32.227,-37.598,-19.043,0.000,0.000
1680450927.965,-32.715,-34.180,-17.090,-5.371,0.000
1680450927.968,-34.668,-30.273,-23.438,-30.273,0.000
1680450927.972,-41.504,-30.762,-30.762,-42.969,0.000
1680450927.976,-41.992,-36.621,-32.227,-32.227,0.000
1680450927.980,-29.785,-33.203,-27.344,-3.418,0.000
1680450927.984,-23.926,-31.250,-29.297,-11.230,0.000
1680450927.988,-27.832,-30.762,-34.668,-45.898,0.000
1680450927.992,-30.762,-28.809,-38.086,-49.805,0.000
1680450927.996,-33.691,-33.691,-41.016,-28.320,0.000
1680450928.000,-31.738,-36.621,-32.227,-5.371,0.000
1680450928.004,-30.273,-34.180,-21.484,-10.254,0.000
1680450928.008,-33.691,-30.273,-24.414,-29.785,0.000
1680450928.011,-39.062,-38.086,-23.926,-40.527,0.000
1680450928.015,-28.320,-42.969,-28.320,-25.879,0.000
1680450928.019,-26.855,-37.109,-13.184,-0.488,0.000
1680450928.023,-32.227,-39.062,-2.930,-12.695,0.000
1680450928.027,-34.180,-42.969,-36.133,-47.363,0.000
1680450928.031,-40.527,-49.805,-44.922,-63.477,0.000
1680450928.035,-47.852,-50.293,-43.457,-52.246,0.000
1680450928.039,-33.691,-40.527,-29.785,-23.926,0.000
1680450928.043,-18.555,-36.133,-14.648,-6.836,0.000
1680450928.047,-28.320,-41.016,-27.832,-28.320,0.000
1680450928.051,-30.762,-43.945,-38.086,-51.270,0.000
1680450928.054,-42.969,-48.340,-40.527,-37.598,0.000
1680450928.058,-38.574,-48.340,-36.621,-12.207,0.000
1680450928.062,-23.926,-44.922,-25.879,-5.859,0.000
1680450928.066,-25.391,-31.738,-21.484,-25.391,0.000
1680450928.070,-35.156,-30.762,-34.668,-51.758,0.000
1680450928.074,-42.969,-40.039,-34.668,-53.223,0.000
1680450928.078,-41.504,-42.969,-28.809,-15.625,0.000
1680450928.082,-33.691,-32.715,-25.391,10.742,0.000
1680450928.086,-30.762,-26.855,-18.066,-7.324,0.000
1680450928.090,-39.551,-35.156,-25.879,-43.945,0.000
1680450928.094,-45.898,-36.621,-28.809,-48.340,0.000
1680450928.097,-33.691,-33.203,-16.113,-21.484,0.000
1680450928.101,-32.715,-30.273,-9.766,-1.465,0.000
1680450928.105,-39.062,-26.855,-15.625,-3.418,0.000
1680450928.109,-38.086,-24.902,-20.020,-27.832,0.000
1680450928.113,-38.086,-20.020,-15.625,-40.527,0.000
1680450928.117,-36.133,-26.855,-17.090,-16.602,0.000
1680450928.121,-31.738,-26.855,-22.461,14.160,0.000
1680450928.125,-30.273,-23.438,-14.160,1.465,0.000
1680450928.129,-36.133,-31.738,-14.648,-33.203,0.000
1680450928.133,-41.504,-41.504,-24.414,-46.387,0.000
1680450928.136,-32.227,-35.645,-23.438,-22.461,0.000
1680450928.140,-24.902,-22.949,-16.113,10.254,0.000
1680450928.144,-27.344,-23.438,-17.578,4.883,0.000
1680450928.148,-32.227,-32.227,-28.320,-36.621,0.000
1680450928.152,-27.344,-32.715,-27.832,-42.480,0.000
1680450928.156,-22.461,-27.344,-22.461,-15.137,0.000
1680450928.160,-12.207,-23.438,-15.625,9.766,0.000
1680450928.164,-12.207,-26.367,-22.461,2.441,0.000
1680450928.168,-30.273,-36.621,-33.691,-30.273,0.000
1680450928.172,-40.039,-41.504,-16.113,-47.363,0.000
1680450928.176,-32.227,-35.156,-12.207,-27.344,0.000
1680450928.179,-18.555,-30.762,-19.531,10.742,0.000
1680450928.183,-12.207,-31.250,-19.531,10.742,0.000
1680450928.187,-14.648,-31.250,-20.508,-19.043,0.000
1680450928.191,-26.367,-34.180,-29.297,-46.875,0.000
1680450928.195,-29.785,-36.133,-39.551,-43.457,0.000
1680450928.199,-26.367,-37.598,-26.855,-14.160,0.000
1680450928.203,-25.391,-35.645,-11.230,-8.301,0.000
1680450928.207,-22.461,-30.273,-11.230,-22.949,0.000
1680450928.211,-29.785,-30.273,-23.926,-38.574,0.000
1680450928.215,-35.156,-32.227,-20.996,-45.410,0.000
1680450928.218,-28.809,-38.086,-9.766,-16.113,0.000
1680450928.222,-24.414,-36.621,-19.043,4.883,0.000
1680450928.226,-30.273,-32.227,-28.320,-23.438,0.000
1680450928.230,-31.250,-32.227,-26.855,-45.898,0.000
1680450928.234,-33.203,-30.273,-22.949,-45.898,0.000
1680450928.238,-31.738,-29.297,-19.531,-32.227,0.000
1680450928.242,-14.648,-28.809,-13.184,-15.137,0.000
1680450928.246,-17.578,-32.227,-14.648,-25.879,0.000
1680450928.250,-29.785,-34.180,-23.926,-42.969,0.000
1680450928.254,-25.391,-24.902,-28.320,-40.039,0.000
1680450928.258,-22.461,-28.809,-30.273,-21.484,0.000
1680450928.261,-15.625,-38.086,-12.695,0.488,0.000
1680450928.265,-7.812,-32.227,-21.973,-12.695,0.000
1680450928.269,-21.484,-30.273,-44.922,-56.641,0.000
1680450928.273,-34.180,-32.715,-35.156,-59.082,0.000
1680450928.277,-19.043,-22.949,-23.926,-21.973,0.000
1680450928.281,-2.930,-17.090,-16.602,11.230,0.000
1680450928.285,-3.906,-23.926,-6.836,8.789,0.000
1680450928.289,-14.648,-28.809,-14.648,-23.438,0.000
1680450928.293,-17.578,-32.715,-22.949,-37.598,0.000
1680450928.297,-5.371,-32.227,-17.090,-20.020,0.000
1680450928.301,-6.348,-26.367,-13.672,5.371,0.000
1680450928.304,-11.719,-22.461,-13.184,1.953,0.000
1680450928.308,-17.578,-27.832,-22.461,-22.949,0.000
1680450928.312,-21.973,-31.250,-34.668,-39.551,0.000
1680450928.316,-14.160,-25.391,-24.902,-22.949,0.000
1680450928.320,-13.672,-20.020,-15.625,12.695,0.000
1680450928.324,-16.602,-21.484,-12.695,8.301,0.000
1680450928.328,-23.438,-26.367,-23.926,-33.691,0.000
1680450928.332,-29.785,-31.738,-26.367,-57.617,0.000
1680450928.336,-29.785,-33.203,-24.902,-34.180,0.000
1680450928.340,-22.949,-31.738,-24.902,-2.930,0.000
1680450928.343,-19.531,-31.738,-20.508,-0.488,0.000
1680450928.347,-23.438,-28.809,-29.785,-18.555,0.000
1680450928.351,-26.855,-32.227,-28.320,-27.832,0.000
1680450928.355,-27.344,-41.016,-41.992,-36.133,0.000
1680450928.359,-19.531,-40.527,-43.945,-33.203,0.000
1680450928.363,-19.043,-36.621,-19.043,-11.230,0.000
1680450928.367,-30.273,-37.598,-22.461,-30.273,0.000
1680450928.371,-32.715,-40.527,-35.156,-58.594,0.000
1680450928.375,-26.367,-38.574,-27.832,-42.480,0.000
1680450928.379,-14.160,-38.574,-21.484,-12.695,0.000
1680450928.383,-10.254,-39.062,-19.043,-13.184,0.000
1680450928.386,-17.578,-32.227,-18.066,-26.367,0.000
1680450928.390,-21.484,-32.227,-34.180,-50.293,0.000
1680450928.394,-21.484,-34.180,-34.668,-52.246,0.000
1680450928.398,-26.367,-36.621,-25.879,-23.926,0.000
1680450928.402,-24.414,-34.668,-24.414,-7.812,0.000
1680450928.406,-24.902,-37.109,-29.785,-25.879,0.000
1680450928.410,-34.668,-40.527,-35.645,-57.617,0.000
1680450928.414,-36.133,-41.992,-42.480,-56.152,0.000
1680450928.418,-25.391,-42.969,-46.387,-20.020,0.000
1680450928.422,-16.113,-35.156,-28.809,7.812,0.000
1680450928.426,-19.531,-29.785,-25.879,-5.371,0.000
1680450928.429,-25.391,-29.785,-33.691,-34.180,0.000
1680450928.433,-22.949,-36.133,-37.109,-49.316,0.000
1680450928.437,-26.855,-45.410,-30.762,-33.203,0.000
1680450928.441,-24.414,-36.621,-25.391,-8.789,0.000
1680450928.445,-19.043,-28.320,-25.391,-15.625,0.000
1680450928.449,-29.785,-31.738,-28.320,-40.039,0.000
1680450928.453,-37.598,-31.250,-31.738,-54.199,0.000
1680450928.457,-34.180,-27.832,-25.391,-35.156,0.000
1680450928.461,-23.438,-27.832,-25.391,-8.301,0.000
1680450928.465,-22.461,-29.785,-32.715,-16.602,0.000
1680450928.469,-40.039,-32.715,-36.133,-44.922,0.000
1680450928.472,-53.711,-36.133,-41.504,-55.664,0.000
1680450928.476,-47.363,-30.762,-41.992,-31.250,0.000
1680450928.480,-33.203,-31.250,-24.902,0.000,0.000
1680450928.484,-34.180,-38.086,-20.996,-10.254,0.000
1680450928.488,-40.527,-28.809,-34.668,-35.156,0.000
1680450928.492,-48.828,-30.762,-39.551,-48.340,0.000
1680450928.496,-53.711,-39.551,-44.922,-43.457,0.000
1680450928.500,-49.805,-39.551,-21.973,-25.391,0.000
1680450928.504,-42.480,-32.715,-0.977,-15.137,0.000
1680450928.508,-42.969,-28.320,-20.508,-38.574,0.000
1680450928.511,-53.711,-33.203,-33.203,-62.500,0.000
1680450928.515,-51.270,-34.668,-28.809,-44.434,0.000
1680450928.519,-37.109,-28.320,-20.996,-12.695,0.000
1680450928.523,-31.250,-39.062,-26.367,-3.906,0.000
1680450928.527,-42.480,-49.316,-35.156,-26.367,0.000
1680450928.531,-61.523,-44.922,-36.621,-57.129,0.000
1680450928.535,-61.523,-44.434,-29.297,-53.223,0.000
1680450928.539,-50.293,-42.480,-26.367,-17.578,0.000
1680450928.543,-49.805,-40.039,-29.297,-5.371,0.000
1680450928.547,-53.711,-40.039,-18.555,-32.715,0.000
1680450928.551,-60.059,-38.086,-26.855,-56.152,0.000
1680450928.554,-60.059,-35.156,-32.227,-47.363,0.000
1680450928.558,-45.898,-34.180,-25.879,-14.160,0.000
1680450928.562,-38.086,-32.715,-23.926,3.906,0.000
1680450928.566,-42.480,-33.203,-24.414,-15.625,0.000
1680450928.570,-40.527,-23.438,-32.715,-38.086,0.000
1680450928.574,-37.109,-22.949,-33.691,-37.598,0.000
1680450928.578,-36.133,-32.715,-23.926,-18.555,0.000
1680450928.582,-24.902,-29.297,-21.484,-4.883,0.000
1680450928.586,-21.484,-22.949,-28.809,-20.508,0.000
1680450928.590,-30.273,-23.438,-20.508,-53.711,0.000
1680450928.594,-32.715,-24.902,-18.066,-49.316,0.000
1680450928.597,-17.578,-18.066,-33.203,-8.789,0.000
1680450928.601,-6.348,-19.043,-22.461,8.301,0.000
1680450928.605,-11.719,-21.973,-19.531,-15.625,0.000
1680450928.609,-26.855,-20.508,-31.250,-49.316,0.000
1680450928.613,-35.156,-19.043,-33.691,-52.734,0.000
1680450928.617,-28.809,-23.438,-30.273,-28.809,0.000
1680450928.621,-25.391,-26.855,-25.879,-2.930,0.000
1680450928.625,-25.879,-27.832,-27.832,-8.789,0.000
1680450928.629,-32.227,-25.391,-33.691,-39.062,0.000
1680450928.633,-34.668,-25.391,-40.039,-48.340,0.000
1680450928.636,-28.809,-30.762,-30.273,-17.090,0.000
1680450928.640,-17.578,-28.320,-17.090,9.766,0.000
1680450928.644,-19.531,-27.832,-16.113,-5.859,0.000
1680450928.648,-33.691,-31.250,-25.879,-37.598,0.000
1680450928.652,-39.551,-37.109,-31.738,-43.945,0.000
1680450928.656,-28.320,-33.691,-29.785,-28.320,0.000
1680450928.660,-16.602,-31.738,-23.926,-3.906,0.000
1680450928.664,-22.461,-34.668,-21.973,-4.883,0.000
1680450928.668,-28.809,-35.156,-19.043,-38.086,0.000
1680450928.672,-30.762,-38.086,-20.996,-48.340,0.000
1680450928.676,-26.855,-31.738,-28.320,-29.785,0.000
1680450928.679,-17.578,-24.902,-11.230,-5.859,0.000
1680450928.683,-13.672,-24.414,-3.906,6.836,0.000
1680450928.687,-27.832,-25.879,-16.602,-12.695,0.000
1680450928.691,-41.016,-27.832,-22.949,-39.551,0.000
1680450928.695,-32.715,-26.367,-22.461,-29.297,0.000
1680450928.699,-37.109,-26.367,-20.020,-14.160,0.000
1680450928.703,-36.621,-30.273,-17.090,3.906,0.000
1680450928.707,-27.344,-28.320,-13.184,-1.465,0.000
1680450928.711,-51.758,-35.645,-18.066,-43.945,0.000
1680450928.715,-70.312,-44.434,-23.438,-58.105,0.000
1680450928.719,-62.500,-40.039,-20.508,-29.785,0.000
1680450928.722,-42.969,-29.785,-7.812,0.000,0.000
1680450928.726,-41.016,-26.855,-11.719,-23.926,0.000
1680450928.730,-53.711,-29.297,-24.902,-57.617,0.000
1680450928.734,-49.805,-24.902,-24.902,-50.781,0.000
1680450928.738,-40.527,-22.949,-19.043,-20.508,0.000
1680450928.742,-35.156,-20.020,-12.695,-0.488,0.000
1680450928.746,-36.133,-22.949,-18.066,-20.508,0.000
1680450928.750,-36.133,-28.320,-24.902,-52.734,0.000
1680450928.754,-35.645,-25.879,-23.926,-51.270,0.000
1680450928.758,-29.297,-21.973,-23.926,-20.020,0.000
1680450928.761,-31.250,-25.879,-19.531,-1.465,0.000
1680450928.765,-33.203,-28.809,-20.508,2.930,0.000
1680450928.769,-33.203,-18.066,-14.160,-21.973,0.000
1680450928.773,-39.551,-24.414,-15.137,-48.828,0.000
1680450928.777,-34.668,-33.203,-22.461,-29.785,0.000
1680450928.781,-26.855,-32.227,-16.113,-4.395,0.000
1680450928.785,-33.691,-31.738,-18.555,-7.324,0.000
1680450928.789,-39.062,-32.227,-32.715,-36.133,0.000
1680450928.793,-42.969,-38.086,-40.039,-48.340,0.000
1680450928.797,-36.133,-39.062,-39.551,-27.344,0.000
1680450928.801,-21.484,-35.645,-40.039,-6.348,0.000
1680450928.804,-36.133,-37.109,-30.762,-11.719,0.000
1680450928.808,-38.086,-33.691,-23.926,-42.480,0.000
1680450928.812,-39.062,-30.762,-25.879,-59.570,0.000
1680450928.816,-39.551,-30.762,-24.414,-47.363,0.000
1680450928.820,-30.273,-33.203,-22.949,-18.066,0.000
1680450928.824,-33.691,-37.598,-25.391,-6.836,0.000
1680450928.828,-44.434,-41.016,-23.926,-36.133,0.000
1680450928.832,-49.805,-38.086,-13.184,-57.129,0.000
1680450928.836,-37.598,-35.645,-18.066,-39.062,0.000
1680450928.840,-29.785,-37.598,-22.949,-11.230,0.000
1680450928.844,-30.762,-33.691,-19.043,-1.953,0.000
1680450928.847,-25.879,-28.320,-30.762,-18.555,0.000
1680450928.851,-35.156,-32.227,-37.598,-47.852,0.000
1680450928.855,-45.410,-30.762,-32.715,-42.480,0.000
1680450928.859,-37.109,-27.832,-21.973,-13.672,0.000
1680450928.863,-31.738,-25.879,-14.648,-6.836,0.000
1680450928.867,-33.203,-27.344,-18.066,-22.461,0.000
1680450928.871,-41.504,-32.715,-28.320,-47.363,0.000
1680450928.875,-48.828,-37.109,-21.484,-54.688,0.000
1680450928.879,-39.551,-36.621,-23.926,-21.973,0.000
1680450928.883,-28.809,-29.785,-31.250,1.953,0.000
1680450928.886,-25.391,-28.320,-20.020,-14.648,0.000
1680450928.890,-37.109,-33.203,-23.438,-40.527,0.000
1680450928.894,-45.898,-37.598,-25.391,-44.922,0.000
1680450928.898,-31.738,-35.156,-18.066,-16.113,0.000
1680450928.902,-22.949,-34.668,-15.625,10.742,0.000
1680450928.906,-30.762,-36.621,-18.555,-9.277,0.000
1680450928.910,-41.992,-32.227,-20.020,-42.969,0.000
1680450928.914,-35.156,-31.250,-25.879,-42.480,0.000
1680450928.918,-20.020,-31.250,-22.461,-13.184,0.000
1680450928.922,-19.043,-34.668,-9.766,4.883,0.000
1680450928.926,-20.996,-28.320,-9.766,-5.859,0.000
1680450928.929,-20.996,-20.508,-20.508,-33.203,0.000
1680450928.933,-31.738,-32.715,-32.715,-41.992,0.000
1680450928.937,-33.691,-41.016,-26.367,-29.297,0.000
1680450928.941,-20.996,-38.086,-16.602,-6.836,0.000
1680450928.945,-19.043,-37.109,-13.672,-7.324,0.000
1680450928.949,-34.668,-40.527,-29.785,-38.574,0.000
1680450928.953,-42.969,-39.062,-40.039,-49.316,0.000
1680450928.957,-30.762,-36.621,-33.203,-36.133,0.000
1680450928.961,-21.973,-36.133,-35.645,-17.578,0.000
1680450928.965,-20.996,-33.691,-22.461,-8.301,0.000
1680450928.969,-17.578,-29.297,-9.277,-29.297,0.000
1680450928.972,-20.020,-24.902,-26.855,-52.246,0.000
1680450928.976,-20.508,-26.855,-35.645,-46.387,0.000
1680450928.980,-14.648,-26.855,-25.879,-12.207,0.000
1680450928.984,-15.137,-21.484,-20.020,0.488,0.000
1680450928.988,-17.578,-19.043,-23.926,-31.738,0.000
1680450928.992,-23.438,-24.414,-31.250,-45.410,0.000
1680450928.996,-25.879,-21.484,-31.738,-25.391,0.000
1680450929.000,-18.066,-20.996,-21.484,0.000,0.000
1680450929.004,-17.090,-24.414,-10.742,1.465,0.000
1680450929.008,-23.926,-26.855,-16.602,-24.414,0.000
1680450929.011,-40.527,-30.273,-22.949,-40.527,0.000
1680450929.015,-42.480,-30.273,-29.785,-35.156,0.000
1680450929.019,-30.762,-30.273,-20.996,-20.996,0.000
1680450929.023,-24.414,-27.832,-20.508,-9.277,0.000
1680450929.027,-31.250,-30.762,-30.762,-33.691,0.000
1680450929.031,-57.617,-36.133,-31.250,-63.477,0.000
1680450929.035,-52.246,-37.598,-37.598,-51.758,0.000
1680450929.039,-33.691,-32.227,-36.133,-20.508,0.000
1680450929.043,-34.180,-28.320,-22.461,-5.371,0.000
1680450929.047,-29.785,-34.180,-20.996,-28.809,0.000
1680450929.051,-36.621,-31.738,-27.832,-58.594,0.000
1680450929.054,-45.410,-32.715,-26.367,-55.664,0.000
1680450929.058,-34.668,-31.250,-18.555,-19.043,0.000
1680450929.062,-19.531,-23.926,-5.859,12.695,0.000
1680450929.066,-23.926,-20.508,-5.371,-10.742,0.000
1680450929.070,-41.504,-29.785,-31.250,-51.758,0.000
1680450929.074,-45.898,-41.504,-32.715,-52.246,0.000
1680450929.078,-41.016,-39.062,-26.855,-29.297,0.000
1680450929.082,-32.227,-33.691,-19.531,-0.977,0.000
1680450929.086,-36.133,-33.203,-14.160,-9.766,0.000
1680450929.090,-44.922,-37.109,-23.438,-42.480,0.000
1680450929.094,-43.945,-38.574,-31.738,-44.434,0.000
1680450929.097,-38.086,-29.297,-23.926,-18.066,0.000
1680450929.101,-29.297,-20.020,-11.719,-1.465,0.000
1680450929.105,-33.691,-24.414,-15.137,-14.648,0.000
1680450929.109,-36.621,-29.297,-24.414,-30.273,0.000
1680450929.113,-36.621,-24.414,-27.832,-46.387,0.000
1680450929.117,-37.109,-31.250,-23.926,-34.668,0.000
1680450929.121,-27.344,-34.180,-20.996,2.441,0.000
1680450929.125,-28.809,-26.855,-28.809,-3.906,0.000
1680450929.129,-39.551,-30.762,-29.785,-42.969,0.000
1680450929.133,-41.504,-39.062,-22.949,-50.293,0.000
1680450929.136,-39.551,-41.016,-17.090,-28.809,0.000
1680450929.140,-28.320,-37.109,-23.438,-14.648,0.000
1680450929.144,-18.066,-31.738,-11.719,-8.789,0.000
1680450929.148,-28.809,-33.203,-7.324,-28.809,0.000
1680450929.152,-29.297,-36.133,-26.367,-40.527,0.000
1680450929.156,-23.926,-38.086,-16.602,-17.578,0.000
1680450929.160,-27.344,-37.109,-6.836,13.672,0.000
1680450929.164,-29.297,-40.039,-14.648,9.766,0.000
1680450929.168,-41.504,-41.016,-24.902,-32.227,0.000
1680450929.172,-50.781,-33.203,-26.367,-53.223,0.000
1680450929.176,-34.668,-30.273,-18.555,-36.621,0.000
1680450929.179,-20.996,-31.738,-16.602,-13.184,0.000
1680450929.183,-21.484,-33.691,-21.484,-7.812,0.000
1680450929.187,-32.227,-36.133,-28.320,-21.973,0.000
1680450929.191,-41.016,-34.180,-26.855,-39.551,0.000
1680450929.195,-35.645,-37.109,-22.461,-40.527,0.000
1680450929.199,-26.855,-41.504,-22.949,-28.320,0.000
1680450929.203,-26.367,-41.992,-16.602,-16.602,0.000
1680450929.207,-23.926,-35.645,-15.625,-29.297,0.000
1680450929.211,-24.414,-33.691,-28.809,-52.734,0.000
1680450929.215,-32.227,-38.086,-32.715,-45.410,0.000
1680450929.219,-36.621,-42.480,-27.344,-17.090,0.000
1680450929.222,-33.203,-40.039,-22.461,-1.465,0.000
1680450929.226,-30.273,-41.016,-27.832,-19.043,0.000
1680450929.230,-37.109,-44.434,-27.344,-47.852,0.000
1680450929.234,-41.992,-41.504,-21.973,-49.316,0.000
1680450929.238,-34.668,-34.180,-21.973,-21.484,0.000
1680450929.242,-28.809,-30.273,-19.531,1.465,0.000
1680450929.246,-25.391,-32.227,-19.043,-9.766,0.000
1680450929.250,-35.156,-42.969,-28.320,-38.574,0.000
1680450929.254,-43.457,-48.828,-25.391,-44.434,0.000
1680450929.258,-32.715,-41.016,-19.531,-20.508,0.000
1680450929.261,-28.809,-37.598,-19.043,-11.230,0.000
1680450929.265,-30.273,-33.203,-16.602,-22.461,0.000
1680450929.269,-35.645,-33.691,-22.461,-42.480,0.000
1680450929.273,-37.109,-35.156,-27.344,-54.199,0.000
1680450929.277,-34.668,-34.180,-25.391,-33.691,0.000
1680450929.281,-24.414,-34.180,-19.043,-1.465,0.000
1680450929.285,-15.625,-30.762,-18.555,-6.348,0.000
1680450929.289,-27.832,-34.668,-25.879,-40.527,0.000
1680450929.293,-25.879,-37.109,-26.855,-48.340,0.000
1680450929.297,-15.625,-31.738,-10.742,-18.555,0.000
1680450929.301,-10.254,-23.926,-2.441,8.789,0.000
1680450929.304,-2.441,-16.602,-20.996,1.953,0.000
1680450929.308,-3.418,-14.648,-26.855,-16.602,0.000
1680450929.312,-16.602,-23.438,-21.973,-32.227,0.000
1680450929.316,-20.996,-34.668,-23.926,-27.344,0.000
1680450929.320,-19.531,-36.133,-21.973,-10.254,0.000
1680450929.324,-16.602,-36.621,-18.066,-11.230,0.000
1680450929.328,-20.508,-36.133,-20.508,-23.926,0.000
1680450929.332,-29.785,-30.273,-25.391,-26.855,0.000
1680450929.336,-29.785,-30.762,-32.227,-21.973,0.000
1680450929.340,-21.484,-36.133,-12.695,-12.695,0.000
1680450929.344,-17.090,-34.180,1.465,-5.371,0.000
1680450929.347,-17.578,-31.250,-21.973,-22.461,0.000
1680450929.351,-30.273,-35.156,-30.762,-45.898,0.000
1680450929.355,-42.480,-39.062,-27.832,-44.922,0.000
1680450929.359,-30.273,-28.809,-19.043,-11.230,0.000
1680450929.363,-27.344,-30.273,-20.508,12.207,0.000
1680450929.367,-24.414,-32.715,-26.855,-16.113,0.000
1680450929.371,-31.250,-34.180,-30.762,-47.852,0.000
1680450929.375,-38.574,-37.109,-29.785,-35.645,0.000
1680450929.379,-27.832,-27.832,-23.926,-4.883,0.000
1680450929.383,-26.367,-33.691,-24.414,1.953,0.000
1680450929.386,-28.809,-41.992,-31.250,-11.719,0.000
1680450929.390,-31.738,-36.621,-35.156,-38.574,0.000
1680450929.394,-34.668,-26.367,-34.180,-40.039,0.000
1680450929.398,-28.320,-25.879,-24.902,-5.371,0.000
1680450929.402,-26.855,-33.203,-19.043,4.395,0.000
1680450929.406,-27.832,-32.715,-20.020,-10.254,0.000
1680450929.410,-29.785,-33.203,-26.367,-31.738,0.000
1680450929.414,-38.086,-35.156,-31.250,-36.621,0.000
1680450929.418,-39.062,-32.227,-24.902,-8.789,0.000
1680450929.422,-30.273,-31.738,-21.973,12.695,0.000
1680450929.426,-24.414,-29.297,-21.484,5.371,0.000
1680450929.429,-38.086,-35.645,-22.949,-23.438,0.000
1680450929.433,-41.504,-41.992,-26.367,-32.715,0.000
1680450929.437,-31.738,-37.109,-28.809,-16.113,0.000
1680450929.441,-26.855,-29.785,-20.996,-0.977,0.000
1680450929.445,-22.949,-29.785,-18.066,-3.418,0.000
1680450929.449,-21.973,-31.250,-31.738,-33.691,0.000
1680450929.453,-31.738,-35.645,-45.410,-45.898,0.000
1680450929.457,-33.691,-40.039,-47.852,-31.738,0.000
1680450929.461,-24.414,-38.574,-36.133,-7.812,0.000
1680450929.465,-17.090,-33.203,-25.879,-3.906,0.000
1680450929.469,-20.508,-24.902,-30.273,-25.391,0.000
1680450929.472,-23.926,-15.137,-30.273,-40.527,0.000
1680450929.476,-23.438,-17.578,-18.066,-26.855,0.000
1680450929.480,-20.996,-24.414,-18.066,5.859,0.000
1680450929.484,-19.043,-26.367,-24.902,12.695,0.000
1680450929.488,-21.484,-27.344,-28.809,-13.672,0.000
1680450929.492,-24.414,-33.691,-28.809,-51.270,0.000
1680450929.496,-20.996,-35.156,-25.879,-43.945,0.000
1680450929.500,-22.461,-31.250,-28.320,-8.301,0.000
1680450929.504,-23.926,-27.344,-20.508,-2.441,0.000
1680450929.508,-24.902,-23.926,-17.090,-16.602,0.000
1680450929.511,-22.949,-25.391,-22.461,-29.297,0.000
1680450929.515,-25.391,-27.344,-22.949,-29.297,0.000
1680450929.519,-29.785,-21.484,-13.672,-16.602,0.000
1680450929.523,-31.738,-25.391,-8.789,-8.301,0.000
1680450929.527,-37.109,-27.344,-24.414,-30.762,0.000
1680450929.531,-40.039,-23.926,-25.879,-47.852,0.000
1680450929.535,-41.504,-26.367,-24.414,-38.086,0.000
1680450929.539,-43.945,-27.344,-30.762,-20.508,0.000
1680450929.543,-41.992,-24.414,-25.879,-10.254,0.000
1680450929.547,-35.156,-21.484,-23.926,-20.020,0.000
1680450929.551,-40.039,-27.344,-25.391,-48.828,0.000
1680450929.554,-39.551,-33.691,-21.484,-52.734,0.000
1680450929.558,-33.691,-31.738,-13.184,-20.996,0.000
1680450929.562,-35.156,-35.156,-15.625,0.977,0.000
1680450929.566,-32.227,-35.645,-20.996,-1.953,0.000
1680450929.570,-26.367,-32.715,-25.879,-29.785,0.000
1680450929.574,-27.344,-38.086,-30.762,-38.574,0.000
1680450929.578,-39.551,-37.598,-27.344,-18.555,0.000
1680450929.582,-39.062,-34.668,-14.648,-5.371,0.000
1680450929.586,-39.062,-35.156,-22.949,-26.367,0.000
1680450929.590,-40.039,-34.668,-33.203,-49.316,0.000
1680450929.594,-30.762,-33.691,-30.273,-43.945,0.000
1680450929.597,-21.484,-30.273,-23.438,-21.973,0.000
1680450929.601,-19.531,-29.297,-16.113,-2.930,0.000
1680450929.605,-22.949,-31.738,-24.902,-17.578,0.000
1680450929.609,-25.391,-29.785,-23.926,-42.969,0.000
1680450929.613,-21.484,-25.879,-17.578,-37.598,0.000
1680450929.617,-21.484,-30.273,-14.160,-14.160,0.000
1680450929.621,-27.832,-37.598,-15.137,3.418,0.000
1680450929.625,-35.645,-38.086,-8.789,-1.465,0.000
1680450929.629,-37.109,-37.109,-8.301,-25.391,0.000
1680450929.633,-27.832,-29.785,-20.020,-30.273,0.000
1680450929.636,-24.902,-33.691,-18.555,-15.625,0.000
1680450929.640,-35.156,-40.039,-20.996,-2.441,0.000
1680450929.644,-27.344,-33.691,-17.578,-2.930,0.000
1680450929.648,-21.484,-38.574,-15.137,-22.461,0.000
1680450929.652,-28.809,-43.457,-23.438,-33.691,0.000
1680450929.656,-26.367,-41.016,-24.902,-26.855,0.000
1680450929.660,-21.484,-37.109,-22.949,-10.742,0.000
1680450929.664,-9.766,-53.711,-26.855,0.488,0.000
1680450929.668,-28.809,-63.965,-26.855,0.977,0.000
1680450929.672,-22.461,-39.062,-14.160,-23.438,0.000
1680450929.676,-15.625,-30.762,-18.066,-37.109,0.000
1680450929.679,-42.969,-41.992,-28.809,-14.648,0.000
1680450929.683,-45.410,-43.457,-31.250,-5.859,0.000
1680450929.687,-39.062,-37.598,-34.180,-31.250,0.000
1680450929.691,-31.738,-33.691,-41.016,-41.504,0.000
1680450929.695,-38.086,-31.738,-40.527,-28.809,0.000
1680450929.699,-41.504,-29.785,-30.762,-11.719,0.000
1680450929.703,-34.668,-28.320,-31.738,-2.930,0.000
1680450929.707,-35.645,-27.344,-30.762,-19.531,0.000
1680450929.711,-40.527,-30.273,-31.738,-47.852,0.000
1680450929.715,-40.527,-36.621,-22.461,-53.223,0.000
1680450929.719,-35.156,-37.598,-9.766,-33.203,0.000
1680450929.722,-41.504,-39.551,-19.043,-18.555,0.000
1680450929.726,-46.875,-41.504,-27.832,-29.785,0.000
1680450929.730,-37.598,-45.410,-24.902,-49.805,0.000
1680450929.734,-37.109,-42.480,-19.043,-47.363,0.000
1680450929.738,-41.016,-38.574,-23.438,-18.066,0.000
1680450929.742,-42.969,-46.387,-30.762,-14.160,0.000
1680450929.746,-43.945,-47.363,-34.180,-32.715,0.000
1680450929.750,-34.668,-43.945,-33.203,-43.457,0.000
1680450929.754,-36.133,-39.062,-34.668,-45.410,0.000
1680450929.758,-41.016,-41.992,-38.086,-30.762,0.000
1680450929.762,-41.504,-50.781,-22.949,-23.926,0.000
1680450929.765,-45.898,-52.734,-28.320,-25.391,0.000
1680450929.769,-39.551,-47.852,-41.992,-36.621,0.000
1680450929.773,-32.227,-44.922,-39.062,-63.965,0.000
1680450929.777,-34.180,-41.016,-35.156,-58.105,0.000
1680450929.781,-41.992,-36.133,-27.832,-31.738,0.000
1680450929.785,-49.316,-41.504,-28.809,-30.762,0.000
1680450929.789,-40.527,-39.062,-30.762,-44.434,0.000
1680450929.793,-23.438,-31.738,-36.133,-42.480,0.000
1680450929.797,-26.367,-34.668,-28.809,-32.715,0.000
1680450929.801,-35.645,-39.551,-27.344,-23.926,0.000
1680450929.804,-39.062,-40.039,-22.949,-19.531,0.000
1680450929.808,-49.316,-44.434,-17.090,-40.527,0.000
1680450929.812,-34.180,-41.992,-28.809,-50.293,0.000
1680450929.816,-24.414,-35.156,-34.668,-31.250,0.000
1680450929.820,-30.273,-34.180,-32.715,-13.184,0.000
1680450929.824,-30.762,-35.645,-27.832,-17.090,0.000
1680450929.828,-29.297,-34.180,-28.320,-34.668,0.000
1680450929.832,-31.250,-36.621,-34.668,-47.363,0.000
1680450929.836,-39.551,-40.527,-40.039,-39.551,0.000
1680450929.840,-34.668,-36.133,-33.691,-10.254,0.000
1680450929.844,-37.109,-34.180,-23.926,-7.812,0.000
1680450929.847,-45.410,-32.227,-30.762,-40.527,0.000
1680450929.851,-34.668,-28.809,-40.039,-50.293,0.000
1680450929.855,-31.738,-29.785,-36.133,-35.645,0.000
1680450929.859,-36.621,-32.715,-27.832,-19.531,0.000
1680450929.863,-39.551,-38.086,-24.902,-17.090,0.000
1680450929.867,-46.875,-37.598,-30.273,-44.922,0.000
1680450929.871,-43.457,-36.621,-36.133,-64.453,0.000
1680450929.875,-30.273,-35.645,-37.598,-49.805,0.000
1680450929.879,-32.227,-36.133,-35.645,-31.250,0.000
1680450929.883,-30.273,-34.180,-24.414,-23.926,0.000
1680450929.887,-34.668,-32.227,-23.926,-31.250,0.000
1680450929.890,-41.504,-37.109,-36.621,-41.016,0.000
1680450929.894,-37.598,-35.156,-33.691,-35.156,0.000
1680450929.898,-42.969,-36.621,-31.250,-20.020,0.000
1680450929.902,-44.922,-45.410,-35.156,-18.066,0.000
1680450929.906,-41.992,-43.945,-35.645,-39.062,0.000
1680450929.910,-42.480,-47.363,-34.668,-46.387,0.000
1680450929.914,-38.086,-43.945,-30.273,-41.504,0.000
1680450929.918,-33.691,-36.133,-31.738,-25.391,0.000
1680450929.922,-46.875,-36.133,-32.715,-17.090,0.000
1680450929.926,-52.246,-40.039,-31.250,-24.414,0.000
1680450929.929,-38.086,-44.922,-28.809,-40.527,0.000
1680450929.933,-34.668,-46.387,-28.809,-43.457,0.000
1680450929.937,-41.016,-43.945,-29.297,-24.902,0.000
1680450929.941,-40.527,-38.574,-17.578,-9.277,0.000
1680450929.945,-44.922,-45.410,-18.066,-19.043,0.000
1680450929.949,-47.363,-48.828,-35.645,-45.410,0.000
1680450929.953,-40.527,-41.016,-34.180,-54.688,0.000
1680450929.957,-35.645,-36.133,-18.066,-40.039,0.000
1680450929.961,-41.504,-38.086,-18.066,-22.949,0.000
1680450929.965,-56.152,-41.504,-29.785,-35.156,0.000
1680450929.969,-59.570,-41.016,-36.133,-58.594,0.000
1680450929.972,-43.945,-36.621,-39.551,-58.105,0.000
1680450929.976,-43.945,-33.203,-36.621,-42.969,0.000
1680450929.980,-46.875,-33.691,-33.203,-31.738,0.000
1680450929.984,-43.945,-32.715,-30.273,-30.762,0.000
1680450929.988,-42.480,-25.879,-26.855,-42.480,0.000
1680450929.992,-31.738,-30.273,-27.344,-46.387,0.000
1680450929.996,-36.133,-36.621,-23.926,-38.086,0.000
1680450930.000,-41.016,-36.133,-17.578,-14.160,0.000
1680450930.004,-41.504,-38.086,-18.555,-8.789,0.000
1680450930.008,-40.039,-38.574,-33.691,-33.203,0.000
1680450930.012,-34.180,-32.715,-39.062,-42.480,0.000
1680450930.015,-34.180,-29.785,-30.273,-37.598,0.000
1680450930.019,-39.551,-31.250,-22.949,-19.531,0.000
1680450930.023,-45.410,-31.250,-18.066,-14.648,0.000
1680450930.027,-45.898,-34.180,-21.973,-35.645,0.000
1680450930.031,-33.203,-34.180,-25.879,-42.969,0.000
1680450930.035,-21.973,-24.414,-28.809,-29.785,0.000
1680450930.039,-16.602,-23.926,-21.484,-1.953,0.000
1680450930.043,-21.484,-23.926,-12.207,10.254,0.000
1680450930.047,-34.668,-23.438,-15.625,-12.207,0.000
1680450930.051,-34.668,-24.902,-18.066,-37.598,0.000
1680450930.054,-30.273,-18.066,-17.090,-32.227,0.000
1680450930.058,-31.250,-15.625,-18.066,-11.230,0.000
1680450930.062,-33.203,-20.996,-16.602,-2.441,0.000
1680450930.066,-38.086,-27.344,-20.020,-19.043,0.000
1680450930.070,-32.227,-27.832,-29.785,-44.922,0.000
1680450930.074,-26.367,-25.391,-31.738,-45.898,0.000
1680450930.078,-29.297,-20.996,-27.344,-27.832,0.000
1680450930.082,-29.297,-16.113,-22.461,-19.531,0.000
1680450930.086,-37.109,-19.043,-34.180,-35.156,0.000
1680450930.090,-51.270,-28.809,-28.320,-61.035,0.000
1680450930.094,-44.922,-34.180,-22.949,-55.664,0.000
1680450930.097,-30.762,-19.043,-43.457,-29.297,0.000
1680450930.101,-37.109,-12.695,-40.039,-12.695,0.000
1680450930.105,-45.410,-19.531,-30.762,-22.949,0.000
1680450930.109,-39.551,-19.043,-35.645,-54.199,0.000
1680450930.113,-37.109,-13.184,-37.109,-62.500,0.000
1680450930.117,-50.781,-15.625,-33.691,-42.480,0.000
1680450930.121,-57.617,-24.414,-34.180,-34.180,0.000
1680450930.125,-53.223,-17.578,-27.832,-40.039,0.000
1680450930.129,-50.781,-4.395,-22.461,-49.316,0.000
1680450930.133,-57.617,-8.301,-26.367,-61.035,0.000
1680450930.137,-57.129,-9.766,-14.648,-47.852,0.000
1680450930.140,-51.758,-3.418,-8.301,-26.367,0.000
1680450930.144,-50.781,6.836,-20.996,-20.508,0.000
1680450930.148,-47.852,11.719,-33.203,-39.551,0.000
1680450930.152,-41.992,8.789,-34.180,-46.387,0.000
1680450930.156,-33.691,20.508,-24.414,-15.137,0.000
1680450930.160,-39.062,25.391,-17.578,-0.977,0.000
1680450930.164,-44.922,25.391,-17.578,-12.695,0.000
1680450930.168,-37.109,21.484,-18.555,-25.879,0.000
1680450930.172,-34.180,5.859,-33.203,-39.062,0.000
1680450930.176,-45.410,0.488,-37.598,-34.668,0.000
1680450930.179,-47.363,-4.395,-19.043,-11.719,0.000
1680450930.183,-48.340,-15.625,-10.742,-7.812,0.000
1680450930.187,-47.363,-21.973,-25.879,-38.086,0.000
1680450930.191,-31.738,-16.602,-32.715,-52.246,0.000
1680450930.195,-29.297,-9.277,-38.086,-35.645,0.000
1680450930.199,-29.785,-11.719,-38.086,-19.531,0.000
1680450930.203,-40.039,-9.766,-28.320,-13.184,0.000
1680450930.207,-48.340,-10.254,-26.855,-28.809,0.000
1680450930.211,-39.551,-20.020,-28.809,-48.340,0.000
1680450930.215,-32.227,-22.461,-20.508,-41.992,0.000
1680450930.219,-34.180,-24.902,-15.137,-20.020,0.000
1680450930.222,-34.668,-24.414,-9.766,-13.672,0.000
1680450930.226,-41.016,-24.902,-6.348,-28.809,0.000
1680450930.230,-43.457,-33.203,-16.602,-53.223,0.000
1680450930.234,-29.297,-35.645,-26.367,-45.410,0.000
1680450930.238,-26.855,-28.320,-16.113,-19.531,0.000
1680450930.242,-32.715,-23.438,-16.113,-15.625,0.000
1680450930.246,-42.480,-23.438,-25.879,-28.809,0.000
1680450930.250,-42.480,-20.508,-27.344,-41.504,0.000
1680450930.254,-27.832,-15.625,-34.180,-35.645,0.000
1680450930.258,-20.996,-10.254,-31.250,-20.020,0.000
1680450930.262,-30.762,-13.672,-21.973,-17.578,0.000
1680450930.265,-41.016,-21.973,-27.344,-30.273,0.000
1680450930.269,-36.133,-19.043,-31.738,-40.527,0.000
1680450930.273,-35.645,-10.742,-30.273,-35.645,0.000
1680450930.277,-36.621,-6.836,-27.832,-22.949,0.000
1680450930.281,-33.691,-12.207,-20.996,-7.324,0.000
1680450930.285,-36.621,-9.766,-22.461,-4.395,0.000
1680450930.289,-33.203,-5.371,-25.879,-23.926,0.000
1680450930.293,-28.320,-10.742,-21.973,-34.180,0.000
1680450930.297,-27.344,-7.324,-14.160,-18.555,0.000
1680450930.301,-30.762,-1.953,-9.277,-2.930,0.000
1680450930.304,-30.273,-11.230,-9.766,-6.836,0.000
1680450930.308,-33.203,-19.531,-20.020,-33.691,0.000
1680450930.312,-34.180,-16.602,-26.367,-54.688,0.000
1680450930.316,-28.320,-13.672,-23.438,-35.645,0.000
1680450930.320,-21.973,-10.254,-19.043,-4.883,0.000
1680450930.324,-23.438,-17.090,-17.578,-8.789,0.000
1680450930.328,-26.367,-17.578,-17.578,-20.508,0.000
1680450930.332,-19.531,-12.695,-16.113,-20.020,0.000
1680450930.336,-13.184,-15.137,-14.160,-13.672,0.000
1680450930.340,-16.602,-17.578,-14.160,3.418,0.000
1680450930.344,-17.578,-11.719,-18.555,-4.883,0.000
1680450930.347,-29.297,-14.160,-23.438,-29.785,0.000
1680450930.351,-31.738,-20.508,-25.879,-39.551,0.000
1680450930.355,-19.531,-16.602,-25.391,-32.227,0.000
1680450930.359,-23.438,-16.113,-24.414,-15.625,0.000
1680450930.363,-33.691,-13.184,-18.555,-6.836,0.000
1680450930.367,-28.809,-16.602,-23.438,-20.508,0.000
1680450930.371,-26.855,-19.043,-31.250,-27.344,0.000
1680450930.375,-24.414,-17.090,-21.973,-17.090,0.000
1680450930.379,-20.508,-12.695,-11.230,-2.930,0.000
1680450930.383,-29.785,-12.207,-8.789,7.324,0.000
1680450930.387,-33.203,-16.602,-18.066,-9.277,0.000
1680450930.390,-23.926,-16.602,-28.809,-24.902,0.000
1680450930.394,-14.160,-13.672,-30.273,-12.695,0.000
1680450930.398,-17.090,-19.043,-23.438,2.441,0.000
1680450930.402,-31.250,-31.250,-17.090,-6.348,0.000
1680450930.406,-33.203,-26.367,-17.578,-22.949,0.000
1680450930.410,-26.367,-19.043,-25.391,-35.645,0.000
1680450930.414,-21.484,-18.066,-24.902,-24.414,0.000
1680450930.418,-13.672,-15.137,-12.207,-4.395,0.000
1680450930.422,-16.113,-18.555,-8.301,0.488,0.000
1680450930.426,-23.438,-21.973,-13.672,-9.277,0.000
1680450930.429,-31.250,-26.855,-22.461,-30.762,0.000
1680450930.433,-27.832,-28.320,-20.508,-31.738,0.000
1680450930.437,-25.391,-26.367,-18.555,-18.066,0.000
1680450930.441,-37.109,-24.902,-15.625,-3.418,0.000
1680450930.445,-38.086,-19.043,-17.090,-14.648,0.000
1680450930.449,-27.832,-18.066,-25.391,-43.945,0.000
1680450930.453,-19.043,-23.438,-31.250,-44.922,0.000
1680450930.457,-15.137,-16.113,-31.250,-20.020,0.000
1680450930.461,-11.230,-6.348,-20.996,-5.371,0.000
1680450930.465,-16.602,-13.184,-17.090,-20.020,0.000
1680450930.469,-21.484,-22.949,-24.414,-37.598,0.000
1680450930.472,-17.090,-20.996,-40.039,-41.992,0.000
1680450930.476,-15.137,-19.531,-37.598,-24.902,0.000
1680450930.480,-15.625,-22.949,-23.926,-1.465,0.000
1680450930.484,-18.066,-26.367,-29.297,0.488,0.000
1680450930.488,-20.508,-25.391,-30.273,-16.602,0.000
1680450930.492,-19.043,-27.344,-26.855,-31.738,0.000
1680450930.496,-25.879,-28.320,-21.484,-25.879,0.000
1680450930.500,-32.227,-28.809,-11.719,-5.859,0.000
1680450930.504,-30.273,-23.438,-11.230,-3.906,0.000
1680450930.508,-35.645,-29.297,-16.602,-23.438,0.000
1680450930.512,-41.016,-39.551,-27.344,-39.551,0.000
1680450930.515,-34.668,-42.480,-32.715,-36.133,0.000
1680450930.519,-38.574,-36.621,-21.484,-20.508,0.000
1680450930.523,-45.410,-26.855,-15.625,-19.043,0.000
1680450930.527,-39.551,-29.297,-20.020,-32.227,0.000
1680450930.531,-33.691,-43.457,-27.344,-42.969,0.000
1680450930.535,-27.832,-36.621,-28.320,-38.086,0.000
1680450930.539,-28.809,-21.484,-22.949,-12.695,0.000
1680450930.543,-40.527,-22.461,-22.949,-14.648,0.000
1680450930.547,-28.809,-28.809,-23.926,-41.016,0.000
1680450930.551,-16.602,-29.785,-21.973,-52.734,0.000
1680450930.555,-29.785,-30.762,-23.438,-48.340,0.000
1680450930.558,-31.250,-28.809,-22.949,-28.809,0.000
1680450930.562,-28.320,-26.855,-25.879,-20.996,0.000
1680450930.566,-34.668,-29.785,-34.180,-36.621,0.000
1680450930.570,-29.297,-26.855,-30.273,-51.270,0.000
1680450930.574,-29.297,-26.855,-29.297,-49.316,0.000
1680450930.578,-28.809,-20.996,-28.809,-31.250,0.000
1680450930.582,-26.855,-18.555,-23.438,-12.207,0.000
1680450930.586,-30.762,-22.461,-28.320,-15.625,0.000
1680450930.590,-28.320,-22.461,-26.855,-39.551,0.000
1680450930.594,-22.461,-22.949,-23.926,-47.363,0.000
1680450930.597,-20.508,-23.438,-25.879,-34.668,0.000
1680450930.601,-23.926,-33.203,-21.973,-23.926,0.000
1680450930.605,-29.297,-39.551,-25.391,-28.320,0.000
1680450930.609,-26.855,-35.156,-35.156,-35.645,0.000
1680450930.613,-19.043,-30.762,-27.832,-31.738,0.000
1680450930.617,-17.578,-28.809,-23.438,-16.113,0.000
1680450930.621,-12.695,-27.344,-28.809,-9.766,0.000
1680450930.625,-22.461,-25.391,-21.973,-21.484,0.000
1680450930.629,-41.992,-23.438,-25.879,-36.621,0.000
1680450930.633,-33.203,-22.461,-33.203,-40.039,0.000
1680450930.637,-16.602,-23.438,-26.855,-26.855,0.000
1680450930.640,-13.672,-23.926,-20.996,-4.395,0.000
1680450930.644,-28.809,-23.926,-13.184,-2.930,0.000
1680450930.648,-31.738,-25.391,-10.254,-26.367,0.000
1680450930.652,-24.902,-30.273,-15.137,-35.645,0.000
1680450930.656,-23.926,-29.785,-14.648,-20.020,0.000
1680450930.660,-19.531,-25.879,-16.113,-1.465,0.000
1680450930.664,-27.832,-24.902,-16.113,-10.254,0.000
1680450930.668,-39.062,-26.367,-21.973,-21.973,0.000
1680450930.672,-34.668,-20.996,-30.762,-32.227,0.000
1680450930.676,-28.320,-17.090,-19.043,-28.809,0.000
1680450930.680,-33.203,-25.879,-16.113,-7.324,0.000
1680450930.683,-37.109,-23.438,-20.020,-9.766,0.000
1680450930.687,-37.598,-20.508,-22.461,-22.461,0.000
1680450930.691,-40.527,-20.020,-23.926,-35.156,0.000
1680450930.695,-33.203,-20.020,-26.855,-37.598,0.000
1680450930.699,-30.273,-26.855,-29.785,-16.602,0.000
1680450930.703,-26.367,-27.832,-16.113,-0.488,0.000
1680450930.707,-29.785,-23.926,-2.441,-11.719,0.000
1680450930.711,-32.227,-23.926,-12.207,-33.203,0.000
1680450930.715,-16.113,-32.227,-22.949,-26.367,0.000
1680450930.719,-16.602,-34.668,-19.531,-6.836,0.000
1680450930.722,-29.785,-29.785,-13.672,-5.859,0.000
1680450930.726,-27.832,-30.762,-16.602,-14.160,0.000
1680450930.730,-27.344,-37.109,-21.484,-32.715,0.000
1680450930.734,-29.785,-41.992,-21.973,-39.551,0.000
1680450930.738,-20.508,-34.180,-20.020,-6.348,0.000
1680450930.742,-23.438,-32.227,-23.438,5.859,0.000
1680450930.746,-24.414,-40.039,-28.809,-9.277,0.000
1680450930.750,-21.973,-40.039,-16.113,-26.855,0.000
1680450930.754,-32.227,-44.434,-7.812,-33.691,0.000
1680450930.758,-29.785,-41.504,-25.391,-11.719,0.000
1680450930.762,-22.461,-37.109,-23.438,11.719,0.000
1680450930.765,-25.879,-32.715,-11.719,0.000,0.000
1680450930.769,-29.785,-38.086,-21.973,-35.645,0.000
1680450930.773,-29.297,-44.434,-40.039,-40.039,0.000
1680450930.777,-30.273,-42.480,-37.109,-21.973,0.000
1680450930.781,-31.250,-42.480,-25.391,-6.836,0.000
1680450930.785,-35.156,-40.039,-18.555,-12.695,0.000
1680450930.789,-32.715,-41.504,-23.438,-34.180,0.000
1680450930.793,-24.414,-48.828,-27.832,-30.273,0.000
1680450930.797,-20.020,-49.316,-17.578,-10.742,0.000
1680450930.801,-23.438,-46.387,-17.578,-11.719,0.000
1680450930.804,-35.156,-48.340,-29.297,-24.414,0.000
1680450930.808,-37.109,-51.758,-31.738,-44.922,0.000
1680450930.812,-29.297,-55.664,-32.227,-52.734,0.000
1680450930.816,-32.715,-62.012,-28.809,-35.645,0.000
1680450930.820,-29.297,-59.082,-27.344,-14.648,0.000
1680450930.824,-20.508,-61.523,-24.902,-1.953,0.000
1680450930.828,-23.926,-65.430,-33.691,-27.832,0.000
1680450930.832,-30.762,-60.547,-44.922,-60.547,0.000
1680450930.836,-42.480,-62.012,-42.480,-55.664,0.000
1680450930.840,-45.410,-65.430,-33.203,-36.133,0.000
1680450930.844,-40.039,-62.988,-36.621,-28.809,0.000
1680450930.847,-38.574,-54.688,-41.016,-43.945,0.000
1680450930.851,-41.016,-62.500,-35.156,-52.734,0.000
1680450930.855,-34.668,-63.477,-28.320,-42.969,0.000
1680450930.859,-28.320,-53.223,-16.602,-21.484,0.000
1680450930.863,-27.344,-57.129,-19.043,-14.160,0.000
1680450930.867,-24.414,-60.547,-22.949,-28.809,0.000
1680450930.871,-27.344,-65.430,-22.949,-50.781,0.000
1680450930.875,-27.344,-64.453,-26.855,-42.969,0.000
1680450930.879,-22.461,-53.223,-24.414,-12.207,0.000
1680450930.883,-24.414,-52.734,-20.020,-4.883,0.000
1680450930.887,-23.438,-52.734,-10.742,-20.508,0.000
1680450930.890,-15.625,-51.270,-15.137,-37.109,0.000
1680450930.894,-12.695,-52.246,-29.297,-35.156,0.000
1680450930.898,-13.672,-56.152,-27.344,-10.254,0.000
1680450930.902,-22.949,-53.223,-27.832,-5.371,0.000
1680450930.906,-29.297,-49.316,-31.250,-23.438,0.000
1680450930.910,-18.555,-54.199,-30.273,-35.645,0.000
1680450930.914,-20.020,-57.129,-20.508,-30.762,0.000
1680450930.918,-27.344,-55.176,-22.461,-13.184,0.000
1680450930.922,-20.508,-56.641,-30.273,2.930,0.000
1680450930.926,-12.695,-53.223,-27.832,-7.324,0.000
1680450930.930,-15.137,-55.176,-12.207,-23.438,0.000
1680450930.933,-8.789,-55.176,-5.859,-25.391,0.000
1680450930.937,-12.207,-52.734,-22.949,-18.066,0.000
1680450930.941,-22.461,-57.129,-18.555,-0.488,0.000
1680450930.945,-26.367,-53.711,-18.555,-6.836,0.000
1680450930.949,-30.273,-52.246,-22.461,-26.855,0.000
1680450930.953,-31.250,-58.105,-25.879,-36.133,0.000
1680450930.957,-35.645,-52.734,-19.531,-26.367,0.000
1680450930.961,-35.156,-51.758,-12.695,1.465,0.000
1680450930.965,-27.344,-56.152,-21.484,4.395,0.000
1680450930.969,-28.809,-52.734,-26.367,-24.902,0.000
1680450930.972,-29.785,-48.340,-19.531,-33.203,0.000
1680450930.976,-35.156,-51.270,-16.113,-18.555,0.000
1680450930.980,-31.250,-50.293,-14.160,-0.488,0.000
1680450930.984,-31.250,-44.922,-15.137,-0.977,0.000
1680450930.988,-34.180,-44.922,-23.438,-16.602,0.000
1680450930.992,-26.367,-48.340,-26.855,-35.645,0.000
1680450930.996,-31.250,-54.688,-25.391,-38.086,0.000
1680450931.000,-42.480,-51.758,-27.344,-11.230,0.000
1680450931.004,-43.457,-42.480,-26.367,-5.859,0.000
1680450931.008,-41.016,-40.039,-25.391,-28.809,0.000
1680450931.012,-35.156,-41.992,-33.203,-45.898,0.000
1680450931.015,-34.180,-42.480,-33.691,-33.203,0.000
1680450931.019,-34.668,-37.598,-11.719,-9.277,0.000
1680450931.023,-34.180,-38.574,-2.930,-4.395,0.000
1680450931.027,-38.574,-37.598,-31.738,-21.484,0.000
1680450931.031,-39.551,-29.297,-29.297,-30.762,0.000
1680450931.035,-31.738,-26.367,-16.602,-26.367,0.000
1680450931.039,-24.414,-24.414,-15.137,-9.277,0.000
1680450931.043,-29.785,-21.484,-13.672,6.836,0.000
1680450931.047,-35.156,-18.555,-15.137,-7.324,0.000
1680450931.051,-33.691,-18.066,-25.879,-28.809,0.000
1680450931.055,-32.227,-20.996,-29.297,-23.438,0.000
1680450931.058,-31.738,-19.043,-16.602,-13.184,0.000
1680450931.062,-34.668,-15.625,-20.020,-8.301,0.000
1680450931.066,-28.320,-5.859,-24.902,-0.488,0.000
1680450931.070,-34.180,-6.836,-22.949,-25.391,0.000
1680450931.074,-33.691,-13.672,-24.902,-41.016,0.000
1680450931.078,-20.508,-10.254,-14.160,-12.695,0.000
1680450931.082,-24.414,-11.230,-3.418,1.465,0.000
1680450931.086,-26.855,-19.531,-12.207,-12.207,0.000
1680450931.090,-25.879,-28.320,-32.227,-39.062,0.000
1680450931.094,-27.832,-35.156,-40.527,-44.922,0.000
1680450931.097,-25.391,-37.109,-35.156,-25.879,0.000
1680450931.101,-25.879,-41.992,-30.762,-17.090,0.000
1680450931.105,-30.762,-46.875,-34.668,-23.926,0.000
1680450931.109,-22.461,-43.945,-34.180,-38.086,0.000
1680450931.113,-18.066,-38.086,-28.809,-40.527,0.000
1680450931.117,-26.367,-40.039,-38.086,-27.832,0.000
1680450931.121,-31.250,-36.621,-42.480,-5.859,0.000
1680450931.125,-22.949,-36.133,-13.672,-1.953,0.000
1680450931.129,-23.438,-41.992,-3.906,-37.598,0.000
1680450931.133,-29.785,-39.062,-21.973,-42.969,0.000
1680450931.137,-23.926,-38.086,-19.531,-20.508,0.000
1680450931.140,-18.555,-41.992,-13.184,2.441,0.000
1680450931.144,-20.996,-41.016,-15.137,-1.953,0.000
1680450931.148,-30.273,-49.316,-23.438,-33.203,0.000
1680450931.152,-26.367,-55.176,-29.297,-42.480,0.000
1680450931.156,-13.184,-53.711,-32.227,-28.809,0.000
1680450931.160,-18.066,-48.340,-24.902,-4.395,0.000
1680450931.164,-22.461,-46.875,-21.484,-3.418,0.000
1680450931.168,-29.297,-49.805,-30.273,-30.273,0.000
1680450931.172,-30.273,-49.316,-16.602,-49.316,0.000
1680450931.176,-17.090,-42.969,-19.531,-32.227,0.000
1680450931.180,-14.160,-41.016,-29.785,-3.418,0.000
1680450931.183,-13.184,-49.805,-24.414,-5.859,0.000
1680450931.187,-25.391,-57.129,-31.738,-31.250,0.000
1680450931.191,-24.414,-50.781,-37.109,-57.617,0.000
1680450931.195,-15.625,-39.551,-37.109,-42.480,0.000
1680450931.199,-19.043,-39.062,-29.297,-10.254,0.000
1680450931.203,-14.160,-37.598,-17.578,-7.324,0.000
1680450931.207,-14.160,-35.645,-21.973,-28.320,0.000
1680450931.211,-14.160,-38.574,-28.809,-55.176,0.000
1680450931.215,-19.531,-41.992,-21.484,-53.223,0.000
1680450931.219,-26.367,-51.758,-11.719,-28.320,0.000
1680450931.222,-30.762,-53.711,-18.555,-14.160,0.000
1680450931.226,-32.715,-46.875,-35.645,-26.855,0.000
1680450931.230,-36.133,-48.828,-44.434,-52.734,0.000
1680450931.234,-36.133,-51.270,-28.320,-53.223,0.000
1680450931.238,-30.762,-45.410,-20.020,-32.227,0.000
1680450931.242,-40.039,-44.434,-27.344,-24.414,0.000
1680450931.246,-48.828,-42.969,-23.926,-29.297,0.000
1680450931.250,-42.969,-42.480,-27.344,-51.758,0.000
1680450931.254,-37.109,-35.645,-29.785,-57.129,0.000
1680450931.258,-34.180,-35.156,-27.344,-31.250,0.000
1680450931.262,-40.527,-45.410,-18.066,-22.949,0.000
1680450931.265,-46.875,-46.387,-17.090,-37.109,0.000
1680450931.269,-33.203,-39.062,-28.809,-52.734,0.000
1680450931.273,-23.926,-42.969,-36.621,-49.805,0.000
1680450931.277,-33.691,-50.781,-36.621,-33.203,0.000
1680450931.281,-41.992,-50.293,-26.367,-16.113,0.000
1680450931.285,-40.039,-47.363,-26.367,-19.531,0.000
1680450931.289,-36.133,-43.945,-30.273,-41.016,0.000
1680450931.293,-41.992,-47.852,-40.039,-50.781,0.000
1680450931.297,-40.039,-48.340,-38.574,-33.691,0.000
1680450931.301,-32.715,-32.715,-27.832,-16.602,0.000
1680450931.305,-35.645,-34.668,-20.996,-26.855,0.000
1680450931.308,-36.621,-47.363,-28.320,-41.992,0.000
1680450931.312,-28.809,-42.480,-39.062,-40.039,0.000
1680450931.316,-20.508,-34.668,-37.109,-28.809,0.000
1680450931.320,-24.414,-37.598,-34.668,-15.625,0.000
1680450931.324,-34.180,-41.504,-24.414,-9.766,0.000
1680450931.328,-35.645,-41.992,-26.855,-27.344,0.000
1680450931.332,-31.250,-41.016,-35.156,-52.734,0.000
1680450931.336,-34.668,-42.969,-36.621,-39.551,0.000
1680450931.340,-42.969,-51.758,-37.109,-11.719,0.000
1680450931.344,-41.992,-50.781,-36.133,-16.602,0.000
1680450931.347,-31.250,-36.621,-36.621,-34.668,0.000
1680450931.351,-30.762,-43.945,-33.203,-49.316,0.000
1680450931.355,-34.668,-61.523,-42.480,-47.852,0.000
1680450931.359,-31.250,-50.781,-38.574,-17.578,0.000
1680450931.363,-30.762,-32.227,-28.320,-4.395,0.000
1680450931.367,-29.785,-39.551,-32.227,-31.738,0.000
1680450931.371,-30.273,-49.805,-34.668,-51.270,0.000
1680450931.375,-34.180,-45.898,-36.621,-38.086,0.000
1680450931.379,-41.992,-44.922,-27.344,-24.902,0.000
1680450931.383,-42.969,-46.875,-25.879,-10.742,0.000
1680450931.387,-41.016,-46.875,-30.762,-24.414,0.000
1680450931.390,-47.852,-44.434,-33.691,-55.664,0.000
1680450931.394,-36.133,-38.086,-20.020,-43.945,0.000
1680450931.398,-34.180,-42.480,-7.324,-25.879,0.000
1680450931.402,-48.340,-47.852,-19.531,-17.578,0.000
1680450931.406,-49.805,-41.992,-21.484,-27.344,0.000
1680450931.410,-46.875,-43.457,-29.297,-58.594,0.000
1680450931.414,-43.945,-47.363,-31.738,-56.641,0.000
1680450931.418,-39.551,-43.945,-28.320,-20.996,0.000
1680450931.422,-35.645,-37.598,-24.414,-7.812,0.000
1680450931.426,-38.086,-39.551,-19.531,-24.414,0.000
1680450931.430,-38.574,-46.875,-28.809,-44.922,0.000
1680450931.433,-36.133,-40.039,-31.250,-43.945,0.000
1680450931.437,-34.668,-30.762,-20.508,-19.043,0.000
1680450931.441,-36.621,-31.738,-8.789,-0.977,0.000
1680450931.445,-44.434,-43.457,-18.066,-8.301,0.000
1680450931.449,-43.457,-46.875,-29.785,-40.039,0.000
1680450931.453,-35.156,-40.527,-29.297,-50.781,0.000
1680450931.457,-30.762,-32.715,-25.879,-28.809,0.000
1680450931.461,-24.414,-31.738,-22.949,-7.324,0.000
1680450931.465,-29.297,-29.785,-26.367,-6.836,0.000
1680450931.469,-41.992,-33.203,-36.133,-31.250,0.000
1680450931.472,-30.273,-33.691,-27.832,-40.039,0.000
1680450931.476,-20.996,-27.832,-21.484,-25.879,0.000
1680450931.480,-29.297,-32.715,-24.414,-10.254,0.000
1680450931.484,-35.156,-34.180,-15.625,-8.789,0.000
1680450931.488,-32.227,-24.902,-13.184,-24.414,0.000
1680450931.492,-27.832,-39.551,-29.785,-40.039,0.000
1680450931.496,-29.297,-48.340,-31.738,-28.809,0.000
1680450931.500,-31.250,-40.039,-16.602,-15.137,0.000
1680450931.504,-40.527,-34.668,-13.672,-12.695,0.000
1680450931.508,-45.898,-30.762,-26.855,-38.086,0.000
1680450931.512,-38.574,-31.250,-36.621,-57.129,0.000
1680450931.515,-32.227,-34.668,-33.691,-41.992,0.000
1680450931.519,-32.227,-33.691,-36.621,-27.832,0.000
1680450931.523,-41.992,-33.203,-36.621,-28.320,0.000
1680450931.527,-51.270,-37.109,-37.598,-39.551,0.000
1680450931.531,-45.898,-32.227,-46.387,-55.176,0.000
1680450931.535,-33.203,-22.949,-34.668,-48.828,0.000
1680450931.539,-30.762,-26.855,-20.508,-25.391,0.000
1680450931.543,-34.180,-34.180,-19.531,-21.973,0.000
1680450931.547,-40.039,-38.086,-18.066,-28.320,0.000
1680450931.551,-45.410,-37.598,-26.855,-49.805,0.000
1680450931.555,-41.016,-41.992,-33.691,-52.734,0.000
1680450931.558,-41.992,-49.805,-28.320,-25.391,0.000
1680450931.562,-43.457,-45.898,-35.156,-11.719,0.000
1680450931.566,-36.621,-35.156,-31.250,-22.949,0.000
1680450931.570,-31.738,-37.109,-30.762,-45.410,0.000
1680450931.574,-27.832,-38.086,-34.180,-43.457,0.000
1680450931.578,-17.578,-35.156,-26.367,-12.207,0.000
1680450931.582,-14.160,-25.879,-34.180,1.953,0.000
1680450931.586,-25.391,-29.297,-42.969,-23.438,0.000
1680450931.590,-23.926,-39.062,-36.133,-42.480,0.000
1680450931.594,-12.695,-36.133,-29.785,-41.992,0.000
1680450931.597,-20.996,-32.715,-28.809,-26.855,0.000
1680450931.601,-30.762,-32.227,-22.949,-9.277,0.000
1680450931.605,-23.438,-33.203,-22.461,-12.207,0.000
1680450931.609,-40.039,-27.832,-25.879,-35.645,0.000
1680450931.613,-51.270,-28.320,-38.086,-39.551,0.000
1680450931.617,-33.691,-31.738,-36.133,-16.113,0.000
1680450931.621,-34.668,-29.297,-25.879,0.000,0.000
1680450931.625,-43.457,-37.109,-25.879,-14.160,0.000
1680450931.629,-48.340,-37.598,-28.320,-35.645,0.000
1680450931.633,-55.176,-30.273,-31.738,-45.898,0.000
1680450931.637,-46.875,-36.621,-32.227,-38.086,0.000
1680450931.640,-37.598,-36.133,-32.715,-12.207,0.000
1680450931.644,-44.434,-29.297,-30.762,-12.207,0.000
1680450931.648,-47.363,-23.438,-34.180,-31.250,0.000
1680450931.652,-42.480,-20.508,-40.039,-35.156,0.000
1680450931.656,-39.551,-21.484,-40.527,-35.645,0.000
1680450931.660,-27.832,-17.090,-27.832,-20.508,0.000
1680450931.664,-31.250,-11.719,-17.578,-11.719,0.000
1680450931.668,-49.805,-14.160,-21.973,-35.156,0.000
1680450931.672,-33.691,-22.949,-35.645,-48.828,0.000
1680450931.676,-21.484,-17.578,-41.992,-29.785,0.000
1680450931.680,-27.344,-10.254,-16.602,-7.324,0.000
1680450931.683,-34.668,-21.484,1.953,-1.465,0.000
1680450931.687,-32.715,-23.926,-16.113,-22.461,0.000
1680450931.691,-26.855,-11.230,-19.531,-36.621,0.000
1680450931.695,-31.738,-14.160,-24.902,-27.344,0.000
1680450931.699,-32.227,-17.578,-27.344,-11.230,0.000
1680450931.703,-37.598,-14.648,-24.414,-13.672,0.000
1680450931.707,-43.457,-14.160,-27.832,-28.809,0.000
1680450931.711,-38.574,-15.625,-29.785,-54.688,0.000
1680450931.715,-29.785,-16.113,-28.320,-48.828,0.000
1680450931.719,-31.738,-15.625,-25.391,-20.508,0.000
1680450931.722,-36.133,-11.719,-24.902,-12.207,0.000
1680450931.726,-37.598,-18.066,-25.391,-16.602,0.000
1680450931.730,-28.809,-22.461,-22.949,-26.367,0.000
1680450931.734,-24.902,-16.113,-27.344,-34.668,0.000
1680450931.738,-29.297,-15.137,-23.926,-22.949,0.000
1680450931.742,-28.809,-18.555,-18.066,-4.395,0.000
1680450931.746,-28.320,-26.367,-20.508,-13.672,0.000
1680450931.750,-28.809,-28.809,-34.180,-38.574,0.000
1680450931.754,-24.414,-25.391,-38.574,-37.109,0.000
1680450931.758,-23.926,-25.391,-27.832,-19.043,0.000
1680450931.762,-27.832,-22.949,-13.672,-5.859,0.000
1680450931.765,-30.273,-17.578,-13.184,-7.324,0.000
1680450931.769,-26.367,-22.461,-8.301,-29.297,0.000
1680450931.773,-20.508,-24.414,-7.812,-36.621,0.000
1680450931.777,-26.855,-25.879,-29.785,-27.344,0.000
1680450931.781,-31.250,-28.320,-24.902,-10.254,0.000
1680450931.785,-32.715,-32.715,-20.508,-13.672,0.000
1680450931.789,-29.785,-36.621,-25.879,-33.691,0.000
1680450931.793,-24.414,-39.551,-32.227,-41.992,0.000
1680450931.797,-26.367,-36.133,-30.762,-31.738,0.000
1680450931.801,-32.227,-30.273,-22.461,-15.137,0.000
1680450931.805,-23.438,-30.762,-20.996,-2.441,0.000
1680450931.808,-21.484,-33.203,-25.879,-19.531,0.000
1680450931.812,-26.855,-32.227,-27.344,-39.062,0.000
1680450931.816,-19.043,-25.391,-23.926,-20.996,0.000
1680450931.820,-22.949,-30.762,-27.344,-2.930,0.000
1680450931.824,-34.180,-38.574,-29.297,-9.277,0.000
1680450931.828,-38.574,-37.109,-28.809,-31.738,0.000
1680450931.832,-31.738,-38.086,-30.762,-47.363,0.000
1680450931.836,-28.809,-37.598,-30.273,-31.738,0.000
1680450931.840,-37.109,-34.180,-25.879,-7.324,0.000
1680450931.844,-35.156,-32.227,-23.926,-17.578,0.000
1680450931.848,-33.691,-33.203,-30.762,-46.387,0.000
1680450931.851,-41.504,-32.715,-39.062,-56.641,0.000
1680450931.855,-32.715,-30.273,-30.762,-38.574,0.000
1680450931.859,-25.879,-26.367,-20.996,-24.902,0.000
1680450931.863,-33.203,-19.043,-12.207,-15.625,0.000
1680450931.867,-32.715,-23.438,-14.648,-22.461,0.000
1680450931.871,-25.879,-28.809,-34.180,-36.133,0.000
1680450931.875,-14.160,-23.438,-30.273,-23.438,0.000
1680450931.879,-14.160,-21.484,-14.160,-1.465,0.000
1680450931.883,-15.137,-17.578,-20.508,7.812,0.000
1680450931.887,-22.949,-21.484,-29.785,-25.391,0.000
1680450931.890,-30.762,-27.832,-32.227,-59.082,0.000
1680450931.894,-28.320,-27.832,-35.156,-43.945,0.000
1680450931.898,-26.855,-28.320,-37.109,-25.879,0.000
1680450931.902,-24.414,-24.414,-30.273,-6.836,0.000
1680450931.906,-30.273,-26.367,-28.809,-12.207,0.000
1680450931.910,-35.156,-18.555,-37.598,-43.457,0.000
1680450931.914,-31.738,-18.555,-46.875,-44.434,0.000
1680450931.918,-27.344,-30.273,-46.875,-29.297,0.000
1680450931.922,-29.785,-32.227,-19.531,-17.090,0.000
1680450931.926,-28.809,-26.855,-12.207,-19.531,0.000
1680450931.930,-27.832,-25.391,-26.367,-34.668,0.000
1680450931.933,-26.367,-20.996,-25.391,-32.715,0.000
1680450931.937,-19.531,-18.066,-24.902,-19.043,0.000
1680450931.941,-22.949,-27.832,-24.414,-7.324,0.000
1680450931.945,-42.480,-32.715,-23.438,-17.090,0.000
1680450931.949,-45.410,-32.227,-21.973,-37.109,0.000
1680450931.953,-32.715,-29.785,-26.367,-34.668,0.000
1680450931.957,-26.855,-23.438,-26.367,-16.113,0.000
1680450931.961,-29.297,-20.020,-20.996,-0.488,0.000
1680450931.965,-30.273,-24.414,-20.996,-8.789,0.000
1680450931.969,-26.367,-29.785,-21.484,-29.297,0.000
1680450931.972,-21.973,-21.973,-29.785,-35.156,0.000
1680450931.976,-24.902,-17.578,-28.320,-20.508,0.000
1680450931.980,-30.762,-23.438,-23.438,-1.465,0.000
1680450931.984,-30.762,-21.973,-20.508,6.348,0.000
1680450931.988,-35.156,-31.250,-28.320,-23.438,0.000
1680450931.992,-35.645,-38.574,-41.992,-55.176,0.000
1680450931.996,-24.414,-32.715,-38.086,-36.133,0.000
1680450932.000,-24.414,-33.691,-32.227,-8.301,0.000
1680450932.004,-23.926,-29.297,-25.879,-4.395,0.000
1680450932.008,-21.484,-36.133,-25.391,-32.227,0.000
1680450932.012,-30.762,-46.387,-21.973,-56.152,0.000
1680450932.015,-34.668,-35.156,-21.973,-41.504,0.000
1680450932.019,-32.715,-26.855,-21.484,-16.113,0.000
1680450932.023,-31.250,-25.879,-19.043,-10.742,0.000
1680450932.027,-27.344,-25.879,-27.344,-23.438,0.000
1680450932.031,-30.273,-29.297,-31.738,-32.715,0.000
1680450932.035,-42.480,-33.203,-31.738,-41.016,0.000
1680450932.039,-33.691,-38.086,-28.809,-34.180,0.000
1680450932.043,-21.973,-36.133,-22.461,-16.602,0.000
1680450932.047,-28.809,-39.062,-24.902,-28.809,0.000
1680450932.051,-31.738,-38.086,-28.320,-54.199,0.000
1680450932.055,-29.297,-32.227,-24.902,-51.758,0.000
1680450932.058,-21.484,-37.598,-27.832,-34.180,0.000
1680450932.062,-28.809,-37.598,-26.367,-25.879,0.000
1680450932.066,-40.039,-31.738,-26.855,-33.691,0.000
1680450932.070,-40.039,-23.438,-33.691,-49.805,0.000
1680450932.074,-29.297,-15.625,-30.762,-38.574,0.000
1680450932.078,-26.855,-11.719,-31.738,-21.484,0.000
1680450932.082,-39.551,-13.184,-36.621,-21.484,0.000
1680450932.086,-39.062,-21.973,-32.227,-27.344,0.000
1680450932.090,-29.297,-24.902,-24.902,-34.668,0.000
1680450932.094,-21.973,-20.996,-27.344,-31.250,0.000
1680450932.098,-24.902,-18.066,-28.320,-14.160,0.000
1680450932.101,-32.715,-26.367,-25.391,0.488,0.000
1680450932.105,-39.551,-29.297,-27.832,-12.695,0.000
1680450932.109,-36.133,-29.297,-35.156,-31.250,0.000
1680450932.113,-29.785,-28.809,-33.203,-36.621,0.000
1680450932.117,-32.715,-19.531,-25.879,-25.391,0.000
1680450932.121,-32.227,-20.508,-14.648,-4.395,0.000
1680450932.125,-34.180,-20.996,-12.695,-9.277,0.000
1680450932.129,-32.715,-17.578,-28.320,-33.691,0.000
1680450932.133,-31.738,-23.438,-31.738,-46.875,0.000
1680450932.137,-33.203,-25.879,-28.320,-29.297,0.000
1680450932.140,-31.250,-29.785,-22.461,-10.742,0.000
1680450932.144,-41.992,-25.879,-18.066,-13.184,0.000
1680450932.148,-37.109,-24.414,-21.484,-29.785,0.000
1680450932.152,-28.809,-25.391,-26.855,-35.645,0.000
1680450932.156,-32.227,-28.809,-24.902,-26.367,0.000
1680450932.160,-32.227,-25.879,-28.809,-8.789,0.000
1680450932.164,-33.203,-20.996,-25.879,-9.277,0.000
1680450932.168,-41.992,-26.855,-20.020,-29.785,0.000
1680450932.172,-39.551,-26.367,-24.414,-38.086,0.000
1680450932.176,-35.156,-29.297,-18.555,-24.414,0.000
1680450932.180,-32.227,-31.250,-13.184,-5.371,0.000
1680450932.183,-41.016,-31.250,-16.602,-14.648,0.000
1680450932.187,-48.340,-30.273,-17.578,-33.691,0.000
1680450932.191,-44.922,-22.461,-20.996,-48.828,0.000
1680450932.195,-33.691,-18.066,-24.414,-44.434,0.000
1680450932.199,-31.250,-25.879,-21.484,-24.414,0.000
1680450932.203,-41.016,-29.785,-18.066,-17.090,0.000
1680450932.207,-44.434,-27.344,-8.301,-29.785,0.000
1680450932.211,-39.551,-27.344,-17.578,-46.875,0.000
1680450932.215,-35.645,-28.809,-31.738,-43.945,0.000
1680450932.219,-29.785,-27.344,-24.902,-20.020,0.000
1680450932.223,-34.180,-23.438,-21.973,-13.672,0.000
1680450932.226,-37.109,-20.508,-27.832,-26.855,0.000
1680450932.230,-37.109,-18.066,-28.320,-41.016,0.000
1680450932.234,-43.457,-23.926,-28.320,-41.504,0.000
1680450932.238,-41.504,-19.043,-23.926,-22.461,0.000
1680450932.242,-39.551,-18.066,-17.090,-7.812,0.000
1680450932.246,-45.410,-30.273,-27.344,-20.020,0.000
1680450932.250,-49.805,-30.273,-23.438,-41.504,0.000
1680450932.254,-39.551,-34.180,-16.602,-39.062,0.000
1680450932.258,-32.227,-35.156,-28.320,-13.184,0.000
1680450932.262,-37.598,-31.738,-29.297,-6.348,0.000
1680450932.265,-36.621,-28.809,-27.344,-19.043,0.000
1680450932.269,-28.320,-31.250,-26.367,-31.738,0.000
1680450932.273,-29.297,-35.645,-32.227,-39.551,0.000
1680450932.277,-33.203,-36.133,-33.203,-33.691,0.000
1680450932.281,-33.691,-32.715,-28.320,-19.531,0.000
1680450932.285,-34.668,-24.902,-20.020,-16.113,0.000
1680450932.289,-34.180,-29.297,-24.902,-32.715,0.000
1680450932.293,-27.832,-35.156,-33.203,-40.039,0.000
1680450932.297,-23.926,-35.156,-21.484,-29.297,0.000
1680450932.301,-24.902,-33.203,-15.625,-10.254,0.000
1680450932.305,-33.691,-30.273,-17.578,-6.836,0.000
1680450932.308,-31.250,-30.273,-24.902,-28.320,0.000
1680450932.312,-26.367,-33.203,-33.203,-41.016,0.000
1680450932.316,-20.020,-29.785,-22.949,-25.879,0.000
1680450932.320,-22.461,-24.902,-13.672,-9.766,0.000
1680450932.324,-30.762,-28.320,-14.160,-8.301,0.000
1680450932.328,-29.297,-30.273,-20.508,-24.902,0.000
1680450932.332,-24.414,-27.832,-20.020,-31.738,0.000
1680450932.336,-20.508,-28.320,-22.461,-18.066,0.000
1680450932.340,-19.043,-30.273,-14.160,-8.789,0.000
1680450932.344,-22.461,-30.273,-1.953,-2.441,0.000
1680450932.348,-21.484,-23.438,-19.531,-19.043,0.000
1680450932.351,-15.137,-26.855,-27.344,-36.133,0.000
1680450932.355,-11.230,-32.227,-20.996,-27.832,0.000
1680450932.359,-14.648,-24.902,-20.020,-11.719,0.000
1680450932.363,-26.855,-26.367,-17.578,-4.883,0.000
1680450932.367,-26.855,-37.598,-19.043,-22.461,0.000
1680450932.371,-17.578,-35.645,-19.043,-35.645,0.000
1680450932.375,-7.812,-30.762,-16.113,-27.344,0.000
1680450932.379,-11.230,-26.367,-17.090,-9.766,0.000
1680450932.383,-19.531,-32.227,-15.137,-3.418,0.000
1680450932.387,-23.438,-39.551,-13.672,-16.602,0.000
1680450932.390,-25.879,-37.109,-24.414,-35.156,0.000
1680450932.394,-20.996,-33.691,-36.133,-31.250,0.000
1680450932.398,-17.578,-28.809,-24.414,-8.301,0.000
1680450932.402,-19.531,-33.691,-16.113,6.836,0.000
1680450932.406,-25.391,-39.062,-25.879,-10.742,0.000
1680450932.410,-24.902,-31.250,-27.344,-36.621,0.000
1680450932.414,-21.484,-30.273,-28.809,-34.180,0.000
1680450932.418,-23.926,-36.621,-35.156,-15.137,0.000
1680450932.422,-20.020,-33.691,-26.367,1.465,0.000
1680450932.426,-21.484,-24.902,-20.996,-2.441,0.000
1680450932.430,-27.344,-29.297,-23.438,-26.855,0.000
1680450932.433,-21.484,-36.621,-15.625,-30.762,0.000
1680450932.437,-25.391,-32.715,-20.996,-9.277,0.000
1680450932.441,-30.273,-29.297,-26.367,2.930,0.000
1680450932.445,-26.367,-29.297,-27.344,-15.137,0.000
1680450932.449,-27.344,-32.227,-26.855,-37.598,0.000
1680450932.453,-30.762,-31.250,-26.855,-37.598,0.000
1680450932.457,-28.320,-29.785,-21.484,-27.344,0.000
1680450932.461,-22.949,-32.227,-15.137,-10.742,0.000
1680450932.465,-30.762,-35.156,-18.555,-12.695,0.000
1680450932.469,-30.273,-31.250,-30.273,-39.551,0.000
1680450932.473,-17.578,-23.926,-35.645,-49.316,0.000
1680450932.476,-28.809,-33.691,-27.344,-39.551,0.000
1680450932.480,-43.945,-41.992,-11.230,-21.973,0.000
1680450932.484,-38.086,-37.598,-9.277,-13.672,0.000
1680450932.488,-34.668,-28.320,-19.531,-31.250,0.000
1680450932.492,-30.762,-29.297,-29.297,-45.410,0.000
1680450932.496,-24.414,-32.715,-31.250,-30.762,0.000
1680450932.500,-28.809,-28.320,-21.973,-10.254,0.000
1680450932.504,-32.227,-22.949,-17.090,-11.230,0.000
1680450932.508,-29.785,-29.297,-22.461,-28.320,0.000
1680450932.512,-26.367,-36.133,-36.133,-41.992,0.000
1680450932.515,-21.484,-28.809,-44.922,-26.855,0.000
1680450932.519,-19.531,-16.602,-23.926,-5.859,0.000
1680450932.523,-23.926,-17.090,-2.930,7.812,0.000
1680450932.527,-27.832,-22.461,-15.625,-1.465,0.000
1680450932.531,-24.902,-20.996,-26.855,-34.180,0.000
1680450932.535,-14.160,-16.113,-26.855,-29.297,0.000
1680450932.539,-18.555,-17.090,-20.020,-9.277,0.000
1680450932.543,-27.344,-20.996,-18.555,-5.859,0.000
1680450932.547,-23.438,-10.742,-17.090,-17.578,0.000
1680450932.551,-23.926,-17.578,-22.461,-40.527,0.000
1680450932.555,-24.902,-31.738,-28.320,-46.875,0.000
1680450932.558,-20.020,-27.344,-22.949,-31.738,0.000
1680450932.562,-16.113,-20.996,-18.555,-21.973,0.000
1680450932.566,-20.996,-18.066,-19.043,-27.344,0.000
1680450932.570,-25.879,-24.902,-20.996,-41.504,0.000
1680450932.574,-20.020,-31.738,-23.926,-37.109,0.000
1680450932.578,-24.414,-28.809,-24.414,-14.160,0.000
1680450932.582,-34.180,-31.738,-9.277,-2.930,0.000
1680450932.586,-24.414,-30.762,-8.789,-14.648,0.000
1680450932.590,-28.320,-29.785,-24.414,-36.133,0.000
1680450932.594,-28.320,-30.273,-31.250,-40.527,0.000
1680450932.598,-16.602,-27.832,-30.762,-28.320,0.000
1680450932.601,-23.926,-32.227,-26.367,-12.207,0.000
1680450932.605,-37.598,-38.574,-29.785,-16.602,0.000
1680450932.609,-37.109,-40.527,-35.156,-41.016,0.000
1680450932.613,-22.461,-32.227,-31.250,-49.316,0.000
1680450932.617,-18.066,-25.879,-24.414,-31.738,0.000
1680450932.621,-23.438,-33.203,-24.414,-10.742,0.000
1680450932.625,-24.414,-35.645,-21.484,-11.230,0.000
1680450932.629,-28.809,-32.227,-17.090,-32.715,0.000
1680450932.633,-31.250,-26.855,-29.785,-39.551,0.000
1680450932.637,-27.344,-31.738,-32.227,-27.344,0.000
1680450932.641,-25.391,-29.297,-25.879,-9.766,0.000
1680450932.644,-28.809,-20.508,-20.508,-4.395,0.000
1680450932.648,-26.367,-24.902,-21.484,-17.578,0.000
1680450932.652,-21.484,-27.344,-27.832,-29.785,0.000
1680450932.656,-22.461,-24.902,-25.879,-21.484,0.000
1680450932.660,-27.832,-24.902,-22.949,-3.418,0.000
1680450932.664,-36.621,-28.320,-21.484,-5.859,0.000
1680450932.668,-41.504,-35.156,-27.344,-23.926,0.000
1680450932.672,-38.574,-37.598,-34.668,-39.551,0.000
1680450932.676,-29.785,-31.250,-27.832,-24.902,0.000
1680450932.680,-29.785,-32.227,-17.578,-1.953,0.000
1680450932.683,-34.180,-37.598,-16.113,-3.418,0.000
1680450932.687,-33.203,-39.551,-27.832,-14.160,0.000
1680450932.691,-36.621,-35.645,-33.691,-25.391,0.000
1680450932.695,-31.250,-28.809,-30.273,-23.926,0.000
1680450932.699,-21.973,-23.926,-23.926,-7.324,0.000
1680450932.703,-25.391,-24.414,-17.578,0.977,0.000
1680450932.707,-27.832,-23.438,-21.484,-20.020,0.000
1680450932.711,-27.344,-27.832,-30.762,-43.945,0.000
1680450932.715,-23.926,-35.645,-29.297,-37.109,0.000
1680450932.719,-20.508,-39.551,-20.020,-17.090,0.000
1680450932.723,-24.414,-36.133,-21.973,-4.395,0.000
1680450932.726,-30.273,-34.668,-24.414,-8.789,0.000
1680450932.730,-34.180,-38.086,-25.879,-32.227,0.000
1680450932.734,-27.344,-40.039,-27.832,-29.785,0.000
1680450932.738,-20.996,-37.109,-23.926,-11.230,0.000
1680450932.742,-28.320,-34.180,-24.414,-2.441,0.000
1680450932.746,-34.180,-39.551,-28.809,-6.348,0.000
1680450932.750,-32.227,-41.992,-28.809,-30.762,0.000
1680450932.754,-17.578,-34.668,-30.762,-33.203,0.000
1680450932.758,-18.555,-27.344,-26.855,-10.254,0.000
1680450932.762,-32.227,-33.691,-14.648,-1.953,0.000
1680450932.765,-33.691,-37.109,-16.113,-8.789,0.000
1680450932.769,-31.250,-28.809,-27.832,-25.879,0.000
1680450932.773,-22.461,-23.926,-28.320,-35.156,0.000
1680450932.777,-21.484,-25.391,-21.484,-21.973,0.000
1680450932.781,-31.250,-32.715,-21.973,-7.324,0.000
1680450932.785,-38.086,-33.203,-29.297,-13.184,0.000
1680450932.789,-31.738,-29.785,-31.738,-30.762,0.000
1680450932.793,-27.832,-28.809,-28.320,-36.133,0.000
1680450932.797,-28.320,-24.902,-31.250,-27.832,0.000
1680450932.801,-25.391,-20.020,-24.902,-5.371,0.000
1680450932.805,-26.855,-20.508,-7.324,-1.465,0.000
1680450932.808,-24.414,-26.855,-6.836,-21.484,0.000
1680450932.812,-28.809,-30.762,-22.949,-34.668,0.000
1680450932.816,-26.367,-27.832,-22.949,-25.879,0.000
1680450932.820,-19.043,-20.020,-12.207,-3.906,0.000
1680450932.824,-30.762,-15.137,-10.742,-1.465,0.000
1680450932.828,-39.551,-13.184,-19.043,-22.461,0.000
1680450932.832,-34.180,-16.113,-26.367,-47.852,0.000
1680450932.836,-26.367,-19.531,-29.785,-40.039,0.000
1680450932.840,-25.879,-20.020,-23.438,-11.719,0.000
1680450932.844,-27.344,-19.043,-29.297,-10.742,0.000
1680450932.848,-20.508,-9.277,-33.691,-24.902,0.000
1680450932.851,-22.461,-15.625,-14.160,-41.992,0.000
1680450932.855,-20.996,-23.438,-14.648,-37.109,0.000
1680450932.859,-17.578,-16.602,-24.414,-17.578,0.000
1680450932.863,-23.438,-16.113,-23.926,-11.719,0.000
1680450932.867,-34.180,-12.695,-22.461,-14.160,0.000
1680450932.871,-42.480,-18.066,-27.344,-32.715,0.000
1680450932.875,-34.180,-19.531,-32.715,-28.809,0.000
1680450932.879,-27.832,-9.766,-24.414,-1.953,0.000
1680450932.883,-35.156,-11.719,-19.531,6.348,0.000
1680450932.887,-33.691,-14.160,-23.438,-13.184,0.000
1680450932.890,-29.297,-15.137,-38.086,-46.387,0.000
1680450932.894,-24.902,-15.137,-35.156,-48.340,0.000
1680450932.898,-20.996,-18.066,-23.438,-20.996,0.000
1680450932.902,-21.484,-20.508,-31.738,-11.719,0.000
1680450932.906,-22.461,-18.066,-28.320,-26.367,0.000
1680450932.910,-21.973,-17.578,-21.973,-43.945,0.000
1680450932.914,-28.320,-20.996,-28.809,-47.363,0.000
1680450932.918,-23.926,-23.926,-34.180,-30.762,0.000
1680450932.922,-21.973,-19.043,-22.461,-10.254,0.000
1680450932.926,-32.227,-19.531,-19.531,-16.602,0.000
1680450932.930,-36.133,-29.785,-28.320,-46.387,0.000
1680450932.933,-27.832,-30.762,-27.832,-45.898,0.000
1680450932.937,-23.926,-21.484,-20.508,-26.367,0.000
1680450932.941,-31.738,-18.066,-13.672,-6.836,0.000
1680450932.945,-39.062,-20.996,-25.879,-11.719,0.000
1680450932.949,-37.598,-26.367,-35.156,-42.969,0.000
1680450932.953,-27.344,-29.297,-36.133,-57.617,0.000
1680450932.957,-26.855,-26.367,-31.738,-41.992,0.000
1680450932.961,-36.133,-26.367,-30.762,-15.137,0.000
