TP9,AF7,AF8,TP10
0.098204755439425,0.17974864757658535,0.02321519526470097,-0.08535822243755568
30.90616423086621,14.61303330746183,13.123121743809017,4.027520280099056
46.37101820900921,23.29635666454825,18.833697452471682,6.792416645209911
41.63494457624196,23.861523223636148,15.139464055573823,7.751169887203246
25.08019100079272,18.468946781248903,6.645582856123997,7.553257341674574
11.353303418957614,12.004812703033089,0.7786586379481734,7.3104359385963775
10.143852609533509,8.58411797178887,2.009860683597351,7.605042455593243
19.298710339505195,8.803988837564999,8.610369616588061,7.938805648305816
27.33766212581259,9.678724290267184,14.317026334157976,7.07712316834547
23.06851214386659,7.265372579325836,13.375360968954828,4.053589100712883
4.600603012537339,0.007129113028579976,4.905656792176335,-0.9167800407437773
-19.15615496281562,-9.727962611501853,-6.6722857645378175,-6.312172075171078
-35.24835213537029,-17.08757074010958,-15.146773029560775,-10.085028666423492
-36.0095026859056,-18.0864800618233,-16.95128958044362,-10.817121932078548
-23.748813617479097,-12.390474102105511,-13.143788972298456,-8.480003142697345
-7.837368867953299,-3.5455178481600136,-7.805772279039419,-4.353873714831904
2.6304297983359337,3.393975029129439,-4.576199574851838,-0.2498408947254243
4.526584479121934,5.04896028314773,-4.16194603086554,2.411480015103299
0.9415616407463309,1.542546437997651,-4.467181068335641,3.1379249806492826
-2.9126265015160677,-4.026298228365232,-2.771569462631793,2.3407597363431734
-3.98256015477099,-7.797757676745634,1.9710619880980453,0.9207171801477918
-2.5850988383602007,-7.466684554547766,8.324201619634321,-0.22972698400618496
-0.6272364690304661,-3.3615946183106344,13.314056239035441,-0.5857290229550642
0.6851178513899553,2.084958060730782,14.246852626758828,-0.1305443590051143
1.522621598933084,5.928782919240942,10.251156298668455,0.7192582596073834
2.474011345346052,6.403049695283573,2.8185598488898322,1.364728594646028
3.4649272792955634,3.8328236368793593,-4.817138614826328,1.3642842901091745
3.7701030018277897,0.3410685144654915,-9.182995750398698,0.7094618298754504
2.942367391099209,-1.4852481470111183,-8.325982900713319,-0.1299314303628176
1.5501452078201283,-0.23723372323952951,-2.9655177084316775,-0.4604694563048726
0.9092358374414027,3.3402241700748236,3.7072923962972233,0.18949749528278834
2.006686558061082,6.714749439230148,7.684166246190251,1.6889633250569651
4.541670454413949,7.174509147241738,6.428242028795797,3.2452396488327264
6.908692095662636,3.7406524701351875,0.4237761408311598,3.756915027990573
7.213797480448846,-1.8977716109067546,-7.057553310433732,2.420837521590867
4.630569198984471,-6.228698176635261,-11.912137796871084,-0.7399803423230041
0.11152103319758656,-6.20653031981683,-11.661120231939497,-4.7413918472329515
-4.113293986657373,-1.5316636840336297,-6.809973437898626,-7.997316185792313
-5.947884444167881,4.789687526343123,-0.2389496834120363,-9.002731093125075
-4.75686676037655,8.293901181921123,4.8783477879939925,-7.011625343926539
-1.6725850125625292,6.225621423200634,7.087378012988805,-2.412258058316336
1.2571763783054437,-0.29671722713999377,7.141687956551359,3.3428897089785994
2.3725669189983476,-6.94084680557201,6.731536819427354,8.2341106071354
1.2613449115345836,-9.361947906420909,6.650030754856564,10.457945629428378
-1.20579390793422,-6.519289608576449,6.055017037711756,9.23721812346394
-3.4498856551231762,-1.397001832732751,3.5025308747552306,5.2861379682404745
-3.9993773145768667,1.5458364907206352,-1.214669711411648,0.5840572527328546
-2.314199852378958,0.11564060537481326,-6.219824300217823,-2.5895881316977603
0.6619320979625103,-3.8329909223474763,-8.66523072969585,-2.915310436489376
2.73028114940134,-6.0722504658041405,-6.960379125702567,-0.8176831966668218
1.7683492759607153,-3.6609386196074007,-2.148279153245494,1.8014321391694665
-2.43807249955403,2.5559467704675582,2.8438152417543865,2.7651741242585097
-7.384898415928746,8.658959464214675,5.430902278075165,0.9598908160787414
-9.255004299403057,10.804692676274575,5.08694360315879,-3.089343596271514
-5.9161601296444415,8.04146446907155,3.107277388191996,-7.704927587974766
0.9109954702848491,2.5433140056721024,0.8749173281334824,-11.107229358870548
6.535856928299284,-2.5726399722247146,-1.5093783371507237,-12.215422607701287
6.9553059403163635,-5.655569674184995,-4.8436314582023545,-10.7714891241284
2.324333774734364,-7.077910707141242,-9.157426108436058,-7.022905829059901
-2.9234213113641156,-7.803237521373927,-12.618524029019477,-1.4945114858876039
-3.676885879552843,-7.68592070165393,-12.392599959837575,4.920748193087665
1.5223543866533096,-5.320729357139012,-6.934630506816469,10.834488238864816
9.184813496210937,0.3568263821388127,2.295450154515191,14.62881784775019
13.72968151066588,8.266843483073501,11.334005144119663,15.159238849318982
11.954316420932631,15.010869761208713,16.184222401573457,12.420616506835362
5.279227271915873,16.777451490411984,15.333112194683947,7.605106580441482
-1.9057665126060501,11.97819166909794,10.406495885868143,2.438010492870339
-5.987666232009096,2.581437852392181,4.645585713420014,-1.730810973182224
-6.589010333629384,-6.93158208836209,0.5857536432482165,-4.4279680474422465
-5.9143123192524785,-12.281699926536518,-1.28297457055692,-5.884826446885289
-6.095359498481715,-11.870553084938186,-2.1276287184981446,-6.493365414887585
-7.178518694647101,-7.367502674139656,-3.321143011981132,-6.421019244296055
-7.39046957886935,-2.1839930629061097,-5.222374977777664,-5.656043237412789
-5.079147309476689,0.8954511112713929,-7.023461715528839,-4.3064400991537415
-0.4089002307833939,1.2120162543206143,-7.546935520963397,-2.764738280230331
4.582347016473792,-0.001416025357008715,-6.228955628314825,-1.5297410063200554
7.418845632885594,-1.0612787319809742,-3.5527213085280915,-0.8338984132466041
6.870178754406398,-1.159381974238738,-0.7067889950652491,-0.4286250472027584
3.6726499735724825,-0.6130279630794422,1.2047664397861175,0.23275232118750924
-0.08281207530432974,-0.14702253392553338,1.8251953662145357,1.5003523277623743
-2.3678418668047634,-0.08279231645738765,1.6537719384149854,3.0909973104981736
-2.46524275155279,-0.1569966962958949,1.5730812632128477,4.099595081307035
-1.2438886113285477,0.0712536916771335,2.1493255646096032,3.559264629237827
-0.3204015832674259,0.7979436806721305,3.1870763343394124,1.2234077717059788
-0.748539841989851,1.9358434664589839,3.8320770193751352,-2.0104689613422546
-2.2248322835349597,3.3118394521888486,3.156130430773732,-4.450944628032659
-3.392162989917577,4.7149302790087,0.8568183242404465,-4.617603097136354
-2.9480375357108795,5.721425842680479,-2.374633444594254,-2.2482793485575336
-0.655789239648763,5.638268876848785,-5.09075560854353,1.4337004433377685
2.481646301464118,3.8645819436858457,-5.857954563579225,4.448890695049068
4.911532594026157,0.48168740845153785,-4.131602972000043,5.3179798237450076
5.512890198697603,-3.4920299778637065,-0.6642918728550793,3.9688005704882383
4.233080364236036,-6.538973365804929,2.8903835407858924,1.660633273416321
2.062765740280867,-7.515679813838203,4.975714994530581,0.007301484987914943
0.38707117372920435,-6.296304880561523,5.053419931041377,-0.1719223856927955
0.0321428260701465,-3.7140321265561114,3.7839234665183117,0.6579715315500603
0.5835081858995241,-0.9125018396778543,2.365288594269857,1.2442011791456533
0.605247850208101,1.3509680628052607,1.6007498984797817,0.6217642696821931
-1.1140881155639601,2.9602568725926433,1.4443728208599398,-1.0672881690542082
-4.126942538121008,4.163355707975367,1.2970090677871984,-2.653479756114758
-6.110439468260607,5.058300435644801,0.649921498585918,-2.874614311003122
-4.552898774107302,5.262560686436266,-0.5538752971739522,-1.4423986818679801
0.7323267097929155,4.0412537906805674,-2.0712336383999315,0.6230916939041476
6.555173456308601,0.8696061835604529,-3.689524304532926,1.7063876968050216
8.224343440205471,-3.906115357855092,-5.275765035872383,0.8311263291754933
3.286508254561539,-8.800488342941819,-6.499304843946684,-1.5638861912909479
-5.940994240720399,-11.651529576592402,-6.650511104625223,-3.94454458123074
-13.499622973153993,-10.696570522854195,-4.955500100079495,-4.843782701362757
-14.032902752157886,-5.658100234907922,-1.2703192643717358,-3.9168551611948743
-6.811032799353594,1.8875425835147122,3.437103159888142,-2.0467974361802277
3.7543372923560208,9.175037218223926,7.335533140192652,-0.4826714843429716
11.466908834476884,13.58124613580939,8.651588821779644,0.1903830416058783
12.736925084594931,13.817565613604977,6.661062628425742,0.36531313504669155
8.53640652066917,10.31862217425146,2.1080999950959507,0.8273863967972708
2.778346593288975,4.737691950942217,-3.15374151992277,1.9036933575981356
-1.0160184743839789,-0.9995205419416607,-7.01776757373377,3.1651142006111948
-1.8880965404404322,-5.490238024754515,-8.013784222387901,3.9066940072113905
-1.12422568250352,-8.154320201982236,-5.8751790061351965,3.8667376958091664
-0.43241633078219904,-9.051941268427138,-1.6029673703423084,3.446413796420433
-0.5199292085212354,-8.466681515231093,3.013364407525348,3.2273501411056333
-1.0482552667730938,-6.566180811515276,6.266615788783672,3.3033788182862285
-1.4659746173878838,-3.3853316656262393,7.376166691696744,3.1307991755364637
-1.6591055251805078,0.8277450576792312,6.768984572529939,2.0811085912976175
-1.9184879345466281,5.177490657576194,5.551207428218534,0.1674079974978986
-2.510464426136364,8.08943928290288,4.532957844287861,-1.7921654470499375
-3.355459980331478,7.994511106816255,3.5901316671144716,-2.8050270014887198
-4.016940588861184,4.444423645210727,1.9172496868123174,-2.6074511723718334
-3.906588723577796,-1.188138645799095,-1.0428000765858916,-2.0159895632491187
-2.5751476442727568,-6.183695043839307,-4.836634150553718,-2.336233349546701
-0.0016825060446412602,-8.030261530414334,-8.128289034573305,-4.242896258914772
3.259934464316505,-6.002588001995869,-9.64005837118875,-7.03344997345157
6.245146581979008,-1.550863692275025,-9.08171246251499,-8.910631954588675
8.037141872559424,2.8184372352941254,-7.244483044977541,-8.157399594539807
8.223388951672419,5.266689310672455,-5.187465369216158,-4.362910529338568
7.003393328509814,5.5940710090055585,-3.2616946619431957,1.2010703128607678
4.888265320136175,4.813069022051762,-0.8713968340384465,6.323179121849003
2.282073835205287,3.896926406477334,2.7678584021769757,9.16272439226895
-0.6949555391448718,2.9013903006067903,7.498227735742686,9.200178084086872
-4.019338647994716,1.1916072983672525,11.726537099365528,7.239149066147464
-7.388671705964769,-1.5570052201943976,13.136282289933709,4.612868197672925
-9.983525529785453,-4.606629541569804,10.221340357851895,2.284300946673202
-10.66505024061691,-6.432144212289113,3.5345859772348818,0.4701916683697075
-8.690485111332848,-5.881816004567194,-4.34937496109328,-1.0980735415330298
-4.596947169023899,-3.270368950396673,-10.232904698663983,-2.6505953651399246
-0.46349699310077325,-0.4076556576372097,-12.074500033927789,-4.046862591930632
1.1457111109203053,0.6465146221078951,-9.859317394922346,-4.8111252891093255
-0.7246057095579647,-0.7427215764376224,-5.03439673728559,-4.409791436416919
-3.868963284171021,-3.026931500477554,0.7995028713713547,-2.5687608281961
-3.744506630771766,-3.435083787208413,6.671766444696413,0.4826455445728043
3.1209174282369077,-0.14096600162257344,11.875481725100284,3.9070143614952086
15.447207338395007,5.9801667200226145,15.101408959858402,6.406236507977383
26.606763257865474,11.527802600651459,14.361429706434642,6.710715065965528
28.51001693028914,12.797388074428891,8.262303113376404,4.274931206070008
17.583090521973872,8.473692264569827,-2.2826428422611342,-0.23808838584833641
-1.8507983988693195,0.6984961991515388,-13.578527087576639,-5.112130403960659
-19.873216641457173,-6.38315584153848,-20.764620734494294,-8.404175190609106
-27.54349413831451,-9.485598638393402,-20.607274728286555,-8.94642088090061
-22.752864147579825,-8.222411238105959,-13.445346432265573,-6.852868048305354
-10.919121802231121,-4.83468441972722,-2.8569122824340614,-3.2350077574763945
-0.32334417181525255,-2.0665737369415176,6.601255832336185,0.5584801726256451
3.8934086888089414,-1.0895198410572542,11.838773079963286,3.5664159988606494
2.431476086931324,-1.1071374646895233,12.261777261915729,5.3505667860410355
-0.22772870786799304,-0.6600205921328791,9.151622411399972,5.797931933612969
-0.19761632202496826,0.7797314443360099,4.391381344459114,4.982241926737978
2.882652546174253,2.3597527001747007,-0.370125668527304,3.2408289989638726
6.239500748514302,2.7630518955340175,-3.873048656350168,1.2364772824585328
6.659900216564032,1.492907965709813,-5.221410301101966,-0.28689568024746526
3.082697187249953,-0.6221157075926509,-4.112572289179311,-0.9856691724309548
-2.602815339202188,-2.010699613886411,-1.150019209009242,-1.19005722555065
-6.688624872403167,-1.4304136508592906,2.2635354188827206,-1.6014183012705732
-5.842465976388236,1.26938073575276,4.612646891289566,-2.575291243966868
0.7368138313242472,5.045534081275293,5.082913565593729,-3.623794419924305
10.268895450168847,8.092637771452301,3.8652754945176158,-3.6687935470672492
17.308365984670374,8.562778896613764,1.7654368939765603,-1.9290044055941098
16.667295298868805,5.407758510572148,-0.4532755458638724,1.286663482353814
6.928010294846547,-0.8907313690683498,-2.404636432324097,4.592043727569742
-7.885815247514726,-8.141423754114555,-3.9133571098232927,6.392811431814849
-20.170448674693137,-13.205960375044572,-4.695545525785241,5.931982863365238
-23.364458234157834,-13.559643244636684,-4.347433851123352,3.6846323179620253
-16.222970001431147,-8.804097421759744,-2.7273663626711433,0.8360061649706145
-3.5670584931491427,-1.0767880839764956,-0.3508017149604364,-1.653493935830368
7.126458025676488,6.073507793530632,1.6753853079788474,-3.5857543401828513
10.771262892583344,9.708098951477762,2.282237477223525,-5.257780550827692
7.667127079704251,9.098367264535304,1.2240592033299726,-6.7245831955362485
2.483513185765175,5.851249803898556,-0.6037263961585972,-7.353132276454433
0.3436418152743207,2.5356208693960425,-1.6648052755933778,-6.169891829797292
3.062841453703452,0.8210836495553853,-0.8620461317438479,-2.7805899712945874
8.124087821433564,0.4551103344951123,1.5362030802602027,1.930727891398787
10.810326946365363,-0.20334301743628344,3.875181003297254,6.030894828170478
7.797894396222933,-2.4966252702541154,4.187851921002687,7.685394581449497
-0.27199428941010423,-5.926514690359227,1.7217576598695705,6.421931909759536
-8.981633563827623,-8.082058256085828,-2.223031103006153,3.5026684773471106
-13.08873138786012,-6.364854386902559,-4.9574134382061725,1.018157610511298
-10.38641867639828,-0.38666404607950233,-4.300538767913462,0.3279993573018847
-3.686271690186346,6.913411303905818,-0.3692661680091528,1.0633759805312382
0.9509602249560819,10.723035971897025,4.214588209192461,1.5291655917486966
-1.037979041116223,7.72822864144208,6.073200666483912,0.22676245467958167
-8.460172436945973,-1.0478056284326394,3.578749184573156,-2.7419509429627946
-14.376932787172931,-10.386509380442797,-1.8241542673595181,-5.590737296544359
-11.16393457968098,-14.295712687660489,-6.59623562622335,-6.214802733548324
2.9164965843656714,-10.289523779504268,-7.683894436863725,-3.905475017555303
21.06979648335466,-1.16585152187033,-4.689922873820858,0.012003652936240276
32.019796127069675,7.207682507438456,0.05629393102956292,3.1541967286029213
28.093781703444986,10.33661065807682,3.503219955278784,3.855923248992613
11.073600746137979,8.165054752833969,4.258036993996011,2.292268150225626
-8.913008559233855,4.382276301050195,3.412925952994294,0.09666898842920957
-20.616907341382472,2.827646095573435,3.243839721311937,-1.0840621150234937
-19.300424954838867,4.235978084993705,4.973692661427975,-0.8236506220737074
-9.030924855222349,6.029831809455057,7.500831488588599,0.027330535378282388
1.506193371597081,5.023602712885381,8.13629697909785,0.33786657752673055
5.717068993612312,0.40846919552419747,4.754798757256591,-0.24285027063445322
3.017906992997797,-5.584976391470153,-2.323874259938131,-1.0678362822063974
-2.3363432250521354,-9.653964303267644,-10.16413866855397,-1.1832636421949987
-5.535707490959443,-10.035012753655396,-14.913798721384321,-0.21428345314675135
-4.749315672523276,-7.51043028280018,-14.20900857419708,1.3270086247414261
-1.5527355740751587,-4.281714292316492,-8.663302644154506,2.485935696737424
1.194315642060526,-2.0614387883975764,-1.4626861505173672,2.5963824004476725
1.7680394155478443,-1.086254927764894,3.649953994903208,1.690252096297084
0.5071145372726833,-0.5618612063009985,4.670390923930621,0.34557742714311956
-0.9574990950808238,0.2892666955920304,2.4135998036500106,-0.7953934345155487
-1.1772893803481383,1.6486195598305387,-0.28781596207313836,-1.4250773395844085
0.08038667026260125,3.259375664553373,-0.6585086395126396,-1.6396157982487367
1.8172253943008516,4.787396448570858,2.1283896864290632,-1.7227934372550755
2.6685244360258236,5.863006918242114,6.51617938082956,-1.8645276998908002
1.9971274738417655,5.908261398422825,9.77963700646784,-2.015466076220975
0.4364854975549263,4.261971996568717,9.921195374543975,-1.9432430347821643
-0.5436390137694612,0.8017345951981376,6.889630989880527,-1.4177220012213354
0.22683629683867015,-3.4265747847914443,2.377232311575253,-0.38776373830814287
2.628502092745674,-6.340869535763021,-1.4754378950400753,0.9610462192750918
5.200564816043788,-5.9594136964332804,-3.438749079520876,2.290302746549916
6.119712726491216,-1.8613760798105736,-3.709991029795201,3.268484755799825
4.511797880452841,4.179514207674641,-3.4029645424298156,3.705652981659444
1.1404098546002077,9.044734584073646,-3.5487008874111567,3.591396518940413
-2.046946592202953,10.126963214928747,-4.3732690605224445,3.0265211975400774
-3.252025208332421,6.877424679155521,-5.289635150894709,2.099751509435683
-2.1522749814795805,0.940719556314408,-5.467977900703729,0.8022628257250202
-0.23508965516488356,-5.097542423639561,-4.46212513322782,-0.9267272093783725
0.2806664149744814,-9.247405299540578,-2.4280276354136086,-3.006536350325791
-1.6870677390122666,-10.77146029997581,0.10956955178981927,-5.004686870830518
-4.911792125218014,-9.782048924006622,2.584443112779874,-6.148750117659243
-6.665210739901357,-6.629640527489516,4.451579246258518,-5.707612477078148
-5.239201621956621,-1.9423174778314984,5.038821068334108,-3.574404620731252
-2.087486756988153,2.8433662142573906,3.6233326827321406,-0.5829758919452401
-1.2168720871972027,5.51323023749602,0.023014529180527522,1.8506300731881333
-5.590159030203832,4.348382405847654,-4.659144666862944,2.662665008327774
-13.347993523684643,-0.12841477788308864,-7.999406242884284,1.9716015982369346
-17.671332950615902,-4.714239713839813,-7.447630772256571,1.0439142201281102
-11.498780480269021,-5.424681631458523,-2.1808882231914306,1.27235293053407
6.119093442799944,-0.6327121492345065,5.829136602764567,2.9284760652290545
27.47779561676852,7.171202326505206,12.65506772845327,4.7756702995732345
40.42953840567251,12.83801501372321,14.81388551556123,4.99406045266935
36.73906354650569,12.3998209767304,11.500100346071001,2.7418726045449304
18.171852911694344,6.219648435761673,4.930628069328286,-0.9545258087116134
-4.603674683518893,-1.2545801637950216,-1.418966857309822,-3.809703374220024
-19.502642645148644,-5.027295063288153,-5.200933743293135,-3.9787705425771978
-21.041026214058476,-3.4610182595954755,-6.322912658033935,-1.4994412674251918
-12.901760202868754,0.68037612482521,-6.163906863814728,1.6940028633537823
-3.7556136465028214,2.8063861129555674,-5.901981366622134,3.205220606751581
-0.3242010075797573,0.39712823702758127,-5.570761450607997,1.9288376102266263
-3.1946442663076278,-5.0496375523567485,-4.537661243724188,-1.217980068062782
-7.922284981363876,-9.474924361069933,-2.65714635305794,-4.076551209659657
-9.543594465067072,-9.677645411139617,-0.7917649554744902,-4.86473119306957
-6.476790170197223,-5.782666341915467,-0.14983935649739485,-3.3940211233166684
-1.0993061247809959,-0.8675204717809871,-1.1138418574697146,-1.0478903906581774
2.710080862343995,1.7092133383694261,-2.720799988134172,0.35630393181085773
2.6991848013053454,0.9809083885884158,-3.313478286955483,-0.07199801980563593
-0.26886798995410105,-1.042144072507253,-1.8049493281869167,-1.68330368169165
-3.1190742342803586,-1.1922346647450677,1.5007333616864018,-2.807400143333689
-2.940414455548906,2.1521077730112967,5.144016321406741,-1.9982184228090683
0.8928913293362257,7.565994174649131,7.523648395702649,0.8764982940792677
6.272518458734059,11.399305263090591,7.866501485715171,4.455265235867687
9.854467644545716,10.334014817327652,6.4983853971467544,6.743000294784689
9.453094742895503,3.8655690218388346,4.374278598821586,6.431049351827749
5.611162950641415,-5.049380781280205,2.3413108664179405,3.7736564783074167
1.1731108926263587,-11.675954098531369,0.6810359638557567,0.41188576845320335
-0.8390351992401038,-12.419121632828848,-0.8348519544643862,-1.738223101793252
0.5537297314819659,-7.04279231337619,-2.5322424937232744,-1.75850391864986
3.646456642359169,1.2647408060750542,-4.415710395561274,-0.26878904276850424
5.437236090328124,7.979641143550416,-6.020153945613719,1.138738921218262
3.946353807487835,10.058309627812836,-6.597148891308638,1.1423658542995778
-0.29323935746265534,7.60773233165606,-5.517942781470811,-0.3227155411598939
-4.67638364095044,3.353203669316971,-2.6986478285097406,-2.087902674511032
-6.5588689506047775,0.36839214864617553,1.1535832945877755,-2.771621435992418
-5.349317245159447,-0.2507989360446255,4.652009117377834,-1.9848500742698512
-3.0022742640821294,-0.022689271011567327,6.278939309263939,-0.7134540595291656
-2.374025584328424,-1.4994584565346412,5.2074202982320745,-0.4954288731779728
-4.611056977631956,-5.674693631509206,1.929980995745688,-2.0214002609858976
-7.781510201798466,-10.54169023737131,-1.8447942136286046,-4.352148269779757
-8.257017224220588,-12.24170911106648,-4.1719177464958195,-5.51613357753491
-4.0764973135692175,-8.169059800542401,-4.164902558917201,-4.092095369323323
2.5741946317234206,0.43385073897732934,-2.614261501428891,-0.4644196348001977
6.434419000749428,8.770349127457933,-1.3084367107941075,3.3748183681322113
3.570893092742275,11.814021782088098,-1.474322014278869,5.380776549383439
-4.441750915753158,8.146271000803864,-2.6114409980269677,5.053816273534808
-10.65089565700612,1.0843330230752535,-2.8112924116117757,3.6790054493027795
-7.909886129171484,-4.0081372732786535,-0.43686346343888244,2.995492072462829
4.777943705975064,-4.0647676104388735,4.206883619963694,3.510022383356311
20.30118816873427,-0.6161148950864851,8.70135517534956,4.01657083672422
28.131403500547105,1.947641286512242,10.12851096089269,2.7960309251273605
22.26541430515269,0.5949457720965667,7.242104976559737,-0.582162668717055
5.98916303942083,-3.4362041396435132,1.4688320136626913,-4.526313201046966
-10.50267449336756,-5.679470882399818,-4.0372155542091415,-6.5016283284182075
-17.68479724664109,-2.5418120505157975,-6.513272081770237,-5.05736106768911
-13.337105618082049,5.180557029171601,-5.278090017058195,-1.0892192989600578
-3.1894497957248666,12.51619756320654,-1.8832820866406363,2.7258446323430583
4.303152879089855,14.127225190575022,1.1427141293622787,3.8522717160450415
4.349004154066233,8.474857987929292,1.9186037559567857,1.641681347567362
-1.580466802685411,-1.1091782924221447,0.1767821635647077,-2.3745903509798434
-8.160565686208352,-9.157168322623388,-2.8010299951462114,-5.687077039464171
-10.807924353581853,-12.140099364660747,-5.027530421461466,-6.449950205177084
-8.60270897058935,-10.531997758873977,-4.931359398345954,-4.396832568970172
-3.864455293916782,-7.483424684095853,-2.2566418670919735,-0.6334873679381887
0.37500654298552827,-5.639097652030243,1.697396175278775,3.231756974221118
2.580173728401491,-4.97256585062355,4.741597826250703,5.892268781927896
3.151900518422263,-3.3272507198450105,5.136879256008655,6.70167677695607
3.366412454099444,1.0998671364965824,2.8084648043200824,5.676131991963869
4.037387632036834,7.657367021466643,-0.49831889053759504,3.380320677076757
4.923751689801707,13.32905507351057,-2.407146273796322,0.7637982161838649
5.110023658311114,14.864306785752815,-1.6733521051647107,-1.1565405111582334
3.8933056010425546,11.14033794498863,0.8307087168134893,-1.7827267766678703
1.46321764549037,3.8998616204971275,2.7548900175312805,-1.3379201503479088
-1.1174759915275985,-3.5535152693827685,2.114911209030102,-0.8080882621860727
-2.5974567356854643,-8.505267474290847,-1.0775720110129978,-1.2913046455233577
-2.3582979450902575,-10.153412926255688,-4.692639580733118,-3.1090630255112184
-0.760281218849277,-9.341787438335132,-5.993536398948001,-5.351413627907309
1.1875207607821423,-7.308845397670913,-3.6344979375887827,-6.328122947825534
2.4925505018732266,-4.695120683633984,1.3674417426420142,-4.738780404784607
2.664368151923888,-1.5414424343581037,6.381182916062878,-0.7460460659192545
1.7923242254566096,2.019508818222039,8.98565881209642,3.9072391491092118
0.3527389719106388,5.239126295988823,8.42756890693295,6.929650011607729
-1.047024625602764,6.949532344126681,5.649888844594967,6.9608406542675105
-1.9329402448479263,6.303002899231155,2.0676503373829362,4.413611810925623
-2.216388118819141,3.4467978939755084,-1.6755435856422887,1.0687884479455076
-2.2568645940305148,-0.33435504266546323,-5.79056560500996,-1.2206628602691527
-2.540564319427261,-3.0812274809957785,-10.238936265836688,-1.7025809616094898
-3.1272382960434983,-3.039601851835022,-13.64734152820823,-0.943837695083973
-3.405089123125789,0.3417468112898664,-13.58100360095355,-0.08525063014353809
-2.553822697998677,5.740311853072754,-8.322348073625342,0.13640157935243194
-0.4127711423291938,10.184553088127254,1.2056722463466798,-0.1928535123554778
2.1003856894514303,10.463448291236107,11.149531308054463,-0.5158730771945507
3.563872301003693,5.183010660074629,16.68113934273736,-0.4775586348443263
3.1873928801283387,-3.890268100842176,14.989951952062453,-0.28075900701448697
1.4490563854251097,-12.462100008671571,7.166848318034042,-0.4499841936780227
-0.38260380041848335,-16.27212052378147,-2.412507500839497,-1.2686156769749684
-1.3609774010933853,-13.910526524698698,-8.78074750373248,-2.413702478009062
-1.5224452984785017,-7.731522201345178,-9.290352546516466,-3.1173311556756325
-1.5174040795700383,-2.016749255513919,-4.866879732983357,-2.733431472126728
-1.687036057489389,0.27998291987265134,1.0121380210314572,-1.2534721149147134
-1.5682850938280326,-0.34890844603909044,4.715306277259913,0.6492924986615342
-0.31803998385410437,-0.6921035767522133,4.598360777905484,2.0923139913223516
2.3619287502184303,2.1933363546379567,1.6335772771126462,2.599823567374058
5.653318672417408,8.186071655915304,-1.6404839007243908,2.3690888622943156
7.9165630513187875,13.83214214641975,-2.97553837147765,1.9854141976089952
7.670651638102163,14.913023695997623,-1.8168206467076864,1.8553173556006384
4.599343108504131,9.847737146052312,0.5749974987074503,1.8685557024244572
-0.08751564420426383,1.1974809540746212,2.2002859132163683,1.585179383877257
-4.236592319203729,-5.998130598141988,1.7475060743057258,0.7563366855803676
-6.005078617825876,-7.818017562852876,-0.5965360316972113,-0.3273900369842954
-5.011823050968429,-4.206915383575822,-3.3808553313482723,-1.0121088122577668
-2.5523995815673266,1.2365262617013735,-4.864262410683183,-0.8484282037466039
-0.6408087213650997,4.175566115426756,-4.040422535270098,-0.04976323893139902
-0.5580221350839184,2.772906187122175,-1.158081950106994,0.5785438658995616
-2.041424753976459,-1.2796312202995852,2.428441152857451,0.2108971362822486
-3.728848530374867,-4.561159164969262,4.930859988536396,-1.3672613406781005
-4.378749781642363,-4.866455591317015,5.0256768093806405,-3.5462294127473513
-3.7532877449308337,-2.8382738722395042,2.596175166864871,-5.239277280159984
-2.483929545342221,-1.1230476359735355,-1.1014638274924504,-5.524746310533163
-1.2612603179515314,-1.987590282762906,-4.070981068883494,-4.145376295948405
-0.2439529312983077,-5.430267237052797,-4.736649718004516,-1.5748475039904521
0.8249663916571716,-9.160571282159472,-2.8851697274475137,1.3232468982586592
2.1158335313818344,-10.222478918698096,0.31489255626900836,3.7683904474756633
3.454252947210479,-6.926587182161528,3.2380843636880963,5.357204011669228
4.518091970158913,0.15534079668050102,4.905028527063343,6.042567372341536
5.153348802990563,8.511885605299458,5.352330660651272,5.907830632114571
5.426028548598868,14.922423271403247,5.054292028486198,4.98102776263377
5.421374570550311,16.91744808231968,4.084643575448828,3.258173496263245
5.0845707255455865,13.868822375010843,1.9381262869396012,0.8875013423183437
4.267946429416348,7.269541267857218,-1.7517349717028228,-1.6971803372826375
2.8709709037944657,0.009737344056459195,-6.303367981295091,-3.8643311050954594
0.9135696347684,-5.090294122053244,-9.870749537135028,-5.058184795218014
-1.4460712618431435,-6.723143769790721,-10.437648679645166,-5.053372783504742
-3.869214524332164,-5.623445907644649,-7.236707421400097,-4.01446482028123
-5.831704524651946,-3.8153123122780754,-1.4732989558343121,-2.3649816285288474
-6.806187544320134,-3.0866718427248414,4.259443660049127,-0.6076431345595218
-6.5918524003172445,-3.760456380191652,7.490438411979841,0.7971166196423498
-5.490242447782192,-4.6162456637472005,7.253002291939808,1.517255275971287
-4.087810981849571,-3.9766868304328367,4.437541406911542,1.466670597532584
-2.8099113778875755,-1.1409608257139527,0.9968181607807591,0.9156887884480315
-1.6898787662547807,2.884042302619037,-1.3295727623988975,0.4398469891058927
-0.5709551278398631,5.898533623816621,-1.882801720683769,0.6083765347467227
0.5375982893692501,5.938234284023006,-1.0866896528100434,1.5460905379659473
1.393723901274068,2.6363259138102673,0.18797351782257027,2.699535512301047
1.808035075689219,-2.4330511346514565,1.274677157860285,3.0741899830297723
1.8904095172059383,-6.678838955395856,1.915953600186606,1.8785627004069143
1.9185989863177138,-8.042341125290484,2.0561676816965866,-0.838309016269938
1.9916847129109523,-6.108937107676387,1.6086059227282774,-4.0376300778103635
1.9411728856589967,-2.0934569260790417,0.4924344702218057,-6.204963532670699
1.6689791260298235,2.1307753459459993,-1.143034542222775,-6.226814721455688
1.514427742396389,5.1506825980198325,-2.8267750911087948,-4.042158167070354
2.1301984019661195,6.535328574899286,-3.9768906204060968,-0.6214819807370532
3.862319837879531,6.622314762712871,-4.234357506686385,2.6894796954776345
6.208170821127867,5.977761737594826,-3.5964521799310982,4.9590374563989394
7.910212701154397,4.998442014562127,-2.252920147379033,6.01720495427656
7.6564530477418105,3.8074722510792234,-0.3639657932968333,6.176895507453457
4.843348187626479,2.3245333938121,1.9252959320668441,5.674472119295007
-0.09786783750113284,0.3929622616913241,4.240265971766189,4.387645320251243
-5.878559859273386,-2.0414052327675734,5.833691243673253,2.0914043526736963
-10.803439990369126,-4.726675899299941,5.845920048600096,-1.0243945533912149
-13.310624165414486,-7.035547479886863,3.8792265182331147,-4.128506337703758
-12.542027105902747,-8.186530587040206,0.42891821298058924,-6.114728761938365
-8.806578315340829,-7.676130649274891,-3.2452155324338885,-6.312070104042419
-3.626665376254163,-5.600748094842134,-5.779362127302577,-4.949836636396387
0.8692973498744044,-2.5976066128024584,-6.418584266888593,-2.975491708284504
3.0373190422633143,0.5336954772237245,-5.2574752757950725,-1.3654345630838087
2.6876834244371066,3.191164342574838,-2.897021059681233,-0.48425904176782947
1.261780594359533,5.041632615431443,0.08407120904864314,0.011628186831857113
0.94274259894021,5.858200159573244,3.305283072604701,0.6903190619864877
3.085593905197912,5.409213115523898,6.259069295576275,1.7123115409800054
6.92670461472225,3.594845655567338,7.929889111136177,2.5918536168323523
9.642869082353101,0.7396682232536449,7.0170641154702285,2.578587907736042
8.170974540028308,-2.2432047320779733,2.9297455413787117,1.3859900568561274
1.8782031058445203,-4.045934615515467,-3.1504839976988994,-0.3294418008882849
-5.96073986232784,-3.524997611709391,-8.274442960686438,-1.2223930075402587
-9.647861807349758,-0.3996982668895068,-9.308698542465093,-0.20578936127153205
-5.188108542654035,4.285722749225168,-5.233647602736901,2.5498680903369433
5.823140261745011,8.316365027586672,1.6633577261502694,5.400720061668268
16.07862911522954,9.227264482315146,6.991923503613784,6.159463485810615
17.22908257241406,5.6728920469773945,7.293434279408071,3.644663214946091
6.313802037085144,-1.527694228908036,2.6423455599353556,-1.2905772764776609
-11.172388282527372,-9.466704276066361,-3.3731571638432922,-6.135777156839206
-24.533551566244864,-14.527639524038106,-6.442100616428697,-8.347968552829935
-25.374524960206138,-14.339650089049153,-4.882959696193483,-7.041433742063489
-13.610826598517107,-9.075577259297287,-0.7710720119510129,-3.448740383592049
2.723410293390843,-1.249478219189369,2.0951844460258675,0.17130958004874713
13.59076774907414,5.801733649650767,1.594933482397022,2.242174708646838
14.026867422524095,9.698539594246867,-0.9335045413074531,2.7929001343320863
6.786489969259222,9.95772731955772,-2.0697344483792324,2.93421777445075
-0.8950627168842351,7.709340198660168,0.4222759778576742,3.5056477107480655
-3.2041740325416974,4.652196737240022,5.369713181070842,4.1882881568083405
0.43066656526300695,2.0433575798170485,8.986758416646646,3.8694115690786974
5.962466273902917,0.2574668214513493,7.995250453670343,1.8547743866327382
8.449687020125053,-1.0280268982232312,2.3778678941384577,-1.245909423978213
5.653242379269754,-2.2939005525897405,-4.5369767381769925,-3.8089459869323514
-0.8351429320993572,-3.6572858844908884,-8.635771352420662,-4.430557053320279
-7.085493868930187,-4.6956634050169335,-8.040755100640258,-3.0369423894735035
-9.528448638360944,-4.7708242545181,-4.200368670561032,-0.9319303324495117
-7.172390511218826,-3.6624948882508863,-0.401044639997343,0.23343022738071798
-2.1765461229424323,-1.9746751426985134,0.8769498850157904,-0.29272904432366004
1.5735717727637655,-0.8108506070480341,-0.37130096980426697,-1.8729225778064489
1.211847919334105,-0.8046794562307437,-2.0853757207772667,-3.0496362684745097
-2.751901322703136,-1.3207039725312566,-2.0194192695038025,-2.64853341665721
-6.374192026578122,-0.7317080339924806,0.5077117192606166,-0.5633724930410356
-5.068513365605172,2.180186781392697,4.239550368617662,2.2778355930093093
2.520167675759683,6.7984693262748594,7.032816711504417,4.603866897466806
12.657208030352011,10.607293142681423,7.355660259333422,5.556074798098946
18.584066443916754,10.822693820509896,5.121442951767851,4.997345296945195
15.315285293362082,6.5172003867972625,1.4367573708888262,3.307619510827198
3.5497802567553616,-0.5370610169952654,-2.292222131850862,1.004376634427437
-10.424048162585514,-7.049596603134711,-5.0895716873673935,-1.4309848757033006
-18.828101309023605,-10.422986573859793,-6.514426868734161,-3.453281828081914
-17.41043318579034,-10.178099151113967,-6.34699753641189,-4.3647591582186145
-7.804549932367894,-7.617135843401962,-4.429048109886645,-3.5573887584227277
4.054322180059606,-4.37893999712678,-0.9677598908290433,-1.053358129336056
11.856730072229444,-1.358457658180618,3.0189602925774253,2.1172977570569005
12.403521496792111,1.2325210726381508,5.7854652315104635,4.215641700422954
6.7996094153311235,3.2139700758739242,5.769438556438277,3.7982262909119537
-0.7612572465819856,4.241799575884932,2.7958596793162225,0.7855019006936296
-5.609370402613254,4.318856353657071,-1.4680076031466942,-3.280862828520498
-5.292824277049553,4.195316043371202,-4.42029676988803,-6.139769748811163
-1.0594291708920593,4.821951867420238,-4.285284839963862,-6.2866420610991565
2.883287968080667,6.158523678378011,-1.3797465118941792,-3.903336780398989
2.323780628749381,6.650448596391113,2.1739844841977836,-0.5211354331452229
-3.4678932069166013,4.294623361319095,4.0843328163213295,2.253420471146801
-10.450041455793574,-1.37112615563529,3.529654445777431,3.8349658555724644
-12.346884170154198,-8.201950002945763,1.4780166264369665,4.669713177859406
-5.640127187680985,-12.574106291402655,-0.44936102777577425,5.280508319805949
6.874263799702023,-12.017195105787577,-1.4429458865889333,5.3718741714275975
17.292068494345408,-7.152608941535547,-1.9713438702816357,3.9491063639667128
18.198099974230992,-1.200565914232889,-2.9289726144230337,0.41291722181054363
8.43335632460856,2.5862531163039675,-4.384796638407531,-4.3976287651151384
-5.689973278168173,3.3777766535482994,-5.186676835717208,-8.291812910770757
-14.903069749136037,3.0402689084024033,-3.8497204006704777,-9.062504663185534
-13.744542271542542,4.091572706127282,0.02652560838015681,-6.073819537267477
-4.302775455274345,7.193753853636766,5.047022149412104,-0.8249255149506832
5.801848590198432,10.35673468650943,8.666444847679445,3.990607882288852
9.342924236155104,10.492334624078328,8.76214804261643,6.228690854499906
4.646121650007944,5.985493510695182,5.031139970675442,5.5515609661263445
-3.714220005589248,-1.811440552749597,-0.7196064668378112,3.342706652471358
-8.772486764855497,-9.30881251219836,-5.553009181942111,1.4701367933735752
-6.441715733416637,-13.02913934202645,-7.043674178352123,0.9024496752958316
1.6106732502187733,-11.80739143729289,-4.630476027305351,1.191446385335226
9.346437493627187,-7.280753164143201,0.08894972784182677,1.1136472697707895
10.906910852034725,-2.4138583807912077,4.3149878764269785,-0.11333964641599457
5.12727847197584,0.7650279088150849,5.729061944144792,-2.031110177495998
-3.264762089795933,2.4797648916712993,3.8779582995235518,-3.2191846890999383
-6.946189355146877,4.54665748992726,0.32797441540398736,-2.480006192386744
-1.7680912281123475,8.244740032454551,-2.5650593036045195,-0.009938767031888696
9.249369018957251,12.482117629046959,-3.405858715478572,2.4473490605214967
17.21785869739897,13.968930897294648,-2.695087774313688,2.743847147976349
13.735084412009998,9.594265383691253,-2.1857588575711415,-0.0022798511649731526
-2.1927658987717207,-0.6927391556709273,-3.1661558586942378,-4.514398392039601
-22.259499081441387,-12.892901445449931,-5.121409835280501,-8.051544906257229
-34.08661748755017,-20.982219096647718,-5.987897099009461,-8.269486269671187
-29.97635513128546,-20.71018881875736,-3.9007337579511834,-4.85461538837662
-12.475795319851905,-12.397710669293318,0.9833192864399075,0.3282755043524548
7.6243855862866,-0.6240308666149221,6.181050571472494,4.64835760511009
19.20009151444587,8.916392175685738,8.510607639339286,6.510053372056104
18.31209722245395,12.95297170469219,6.4738210536939205,6.134624701167593
9.69186393535795,11.99954408971818,1.5250128379256203,4.864331082832224
1.7637886442488417,8.870855757317509,-2.8396704659402854,3.794235134035451
-0.11540405960477315,5.956996021213429,-3.5643942312931594,2.9889303716217355
3.2410521356629634,3.599654024215213,-0.24663317650525482,1.847369738998933
7.103037107005528,0.6744988315648175,4.591977453133902,0.06401406180405814
7.581427027973219,-3.5004577470902607,7.403933989857992,-1.844832360632335
4.582975137977315,-7.824643262113344,6.269781356474322,-2.94295827241456
0.9739779873983996,-9.868332958236515,2.290961768177874,-2.745662503362515
-0.5503540522722792,-7.734011023319082,-1.3779115687664962,-1.6755394024219459
0.16393436085954513,-1.7752377169156741,-2.1528722658846267,-0.6763716769696191
0.9428177218393016,5.239352027649835,-0.2449263651770146,-0.3900864109945803
-0.5197629192023138,9.718890871243813,1.3750493667172095,-0.6850965498562996
-4.5381506173032715,9.492510152711228,-0.5877396664082972,-0.9359428952214608
-9.051810634323852,5.122947670144818,-6.757523851204251,-0.7228866397324774
-11.126529430712562,-0.6214893065355351,-14.008530443839103,-0.25407256357651714
-9.11217796431696,-4.730010296715689,-17.392010444951918,-0.11950953061715863
-3.871551845082981,-5.902866486042315,-13.750578295852575,-0.6341842491450048
1.7714789654223615,-5.072708526704944,-4.22395407887496,-1.4085571761845912
4.943258968429874,-4.18807947123332,6.378920382975686,-1.5747114381689062
4.60592904841506,-4.334393593461439,12.893335014986219,-0.5086381499902763
2.0614889925926247,-4.792817752279023,13.212648852231846,1.5543166831140969
-0.23914465917692243,-3.827315647899879,9.214397243697903,3.5415123242762565
-0.6145196198196766,-0.4916272276241229,4.7179391960645045,4.220083436787669
0.6755134965928088,4.157842452494521,2.3830102116848106,3.0263789994971635
1.82617323621288,7.569383490617547,2.11838371327573,0.43849280751322517
1.0475993662810348,7.577823689949254,2.049481122913335,-2.3466895459912163
-1.9254570275610439,4.128005173800952,0.8259288397200829,-4.149166793483227
-5.456178968585542,-0.5861359232805301,-0.9797529475927941,-4.421216071088616
-7.022829588489367,-3.7038980915086945,-1.6180027191249127,-3.3866586212412804
-4.993112352855716,-3.7559144188786218,-0.2296130877969133,-1.7402550431256172
0.0025289194075904828,-1.5910268185756882,1.8376155162643428,-0.20311133317222846
5.16694265699264,0.5241644721706464,1.8806823045530008,0.7979886058008071
7.364314567623087,0.889095034429809,-1.7026835722007556,1.2412521020394773
5.644253632377711,-0.1646852596033539,-7.492504781092037,1.4415836092060725
2.475504770114234,-0.5477822322367172,-11.543309727039745,1.8350220074138925
2.1883622515985466,1.7029927486278809,-10.215118781517013,2.659376310278731
7.23594218421436,6.391794557287149,-3.1878354034643444,3.683720179311661
15.148526202618168,10.704298502776018,5.858011457736843,4.228899367151917
19.2338797935676,10.927816720247584,11.641302056205301,3.593279389602668
13.351797019837703,5.229372913531144,10.996602569443532,1.6566263844626452
-2.607225728876039,-4.6109036652997215,5.005587086941932,-0.8245965937496458
-21.214232232425733,-13.962405189950111,-2.0978427798065398,-2.5760868039375557
-31.8819866058227,-18.17965862709183,-6.257317637710307,-2.650323015334965
-28.21043587673558,-15.473819875404859,-6.396305154557132,-1.1303590017383363
-12.635091655447905,-7.772255160223992,-4.522324420524411,0.8870164637551262
5.326285605194658,0.8758746554226732,-3.350592413411582,2.0443207372366987
15.810686285695065,6.933996042552897,-3.7271898769976386,1.626914879826518
15.021964883741905,9.072535957575369,-4.1000949547828975,-0.07009998275965165
6.626889674461143,8.01339900004076,-2.3084419460313392,-2.1187985364683986
-2.20510349207795,5.2217395535764615,2.105921668719583,-3.6750245731779696
-6.3204871676570535,1.8371981844040668,7.191948782153425,-4.4317826517615835
-5.330713019428471,-1.4249832190320262,10.052400832855772,-4.544872549844804
-2.254792254426747,-3.8264328486712684,9.112538907884684,-4.264222658898001
-0.16770331419477608,-4.486613080905962,5.251165247120583,-3.688765239943686
0.04567457527989544,-2.894612930899105,0.9783534686348121,-2.824388117276077
-0.533932413277366,0.48519691905601614,-1.4839870437572025,-1.7731885917065398
-0.5608255713501806,4.228089402973129,-1.6188329770141099,-0.7822353860450488
0.26837062281282664,6.691851343184179,-0.5746474852821745,-0.08162752997977261
1.2648817397638936,6.909795563567731,0.0180487507079374,0.3167024671211797
1.7085996019578904,4.983375106473951,-0.7046205058161865,0.6596990737904063
1.6493155015425083,1.8280424142549487,-2.4045881201037727,1.3056570815311925
1.876823062739627,-1.3885903170496756,-4.025821428486784,2.51914485211434
3.184876221986374,-3.7342490677171862,-4.661628435731668,4.335798845102225
5.577282246686933,-4.792416717508626,-4.148911626268184,6.520024289929834
8.057764021385886,-4.746672193792103,-3.052752998059346,8.584598258669628
9.204026693833399,-4.221307966241547,-2.152517600902501,9.880117038763919
8.134754352550523,-3.83568016536999,-1.8390030811672977,9.794069638197254
5.135337992603173,-3.674158619822265,-1.8413168630470675,8.032285073757643
1.4347014135052405,-3.115064919217391,-1.441260446246024,4.837689689025922
-1.6799743505783,-1.3054153377014046,0.01344252552449465,0.9716645890905885
-3.6531089422419822,1.9887374177819963,2.657531823332191,-2.5904760312497523
-4.723662313851077,5.870301125590074,5.954819814651505,-5.102113482667608
-5.359519057811028,8.6683132571658,8.820253543440495,-6.369812402929374
-5.74647855278318,8.967706440921164,9.887898613281635,-6.768027919968311
-5.839051170973459,6.5057426994773255,7.916874615398622,-6.941707708437603
-5.7694196438006164,2.2313991491772978,2.418671874783119,-7.381444886683535
-5.992398444850994,-2.441401178503833,-5.628063069941783,-8.128281734518618
-6.891029029752501,-6.473027919159203,-13.508820316404664,-8.783537841675573
-8.251213427255196,-9.415184910753664,-17.55252479467958,-8.808505287236136
-9.223965739714442,-10.956595322093385,-14.953436806199713,-7.911252526653631
-8.89394846729567,-10.445567934394058,-5.685982725514694,-6.256705230511968
-6.94612965083988,-7.097605115151636,6.869607366803153,-4.353565001017751
-3.8503727764571853,-0.9186023601990086,17.32879380286226,-2.6939935252091263
-0.4740646727747819,6.459003407364739,21.09593510204439,-1.3927062649149997
2.4950994354259213,12.024836537302253,16.856099314862067,-0.07212970964860993
4.908018528294731,12.965058497448533,7.1846135145996,1.9204296468122937
7.157511349801529,8.619404548143388,-3.0834382628103483,5.082312145216028
9.879620934344855,1.2884473808367973,-9.640493930474328,9.356334439452707
13.448809804445917,-4.972949499012765,-10.901449159397602,13.998969509907806
17.46770062537306,-6.901836533273686,-8.349403898411964,17.81902257753209
20.631270180163597,-4.082656675283315,-5.023300565735279,19.685166406486914
21.26865914030718,1.02681517006273,-3.3051906371117488,19.021273132931636
18.34941314538422,5.046042422357671,-3.5203720011734996,15.983247236571502
12.198215228279286,5.991844606039842,-4.204785445251456,11.21003702041158
4.264056429961684,4.196823957715947,-3.6691554914446067,5.361875239424505
-3.8828611055020232,1.3805829641144154,-1.5508128517822475,-1.156970135538421
-11.388028789617762,-1.008843542461532,0.905806821944845,-8.046877012946338
-18.00604528465983,-2.668624849309762,2.054882428375851,-14.694615253284637
-23.276966484335787,-4.00826210953529,1.5010412142644587,-19.95336501152272
-26.014570863594344,-5.183478894756505,0.7127246483415132,-22.474223522254576
-24.846450945522882,-5.714826691814202,1.9078201389021456,-21.46569028596769
-19.43026518776587,-5.012359911915806,5.978331692844659,-17.32438131280615
-11.186942972309394,-3.131509646472645,11.1602789128321,-11.592768161681146
-2.754193661237435,-0.9073719632611363,13.747533958653799,-6.1785573144908605
3.4932059701786624,0.6698338788619469,10.61582538663589,-2.3305511820749567
6.696806950107875,1.1955008634416087,1.813669788142982,-0.05891921105762164
7.6147107134801235,1.0137273545154533,-8.803478773794366,1.6247623410872891
7.626239040917978,0.7514118235477358,-15.64571370945253,3.8392372771894334
7.543956540808208,0.7788376356760612,-14.942903143313616,6.941252006030086
7.193910447691977,1.1139922190978857,-7.33524945061428,10.208618111249393
6.028431835946865,1.7178931792050955,2.4195216824644423,12.302146618184446
4.14302069949621,2.680992271635959,8.538922975725436,12.184645182993533
2.655678976039175,3.964855593793788,7.975608413965434,9.855959954190462
2.8721633562145716,4.964295366458432,2.1869544736605366,6.373840179328751
4.793331240697655,4.5348052669272425,-4.273393990316204,3.1331540896136683
6.433265097716066,1.8058132275459844,-7.157564304332779,0.9428536021636312
5.091668213707388,-2.722295018404721,-5.312697524118847,-0.3661370817681538
0.0368222189250569,-6.84629933790865,-0.8935166280543587,-1.461687877838956
-5.688893111313703,-7.759869716081157,2.8303946700037192,-2.551957464570137
-6.575123147404007,-4.079805855415257,4.062021070408091,-2.824568933983368
1.101091064486424,2.713988447396619,3.3854812258151203,-0.9299777059971721
15.192639375195167,8.781662123939345,2.5555432904406805,3.6969760317762685
27.57274599548393,10.315972884176569,2.550193342365764,9.699027651160332
29.011747251766266,6.1743258568717145,2.7181405027277417,13.923007835145992
15.819292222053969,-1.2765893086386848,1.6699047637931006,13.037624935976766
-6.918259564563838,-7.819998470287735,-1.0796052077876623,5.702780042434967
-28.312083135101336,-10.283131994614862,-4.329590420176691,-6.207935597531108
-38.764026554309325,-8.426696209893562,-6.020079727577051,-18.286037024458828
-35.81499250212839,-4.491987705604234,-4.9320322166891994,-25.835910074535597
-24.549179564821525,-1.0491041918403414,-1.763523677564499,-26.282573214470208
-12.852202146253518,0.898177095627779,1.3481357444032285,-20.260071214341423
-5.7109546624080485,2.058186770729503,2.46117214980046,-10.853275091796075
-2.8695747922691,3.4599140059836473,1.292049626956369,-1.6920140134210064
-0.856438157184307,5.062337677480046,-0.6322648081961268,4.79653006281256
3.144135054797403,5.692442491838657,-1.1999849037994128,8.029350933867699
8.971000960353463,4.242199222496804,0.6611764870784227,8.773517107398394
14.129973004228013,0.8809523344585065,4.175449033717394,8.21002813695326
16.19627036700444,-2.8558802096219726,7.266116140712508,7.29497866310202
14.736149235674166,-5.115654719496833,7.987070439031583,6.646658674023656
11.429509143029067,-4.951448777072469,5.774454489715635,6.657879749408154
8.679507340347854,-2.7751686854970763,1.6696063586863583,7.444588699287542
7.925855978471484,0.10815149473415826,-2.5252523839042795,8.599225976991573
8.778153139146037,2.3411360433951613,-5.426300554426294,9.107311959160176
9.403841278527375,3.145600639112988,-6.6981565738388795,7.7761950112436695
7.8569262128461945,2.5460186827738496,-6.798813826506614,4.07298349614195
3.497235542499663,1.2565605005275946,-6.262443669384017,-1.2207901171529727
-2.4540994273467573,0.29141580903007325,-5.253147579691937,-6.162072304603418
-7.667769654548911,0.3530242971918953,-3.735793696934878,-8.686091870558274
-10.278280573520584,1.272379298010757,-1.928137017606564,-7.896755960490118
-10.1059798942338,1.9785751809589869,-0.40575570260067023,-4.6893480500394755
-8.586365222298634,1.2436341893013048,0.37178070292562654,-1.213869261477041
-7.499492640320689,-1.2063359082365,0.6579049384484102,0.4854487298829007
-7.562451753515507,-4.119360532495975,1.4264279752921534,-0.27014461362434333
-8.005272445959413,-5.339650491112692,3.56895341019924,-2.470650306495189
-7.3878546876525535,-3.352003071900051,6.877676089104478,-4.1963976900226845
-4.921413986009904,1.3654156723546562,9.763212414731026,-3.928825297839624
-1.229919708958542,6.291724137129832,10.153293227537361,-1.5237561135690356
2.024568317193726,8.319453020060557,7.033572484635911,1.7380348351452155
3.374702128777691,5.791175491174515,1.4551774817564758,3.989344417627378
2.7237003926437686,-0.2938215098043921,-3.886300447994199,3.93003632910978
1.512621853464806,-6.791679916973274,-6.361090324076443,1.5712422417558036
1.5849243155338901,-10.360887888345106,-5.242380156017338,-1.8538919367230158
3.5059599276677735,-9.53881895093842,-2.289239298295536,-4.688649805036535
5.789318719874989,-5.500170332836369,-0.5154353695001503,-5.7922030883011155
6.018446805491025,-0.9566737811091947,-1.9193883020585123,-5.010000324055849
3.241447836299915,1.9601859547658078,-5.829124549476463,-2.953428788625988
-0.48286179626655584,3.1621933372488837,-9.199909238792987,-0.3897928557312807
-1.2644843204353335,4.2124485030780665,-8.797307212921831,2.2130070072040233
3.1214353057583755,6.410021259486785,-3.7058471352649622,4.666304277204754
10.330243944200474,9.061805353488968,3.7718256246287987,6.7192208281692505
14.20529562949706,9.622293166890952,9.604338192840858,7.84144053866021
9.381535893860702,5.81514269336616,10.835273766692966,7.42612533830683
-3.735632553879471,-1.975403086006551,7.566135718105168,5.275774782195955
-18.05955914530719,-10.195589692491401,2.620822851565451,1.9321033950245297
-24.39373255895366,-14.19795222107381,-0.7638680574881437,-1.4825319728698172
-18.238547852546507,-11.444575978142112,-1.3392043719247513,-3.8398308573809925
-3.407366962782674,-3.3733672953046074,-0.46682356157912086,-4.590541122214639
10.585212086324097,5.515838083092155,-0.5916246280458566,-3.9662423114152663
15.38921594286656,10.631782773832697,-2.910334436548175,-2.712220598110102
9.598815309519706,10.099540912957107,-6.1477552945213665,-1.5860886410516237
-0.8520310210576677,5.498019629075734,-7.413665745451773,-0.9555797957276242
-7.600611438489268,0.30218543602968606,-4.493880743816407,-0.698711650211714
-6.030506517559925,-2.597233370470164,2.1359083133206123,-0.40401765541511964
1.8541503402045627,-2.5499102697905895,9.098861913791772,0.2781501192207304
9.538504516308102,-1.0812346640042148,12.012312013505786,1.3391776554252057
11.081724145676915,-0.4357234305186324,8.363051777424483,2.354158493384105
5.366656702745126,-1.8290504715595648,-0.5231273409730903,2.7301402501478105
-3.337174343621342,-4.5398969128274365,-9.888966174922754,2.1277870903726472
-8.683305007468544,-6.410922771494813,-14.339170672579964,0.7528427478988258
-7.0482118233217586,-5.464195869505177,-11.331149606728918,-0.7501166357532143
-0.4273685236130646,-1.5531586859433542,-2.9316242409759603,-1.7762003354970894
4.817066017753874,3.2211533631690976,5.598476294056702,-2.2403069232287045
2.7949900361021025,5.858751629100391,9.54015263258825,-2.6178566340147276
-6.85024607612963,4.737389484797089,8.007150251620915,-3.4425273861386554
-17.69315901655142,1.031282263814898,4.180651101251583,-4.654666900340026
-20.658530339867987,-2.062133061245186,2.258870700320105,-5.401515331748955
-10.91851867340397,-1.882032654236098,3.6651440219141334,-4.569489917179087
7.695652729500793,1.39130713613353,5.7957323704688495,-1.7084764680547482
24.579739083276856,4.722496353293727,4.470983783319291,2.3851951739820327
29.561691624952587,4.687431276726245,-1.997523614862013,5.962949618681642
20.0895703191407,0.4422802099765891,-10.724893022843805,7.372914615757322
2.8836541379375364,-5.328676595750694,-16.106842013081074,6.1438435779133895
-11.151706352439765,-8.365524196528199,-14.148799407529824,3.3231138673575367
-14.694970574047753,-6.127933670949886,-5.655663326680035,0.8082714540185028
-8.524720732803116,0.23086000585671432,4.333959994526218,0.11609391573580888
0.23856582722524491,6.728752735016939,10.282353939912024,1.4133732191627757
4.180727713538961,9.445255585833413,9.928432369764073,3.444736030728824
0.9856643246840807,7.127092891940184,5.229664436225561,4.3905539950982
-5.635043140304599,1.6702186390181533,0.18004894240902988,3.0819273493290797
-9.49922144901876,-3.544903687327129,-2.3069791685896988,-0.22347774168401327
-6.842204859629572,-5.9568507585596375,-1.9481732893082926,-4.004141308394708
1.0433611302315953,-5.123901397253478,-0.33102357025932166,-6.447673405605874
8.948873485080558,-2.4319447167777475,0.9187412398509135,-6.560972956691219
11.542650434091623,0.201565125496587,1.3116327426194632,-4.667572179381073
7.121587839093088,1.579291653177111,1.3313467728391344,-2.0072481915182423
-1.1770536514393128,1.703166206359762,1.555063483072374,0.17777653498216256
-7.545251410487224,1.3834530946310073,2.0390536553676815,1.3380913622459956
-7.669325799034414,1.3818654906440593,2.35410650965216,1.6206139346121444
-1.9858371260875363,1.699157761173134,1.9644066303891206,1.3432308335785539
4.505584490852267,1.5110847568527812,0.5349330246576274,0.5469131647995
6.020198596385407,-0.14483147445299863,-1.910810188450999,-0.9170158749715699
0.636004277614012,-3.3769026559114166,-4.856883770617401,-2.8936583016272626
-7.901838773118205,-6.9223796838250315,-7.234092496828113,-4.604953075827564
-12.888452337010902,-8.66056050757798,-7.701431492733145,-4.950033476602892
-9.88350697243002,-6.9623535634078655,-5.374317286380504,-3.273527833294142
-0.2586545840294969,-1.9551037938816165,-0.6127417211415037,0.0378814670102771
9.822276608600951,4.285722365845875,4.805555072819843,3.6723561582485904
14.092011347322872,8.869590096670088,8.472892315396177,6.166746276235631
10.657945124174265,9.809433712867406,8.697906813269958,6.739112225676013
2.796456799627623,7.14196763172871,5.498467789094589,5.581667353604408
-4.123685682332964,2.723439490018193,0.541201246731017,3.515966615998693
-6.656432643210744,-1.0556059129754463,-3.9009761547470574,1.415892170356268
-5.0136207574949445,-2.6828727890512782,-6.21345110548778,-0.1348763438592713
-1.7305507870802286,-2.1551610215794508,-6.0940309689103955,-0.8424160978609758
0.8978760543375929,-0.5804806898828977,-4.2969184185449185,-0.6081679293932705
2.249028798930475,0.7807616023204341,-1.8358838207052464,0.41343369955841214
2.9137109606905667,1.2973304228143736,0.6762990444424515,1.6668498244013938
3.415529401611593,1.104806249465975,3.0943711182046267,2.252440279753698
3.550038706179185,0.6680522467027757,5.286567725278133,1.3596274081495727
2.7640463006724914,0.23565165165426943,6.674613109473378,-1.1340924865063642
0.9091756897930643,-0.3458919889870561,6.304235203019117,-4.368307331933751
-1.4419388494334477,-1.3560738882616004,3.541105381068374,-6.8384707051706455
-3.3149076398197597,-2.784168938439289,-1.108110858814487,-7.241178394543564
-3.9282151945211203,-4.206683227446345,-5.805691139350783,-5.291766769205358
-3.138272409002726,-5.080980590931592,-8.203309563141728,-1.9512261410842957
-1.5320661518464789,-5.139751961185438,-6.863910239461992,1.120095880847746
-0.14365302027942004,-4.465682744444537,-2.306720329560388,2.5473482618660603
0.11392513639948744,-3.1937535224906672,3.133470857334072,2.0371068517699125
-0.9616452758599362,-1.2442339485653746,6.617782074961261,0.48296863719987587
-2.645910315569028,1.505876802466534,6.438903426435443,-0.669416491189267
-3.688436559928179,4.722665646468483,2.938030046795984,-0.3778052363344438
-3.135484857402121,7.382500084693171,-1.807967558967287,1.3255339976868754
-1.0174080345925804,8.252479882399689,-5.246566317394697,3.3517509056761408
1.5937601173907625,6.803904582306663,-5.774191931187227,4.237313698230253
3.2175424564181525,3.7264353433463286,-3.5499965137674665,3.081480927135631
2.909455343157408,0.48517605682122783,-0.2983447716415544,0.1955575872814598
0.9574667210164332,-1.7396098554468054,1.7870705958413518,-2.9324400435516593
-1.1373981723439455,-2.7778596570230363,1.4449956113115252,-4.408198071867047
-1.5503517000370965,-3.2354141635910425,-0.791532363066678,-3.074186730402884
0.49272297045726343,-3.6212092726918765,-2.908198440420891,0.6381643301916269
3.8064657726355304,-3.7490610222355074,-2.809417811772593,4.7754794376173075
5.784878445372266,-2.978224076045839,0.11689433455092484,6.978331286866479
4.421466725115342,-0.9756350308571273,4.449618742749383,6.016930014119669
0.38259777341574036,1.7986759532253824,7.693473152778817,2.6535261062495485
-2.8884924135659285,4.3158150449365245,8.049184903929856,-0.9181342327359752
-1.7540943314866477,5.602780161288423,5.598027974840364,-2.7404980015547213
4.117925743901365,5.153655702576519,1.9717300230174113,-2.5723982271275547
10.500644838053363,2.901335623113072,-1.128812555515505,-1.9164996522259927
11.330555629986707,-0.9232599334257457,-3.2148336958145944,-2.504232729877285
3.6887965165900067,-5.6667102243829675,-4.961101656238129,-4.532378368398335
-9.090576420195143,-9.98146587210088,-6.951377782892998,-6.26929190319603
-19.193993842211942,-11.954047751072064,-8.498778867750218,-5.504078319062511
-19.967826411293416,-9.967929821759453,-7.813641911150605,-1.6425700758865291
-10.966921120287196,-3.9006728296552216,-3.5832071753711845,3.4250245486839286
1.7249608650120904,4.283940148177238,3.3360387185443106,6.562140018933807
10.128023719735417,11.231813736210448,9.716455921520708,5.771175816897707
10.114218643197226,13.941409444079733,11.761913035928972,1.7357568480941339
3.749780282613682,11.469486258666366,7.785563379500862,-2.759249123648785
-3.183832151467715,5.4518581443195675,-0.23878052724072926,-4.991766193026404
-5.949500849784156,-0.9311226070729692,-7.601466459897987,-4.213498152495678
-3.9434208347531077,-4.873751653243353,-9.846081515612768,-1.8076047788002605
-0.12036036673705645,-5.5034521064479005,-5.819939794674075,0.2174463706300813
2.0577321919529035,-4.090160308956247,1.4241430048082553,0.9342127698578107
1.3515178554942684,-2.821614419609073,6.660336306841143,0.9550216727565354
-0.7592433462237206,-3.0301224020389093,6.1370423150883715,1.4545907751826297
-1.6474149329919812,-4.157857972223665,0.26330222809648146,2.8424484380674127
0.36897163711705694,-4.258460509251208,-6.6452983692051175,4.341448169141517
4.88762770394,-1.7092983935336807,-9.4330468531982,4.766671200101606
9.747039347059008,3.171932073692417,-5.770591414561788,3.679075527897213
12.386382501056307,7.95075288100354,2.2453778672850744,1.819456089182648
11.347991894447105,9.629836731338056,9.664570058000402,0.4622483258337148
7.055357316120984,6.834872363507559,12.16017806956196,0.31973470380951524
1.4346528598408352,0.9468449538071367,8.812747987269807,0.9796320153864597
-3.3464860274073533,-4.743491696989617,2.3013810267597763,1.322434971452858
-6.152941230771898,-7.251068641621304,-3.33715038797574,0.4871180869184251
-7.291142575334205,-5.8199865634235515,-5.494767577482343,-1.470718017596709
-7.846767442627742,-2.166453142786198,-4.319183129782676,-3.7285348163120595
-8.573761023415924,1.0113946774339142,-1.939993968652341,-5.406483656471666
-9.246741040330631,2.01691717595572,-0.5491085588522153,-6.149775282673674
-8.934212913391166,1.1336718692527874,-0.9030757023687319,-6.126709010784738
-6.897435425456047,-0.014158194438527104,-2.186488316588931,-5.59846098395298
-3.380262550059059,-0.06363947642731807,-3.0164692484643,-4.591340564325573
0.32565048545000924,0.8673964935055376,-2.6179971455351616,-2.998760383834332
2.6496354671556404,1.3254937186805176,-1.2948447870629676,-0.9205607605999907
2.872641054603434,-0.0966804186515077,-0.007252121929071699,1.2169540820569469
1.7908169074580436,-3.291543249369863,0.45877374078518135,2.948796749592656
1.2461867118014438,-6.364011622550524,0.05078740550072231,4.162888585833326
2.651538079871239,-6.911655395695223,-0.612852193617175,5.133942124988976
5.621965007250173,-3.901232235332739,-0.7581666834157612,6.113855625917206
8.069557298570965,1.4180625916229452,0.036680734536179566,6.90501700542005
8.03050018114842,6.39903490538456,1.6761400983474828,6.915139604306739
5.753644517543697,8.973942288793841,3.6995367056562842,5.703727919428606
3.8878793025992575,9.013343106100104,5.492421365141946,3.480000523596969
5.059878891746195,7.877376895063271,6.388889423182165,1.0070216550285016
8.753096214546899,6.648054318119349,5.754804503134292,-1.0396754135702928
10.645340610994799,4.826909238470873,3.2333951310493236,-2.6156142352557863
5.779347284407046,0.9011762039389944,-0.8784749702020578,-4.158755324294526
-6.649826790601694,-5.624892448931692,-5.441436652528187,-5.852356677579027
-21.167668527616783,-12.69691452274374,-8.788244840115444,-7.064691332140494
-29.05271920400425,-16.405039975283515,-9.48834088130586,-6.653906416565766
-24.627472705973062,-13.700019467464735,-7.100095309602926,-4.015683682115611
-9.791196778950374,-5.006058106570344,-2.4106835883249627,0.04093435208357209
7.054327059426145,5.520160630183457,2.9517750650640604,3.4889825016019196
16.935601293160346,12.490835324733512,7.213254121405807,4.372218689707573
16.34531045844112,12.726033314733453,9.04582540697051,2.2302020471473787
8.742351766094798,7.09028318781793,7.903219614078821,-1.4924260494057102
0.8423701650137572,-0.48552870611762217,4.181516683803927,-4.4191639321013945
-2.7629552883252573,-5.84147326741579,-0.7805029347841076,-4.862053123789972
-2.2564733416120557,-7.101411723840417,-5.053666378224318,-2.862079376344508
-0.9587722616371755,-5.21615873101745,-6.9478664382257955,0.0759375989118475
-1.5465353405304865,-2.539269247728989,-5.98603843306289,2.238508998936213
-3.632626334635361,-0.8084712801417598,-3.2874607915656298,2.9142178954146813
-4.499616851503562,-0.07134259680823568,-0.8561246161193518,2.6665770570965597
-1.9087155344945133,0.8392588404490839,-0.13757912260542152,2.5908484295934886
3.622406206519336,2.876900703145304,-0.9618935669615597,3.27041697623909
8.9275413058186,5.6275068021797265,-1.8082711426586022,4.30471223035521
10.49195227347714,7.371098265984378,-1.216782094573259,4.733674349896102
7.107412816197883,6.35587718921635,0.8905067381494036,3.9229291493593395
0.8759903584559646,2.3316421959506286,3.183693261697866,2.1240044832256397
-4.201034981257794,-2.887069998685646,4.21786328628665,0.2454894400093969
-5.067691082866694,-6.402310570693413,3.8168086016883254,-0.9332972960132987
-1.8338179306540041,-6.164116531479466,3.2020956218861203,-1.4018229997846
2.308638064493703,-2.4569299576420374,3.6916036317092398,-1.8524419739487061
3.486735115047846,2.208083837219498,5.176025355073694,-2.976429837212596
0.09625182958678694,4.7798635556628035,5.879410375301834,-4.746112492494735
-5.949904473861051,3.7303441817547456,3.802749193697581,-6.31402503989889
-10.633112121674303,0.013664206042024285,-1.300860231025885,-6.62277907270129
-10.791432286376946,-3.7244819446138897,-7.182390125817129,-5.215527876943718
-6.360481897581464,-5.061877555303517,-10.428465017389316,-2.5844833983545095
-0.26648988991522954,-3.4571960621944497,-8.980087352258682,0.19872459322213804
3.814237357869624,-0.5172694609599454,-3.846900309188613,2.234051425443987
4.081700369344801,1.2571596474025655,1.4673330419924853,3.311002176579392
1.7303250153821506,0.34052940678864985,3.5142198046646813,3.8188021327674875
-0.16491772015779876,-2.647235773185681,1.4556701851598166,4.195891581204718
0.8537958838772609,-5.309665107876227,-2.439726344796154,4.431391096030008
4.564943164674517,-5.157808850949698,-4.769821545807529,4.0613160619972755
8.049011547330977,-1.4238046819877876,-3.7749586988053676,2.6722504665153393
7.95432845010696,4.329019954389742,-0.5500787668758036,0.47956896489628076
3.497767322201649,9.265354644613327,2.2989248899882853,-1.5610004491839327
-2.2769453498265824,11.18415393478092,3.241794333334612,-2.311717491676697
-4.475330726843413,9.778723512082765,3.1879461486778427,-1.3284163474848476
-0.4720417022784374,6.326107700513166,4.2940695068179195,0.6410674020868491
7.133035388787954,2.255016799375891,7.334072074437718,2.0329984938378893
11.673679390036167,-1.9900338402938773,10.24287050008471,1.556507355299913
7.45081890430066,-6.716571895343277,9.486856153341096,-0.793722932429893
-5.166590030662028,-11.686175428721278,3.2817981261749387,-3.6299322140465766
-19.021090007988434,-15.175546329759053,-6.206902899326888,-5.13221972710636
-24.96806824111019,-14.599325044702066,-13.859482750925944,-4.368096019150638
-18.67196395102004,-8.472858404856776,-15.227755521479963,-1.9273934478251527
-3.9514846285596694,1.8536378474204493,-9.86937927092085,0.6292190878791918
10.070361161299592,12.282092842049988,-1.6282039890551503,2.021651676522997
15.67469166333131,18.09658512852634,4.352602186353157,2.1374603807905266
11.72560122414317,16.74273189750441,5.408116492499446,1.8433956570505126
3.4782323603050056,9.332866046036614,2.918052958172736,1.9821021825017178
-2.2313362087580924,-0.11521451366444266,0.6303915569105893,2.5245018327584665
-2.123988935184871,-7.1084737478916535,1.3651019580626587,2.654389682705141
1.9850320348766037,-9.143485039976198,4.825998160463367,1.6598316723715318
5.717577616826158,-6.729682467987742,8.077968307957672,-0.25387326087941975
5.96643344510013,-2.5628494156589543,8.01139219901978,-2.0276951031758395
2.8580799368684606,0.4016936688765237,3.7112019837941457,-2.649280526389929
-1.1521551643516401,0.6882230109232448,-2.9773768785247747,-2.055793155127586
-3.623851879231487,-1.1422515692186865,-8.826718795420854,-1.1897840775556323
-3.7997193992763676,-3.2671073489032203,-11.303114863070126,-1.1280827411657433
-2.5949718659320467,-4.017978215734476,-9.855656175788024,-2.049179045169772
-1.4258362451110207,-2.9267248980300353,-5.767278476431903,-2.9688277933212075
-1.0626008348048643,-0.7763824516924065,-1.0137718911117461,-2.5210711700619584
-1.312026182745641,1.1876338293681623,2.8830746258988085,-0.1656919973129146
-1.5190333983058613,2.163753423366884,5.290376165055887,3.1777930992124945
-1.294498188382471,2.1612509263529844,6.179821638451298,5.628615951847541
-0.8261395459672808,1.7296204441884082,5.655363979597729,5.640265909757061
-0.5556165826029754,1.4495990703879904,3.8107736171894575,3.124901810830181
-0.5862430294426931,1.6114216355730828,0.9793509706516306,-0.442160407291797
-0.45736311019867665,2.1761721655775745,-2.0008832177669293,-3.017453063358031
0.41120254834470216,2.866862650325452,-3.9135529767158186,-3.3429988974101805
1.999251104593773,3.288694637351806,-3.7205362011899283,-1.6745228060110335
3.4597857930250475,3.1204741445373445,-1.1887136654830543,0.5921118731584694
3.7343282680993526,2.3544561014733385,2.846802959661623,2.0270079671146357
2.4894672486110823,1.3570736866464297,6.747551349053771,2.1208551683036245
0.4497386574272838,0.5472605097727555,8.70197461028524,1.4047740929121295
-1.238207437977254,-0.11623682224488419,7.432442639940994,0.7641087009988773
-1.9890449381020905,-1.278066241892109,2.7573586729223405,0.5953377701291335
-2.1278617892248906,-3.596560986197215,-4.140502384705045,0.5014072076238673
-2.294401429705203,-6.801186735283617,-10.896346207605806,-0.2823120142056224
-2.5819990485182016,-9.341368950500332,-14.714535447200923,-2.1314071137848587
-2.344184950507839,-9.2375255563911,-13.565527413815227,-4.5603302242274975
-0.8778882534345814,-5.656123003647046,-7.334151792275423,-6.387346747118269
1.711247198462226,0.10900787182500257,1.7698488422544518,-6.417804366248796
4.315910988457455,5.250384349812124,9.978955871267406,-4.198490893048742
5.4972693674507465,7.3404585749917866,13.71049168351442,-0.3780132558364598
4.452271660831369,6.030294809361724,11.42681750751181,3.55148879690317
1.5455713235477806,3.1595679470933806,4.5378466069886665,6.010760671330685
-1.9040529562051571,1.1837103649232321,-3.2918346810276815,6.177709483812244
-4.367240701920802,1.2227046459601547,-8.156239329397147,4.421988433513449
-4.906261060591325,2.3308601129146536,-8.098799464027653,2.0387470461989716
-3.599493535020841,2.543029155051902,-4.11070505930355,0.4223369492456866
-1.3681669586347762,0.7669759525551394,0.7440859066299973,0.2112875697383716
0.6734875299282985,-2.100982753206956,3.5012098602656843,0.977373290977515
1.8853048164601334,-3.806183880831839,3.235715644934723,1.6488805425084319
2.2800966802254026,-2.627728497804969,1.3769379402743318,1.3259469415212213
2.124480583654774,1.019633454383367,0.23633906982564531,-0.11524500882351872
1.44366725606224,4.6356209301387175,0.9841009831240674,-2.0217180160763384
0.03269023668291514,5.386412756886075,2.7250339723588,-3.4732099700395267
-1.9845974725860471,2.229517446961445,3.385349514314479,-3.859296601528963
-3.7078404069879864,-3.2350891502168038,1.6117428751257572,-3.125047416931177
-3.8117624767508143,-7.828843427500813,-1.9256314724216204,-1.6249684459282139
-1.5987543130245607,-8.927378673554093,-4.897706810626012,0.16610366188572676
2.1628008346069545,-6.071930070708952,-5.044122930008023,1.8068029480026946
5.4783203965821246,-1.0136719691759148,-1.9014009860338836,2.8555356918626438
6.378795758958324,3.5939865020755626,2.773350992085303,2.837407094029154
4.222656169440412,5.763303918064229,6.161995093308363,1.4187073263807564
0.07715964296849537,5.018896094770518,6.255268854499089,-1.2357467200497394
-3.9917804473854046,2.2953062102284285,3.105334323533116,-4.222822892381421
-6.105152266016665,-0.7359026052700792,-1.373830671695233,-6.12090829055529
-5.471577910839116,-2.468897734208388,-4.844117993669567,-5.711572656458917
-2.6292728999568395,-2.0713421874141296,-6.127708751816952,-2.799218239790486
0.9346533357844667,0.07065438765693484,-5.756322462380624,1.486055253594292
3.5623526935343155,2.4529867612317493,-5.104589843822494,5.241328439930754
4.272911682183766,3.284705380111773,-4.872059060189046,6.916213474231285
3.2446777504162654,1.728632320640736,-4.27101079732649,6.237969331713702
1.5832928324414686,-1.3019269591477252,-1.7491911171251349,4.245991593717175
0.4680464243174052,-3.5641525260277565,3.2511494830518433,2.397360790896574
0.292303744517205,-3.0458388519540724,9.042075120754644,1.43345208470044
0.4819661503921181,0.4109175433612571,12.27421294272757,0.9025791326156143
0.11962652663487908,4.730553936062872,10.23521863619258,-0.28100415975911647
-1.1928346444257536,6.916637587194242,3.1956151142857716,-2.7007515508129503
-2.9710123297835875,5.172920451361723,-5.167460446282359,-5.670811981665234
-4.237048946239119,0.2365026657228845,-9.910286880090885,-7.515627539159234
-4.278754244026137,-5.133974299484335,-8.171336318307375,-6.746306045583493
-3.1681524373147254,-8.150697322579827,-1.2864681760448062,-3.248661160940031
-1.681748147694021,-7.914730739716593,6.015756909175932,1.457589140128727
-0.6841772123702438,-5.734195272288678,8.904142581380121,5.14060352912546
-0.36232920127021523,-3.617865893575435,5.868522820256261,6.299151131352848
0.13456200071659571,-2.283706877680826,-0.2931308691571889,5.044912964268091
2.1805566120822424,-0.5173774860526789,-4.738957241271856,2.7675498308048563
6.343305748215853,3.4030429370133843,-4.421248200655194,0.8892277640298819
11.133721107286638,9.398761516619768,-0.5035862351801057,-0.24671853653194248
13.151537469805259,14.601581143000924,2.637311875421949,-1.4204372551983824
9.183015553652178,14.960832338315619,1.1332856854387863,-3.490414130242403
-0.9163536428659586,8.458332393997887,-4.910233004345454,-6.201154993601342
-12.947658246131608,-2.7074976468708587,-11.131952074610933,-7.968762169361774
-20.343760657984316,-13.036938948761547,-12.219861917984614,-6.963120949138564
-18.4799556347859,-17.315331211964313,-6.206667288401582,-2.6666176720404433
-8.146981353764934,-14.126491728941465,3.776202794843964,3.3957720158318456
4.723638335876556,-6.5052249573229695,11.782831410913923,8.439130091579717
13.105034003056497,0.7038801627481311,13.517811798167838,10.175456294582379
13.599539528661566,4.49352676471062,9.317350153129212,8.21864234707996
8.193797180111694,5.353247023890307,3.2988033920168207,4.118441844262783
1.933176087164045,5.821513843289883,-0.3770340563073863,0.11614177948436635
-1.2363790547533864,7.525913290511148,-0.8038215909346217,-2.3275187570801132
-0.9841523624289187,9.457413860600113,-0.4365290125968677,-3.1463946469685546
0.20759796672767822,8.919054723030143,-2.1877999466282954,-3.1601206729820714
-0.12090999056365342,4.151699267187056,-6.31938753355733,-3.084362494034257
-2.251767737364352,-3.7334891478837187,-9.961935936048778,-2.949262919184306
-4.4363855284643785,-11.136423423841112,-9.62859769879795,-2.307707419348051
-4.7368164482359445,-14.28273530593732,-4.416138158297766,-0.8925392122494148
-2.7089439743909134,-11.634166651172283,2.9466979789428103,0.9338886767972904
0.3656553743842471,-4.706698121945081,8.098085076925893,2.3248542747011363
2.5580605975607615,3.043568833528429,8.370719915373371,2.540461188890017
2.633323432858944,8.289012113362935,4.6944100873863235,1.4924865028820082
0.7358104355736813,9.479685059060676,0.6115830316849706,-0.18068150256410423
-1.8423097261880854,7.2272411286529605,-0.6632189183925199,-1.5627268880590188
-3.5300480281332325,3.4568662219852557,1.2823148301009557,-2.10034198434479
-3.456180595101113,0.031323371637452135,3.9567156667478005,-1.9589476471871174
-1.957283307659538,-2.2558440150838823,4.178392424807249,-1.805959246187811
-0.23239602898248424,-3.733791142441407,0.7522673212784367,-2.1557106716409957
0.6895896855232329,-5.031916721419296,-4.509429370101751,-2.784151675486194
0.8785343542619002,-6.101203288864065,-8.166613345497133,-2.7434386838573053
1.4554845701879964,-5.955245455109017,-7.787370912684703,-1.0843026391377335
3.4543244986644135,-3.462799112849753,-3.76065630424928,2.2045087931104708
6.520088204291665,1.3833376781900224,1.0874542669028606,5.819277805074431
8.69617746795279,6.83303074426225,3.693205291890112,7.77412033673774
7.725325525650784,10.125780683708527,2.993083772322268,6.719832118743624
2.963645417949004,9.280845696453836,0.4760851145802298,3.0095988554496707
-3.6504033935235842,4.639241195106309,-1.265996724354735,-1.3506659633136924
-8.520394841326825,-1.1274931231433327,-0.7229079080058776,-3.94951441633914
-8.745542318447992,-4.748459454012992,1.3776678605749284,-3.581008509798572
-4.294942557547771,-4.650049094950844,2.792184727409912,-1.0507458255776603
1.6490023061326249,-2.0626010621193336,1.7072381156014622,1.4478421654538547
4.6835714322239275,0.027499536510082467,-1.6464390353371559,1.960084815707103
2.3505256224028215,-0.6281779437238786,-4.952920632230402,0.1977068143020169
-3.786690811244903,-3.574116273523493,-5.395787070909457,-2.319344199462523
-8.971544757103102,-5.921692224009397,-1.760174037463594,-3.528367391589366
-8.778777853718063,-4.803281646062127,4.42779172100386,-2.5121533000578045
-2.8083782076889334,-0.046280748869846774,9.594673612859465,-0.2543874903202096
4.587926688634997,5.282418873965883,10.31882251680212,1.1795540196809375
7.60185154233386,7.1492211376018995,5.647761564463092,0.3970858197715551
3.900480836154342,3.893307997425852,-2.0701207244630595,-2.0818196033427774
-3.0137708948075463,-2.205451759802026,-8.552379904575137,-4.171270565321188
-6.4248581503446855,-6.601891664977224,-10.334707559375651,-3.912965125790994
-2.1520066193589407,-6.109759710076921,-6.999642034590413,-1.1191969095105747
7.452809347469024,-1.4299148023613317,-1.2417878188623634,2.423993132300095
14.958419494588574,3.574217106687994,3.2780446534719108,4.377935018951569
13.820098371498991,5.20300966640159,4.603081779994917,3.7036760821528314
3.8768378199883995,2.954556916310982,3.564282077866545,1.4008190970475465
-8.328192624172331,-0.30708483457420926,2.4968693849532055,-0.4349684428170816
-14.673571110907822,-1.0586430223177672,2.820604992302867,-0.3681553170260043
-11.659943606410868,1.7661056364494843,3.668792698635766,1.3094589490617667
-2.5902958620427206,5.924502679597122,2.785844922476984,3.0209950886358263
5.684385545729788,7.838659210137859,-1.1340717759954864,3.3399053430485695
8.262782405994288,5.529897018824357,-6.8026325022130685,2.113543208138527
5.282164488784602,0.03996380183390336,-10.925202420782284,0.3723541451566571
0.5731442722729261,-5.595888800825336,-10.60264918747927,-0.7362662932518631
-2.1880288878411966,-8.65559609424106,-5.559740388690688,-0.9349966428487141
-2.1994698687384253,-8.34803533493036,1.6140425823815376,-0.8644135322247727
-1.1664211540799578,-5.729192991704532,7.331231216541402,-1.266220991308806
-0.9164156820093565,-2.470283967564222,9.405192282004974,-2.1552482037547103
-1.5870840844319463,0.24688493715830526,8.124046378082097,-2.7796257334096275
-1.9366710548732209,1.9650446653804383,5.385552602390938,-2.3931493898519727
-1.0911154903348033,2.5744724243723294,2.8815042904171198,-1.0977519926348538
0.22710952069534032,2.0297389459824484,0.9408103764590232,0.0675874416516716
0.26764902830185683,0.49358927197845653,-1.1233257391473446,-0.04518199341523671
-1.9063665871952336,-1.3918199343711841,-3.704959515592177,-1.6158269993657504
-5.096351519164574,-2.606423092128711,-5.992927016684178,-3.486262938739025
-6.592731883502084,-2.3365571238645586,-6.401551612840013,-3.9283811884731903
-4.453154131304431,-0.6024719311617988,-4.035434795020663,-2.0258872151777414
0.5071825261005591,1.6697983348939727,0.14522017296996648,1.4526321520263163
5.018973246256761,3.3193433687990193,3.669126278135704,4.501549862533035
6.108135039884572,3.8903129967298424,4.360528163312345,5.401382514575048
4.061449958016056,4.024088730786317,2.1813687073637795,4.1058982277824425
2.6809944800239567,4.830133155171217,-0.5696624532604525,2.277716987621657
5.9548449374844825,6.620115047049625,-1.1146572907542964,1.834958594029225
13.649140819700746,8.08789511279935,1.3036603814125085,3.1838097326984687
19.954060172027024,6.869085998868958,4.468100255884492,4.695392293488832
17.23469839698098,1.3596393554560477,4.832426698995221,4.002282563014286
2.493379037427625,-7.508809437495887,0.5914081518325012,0.11306372109804311
-18.780853526182877,-16.089134355689588,-6.395081668218294,-5.450230897473891
-35.15043155255825,-19.91453849320373,-11.613372988921157,-9.541598131790831
-36.82369230155096,-16.511013648222004,-11.213364581015723,-9.667961993191458
-22.610743579702582,-7.116351273954861,-5.003382113513625,-5.836012296851694
-0.8107794607907207,3.9864447711864024,3.3157538438985625,-0.504931589787428
16.61999409670416,12.055966737038952,8.864792540269105,3.259463525509216
22.039235963560124,14.554507606763949,9.056904336947635,3.9220569157045033
16.31056575533051,12.119049246696667,5.1350120472145715,2.2925049506217055
6.678475116651422,7.448185679393163,0.7862819297966113,0.5710652449417537
0.7262301356881998,3.197605129300802,-0.812039144718603,0.5505909621166634
1.258994607818407,0.45187636408416204,0.8648039491321362,2.371541373232933
5.442553337560501,-1.3611970344341737,3.786922814541306,4.599075571527702
7.9513790458621045,-3.383037847212515,5.244662865717943,5.353438689107685
5.2623173664298655,-6.033310283743039,3.8312714962362864,3.6064667319466777
-1.9035378885440148,-8.429356806051121,0.1319194830870767,-0.1572828990589976
-9.276116756008305,-8.867724857335894,-4.058553689590031,-4.213762708689733
-12.122794996022193,-6.059444276445821,-7.105837033214905,-6.592772340471107
-8.677098352630724,-0.3366138016471094,-8.423250132634093,-6.2423620678582905
-1.6538061814125318,6.044603599492568,-8.388350958138698,-3.6987183695892885
3.3990671554627268,9.935718309885457,-7.573766317067963,-0.7808031266355556
2.142899688737298,9.203370269217405,-6.012660781529456,0.6235487443198301
-4.872786388861648,4.25674891254782,-3.1218914383966303,-0.07092963645561515
-11.95063066621612,-2.0321553287147243,1.611988734066724,-1.653678920693054
-12.213166236973915,-6.1625580933486015,7.6944160562198025,-2.0172912380015346
-3.136918653264738,-6.333055331287838,13.241900408550883,0.1203353998750192
10.785475614731778,-3.4858446058575,15.668852430790936,4.017963208265204
20.813409390328832,-0.254767850195971,13.174380822044386,7.291892963798687
20.34322602355241,1.2698297250268538,6.05858734617977,7.68272093033704
9.907207910382773,1.0684274465680044,-3.1234095114605713,4.830028607746787
-3.2713220906650538,0.7949435692695418,-10.790380121358371,0.6087327851200172
-10.780153533515765,1.964537564732745,-14.171200843645263,-2.262349346388318
-9.07252244810198,4.435207771720328,-12.557002995369317,-2.2254792819639677
-1.344413999369062,6.494492669668093,-7.275608723245023,0.06549985869173353
5.77576354670919,6.323091119962381,-0.6567165893464256,2.377376804964323
7.499009137822233,3.422458087402172,5.134965515701207,2.587763436411627
3.770993492481042,-1.1775488036721022,8.702322191945742,0.09318210314702553
-1.9486795597878173,-5.8439165942061155,9.423047986562016,-3.990089779860793
-6.155557721030499,-9.333636327562484,7.29533790188107,-7.722460285841363
-7.744082469120004,-11.008235543780676,2.945037639899215,-9.500662638435694
-7.754540103417919,-10.445053210191217,-2.321387992488716,-8.719760858059885
-7.423884343054337,-7.272083370025171,-6.760895007724515,-5.76518234736274
-6.77003271745031,-1.659660820842727,-8.842873286058271,-1.6372399105684496
-4.943907406363379,5.0375008994923265,-7.973403994483936,2.461764456557083
-1.664020157749174,10.401398032489457,-4.783126309961285,5.483977072859071
1.9363960360057675,12.129690334432699,-0.7340368663356082,6.8656757741969345
4.028949607842547,9.516408654649254,2.7093545981219167,6.745632952423917
3.774923714778327,4.042926886962491,4.788309053823692,5.858757288253523
2.350955815439497,-1.4818969317585213,5.58409690586787,5.019878516272326
2.1376123837648926,-4.6497955843571255,5.5569427298379805,4.473860469161472
4.511136917278536,-4.8000356334965515,4.919467199556037,3.640149517789045
8.146070658275242,-3.0715545919069887,3.4125884351264073,1.590058007791147
9.65670121244385,-1.253205074422239,0.7334975931295448,-1.9913644094094523
6.517394029530413,-0.38356528907699067,-2.72610614762403,-6.124776672265813
-0.08474503898388272,-0.145466576409697,-5.573701819350761,-8.836489478678244
-5.32976118477224,0.5680051542271027,-6.065136088353468,-8.41352006804573
-4.437274842684946,2.435311244020667,-3.4312125921350694,-4.738661397691419
2.7805481790682807,4.832652834620877,1.1565589021245217,0.3918845163141895
10.643234584672893,6.035076238523064,4.976723496837029,4.357293397798541
11.466344135693465,4.412417326034078,5.498875867131452,5.460632838901647
1.949210125080457,-0.22848936094836958,2.2622356698272683,3.9869586166512203
-13.245053269533878,-6.162083451886404,-2.632835841427592,1.7330145581227558
-24.2030107157876,-10.548014121342106,-5.945568422266257,0.42642184104976394
-23.067737574013584,-11.046884053966435,-5.6046212827750805,0.38218078630516406
-10.163686826832278,-7.214288309965619,-2.122424006516248,0.5140906400031047
6.086217482581847,-0.8018063200038134,1.9502409165782508,-0.39150172310345177
15.413459490691618,5.1886037463806725,4.005435239404012,-2.3505650647252603
13.0799821623139,8.108273761321014,3.187684515058219,-4.03593638099603
2.654539209014351,7.02152078387704,0.7209425020316087,-3.94850574556638
-7.506333107643214,3.1197963312944013,-1.2622009238903493,-1.8320870691422408
-10.720991645875669,-1.0060756840903657,-1.300133913628758,0.9674957311063366
-6.209570723113508,-2.8747058412691806,0.5562931070985256,2.5476231939130214
1.6150387738933227,-1.6155022713174478,2.98675463726995,1.992855934011295
7.323895508568356,1.4402966018853494,4.281599298936193,0.08162938904078479
8.373441260696623,3.5901466306047416,3.234608889033222,-1.4293229299780668
6.009581219125318,2.654172581004925,-0.2786684304902482,-1.2942422014871888
3.269963496580864,-1.2912809158147764,-5.114128479473647,0.23574258701573744
2.2504843938992436,-5.6879059500157325,-9.153379913754822,1.7250576811821796
2.796130330039484,-7.164634355803033,-10.166422960501983,1.838964268253405
3.244926337441904,-4.0187187381489045,-7.017533910241552,0.49186656317579364
2.2472672841796846,2.357857867364805,-0.543482708600768,-1.077906008834358
0.07615522003681711,8.280992465776896,6.617177290519458,-1.32323415152844
-1.5834466925633983,10.263541170121426,11.356962732154798,0.3632034431741391
-1.1521489839633812,7.3211569169246316,11.83553677082123,3.1587828202602393
1.2708249972603105,1.419564770446522,8.467937165774119,5.416127791028231
3.6376693693807263,-4.093096608590987,3.4902121964608384,5.826159356253355
3.358016960681445,-6.714733283812038,-0.5727620810607298,4.211974696043199
-0.6352644991106102,-6.0465993613233175,-2.4622194775814075,1.401113631223336
-6.822994452534935,-3.4515803070863775,-2.7303207111458323,-1.5840838729461544
-11.972137533811184,-0.7514827535377422,-2.9937644758658717,-4.24289227181418
-13.323018923472436,0.9109193225100092,-4.504573603335751,-6.607296352067361
-10.415095579869893,1.3834225619546943,-7.069766063449191,-8.634566021179058
-5.206495569958406,1.1109551388647891,-9.066241594736157,-9.671572327409915
-0.5159515990793666,0.5706379694373412,-8.530738321560104,-8.637997045759226
1.9524146805905764,-0.048907362547181844,-4.5795171893188895,-4.909240142928211
2.5635096020201114,-0.8422810203376029,1.7938258377332046,0.8202188358258873
3.0898422732337245,-1.9867966253131983,8.064481030114028,6.5104970526398205
4.989184418311304,-3.497340712004127,11.44690250730262,9.786821861688708
7.910168825394513,-5.037205622219153,10.333198701941926,9.359141826271664
9.64752925672369,-5.866445325079439,5.123933195295724,5.863342071264536
7.856468330217329,-5.009630815682909,-1.9189404022187802,1.5204047785248316
2.4523597107170794,-1.6796469098225586,-7.673901884367988,-1.1806745260026348
-3.320700062160262,4.134406388505942,-9.562501980332579,-0.9384487289089554
-4.629928864224431,11.18876927138208,-6.761922017774813,1.6529685275911954
1.063085203859221,17.007001563941696,-0.6586573043630758,4.530100764037138
10.907403393138331,18.676279077709903,5.7818134845445,5.423789543711424
17.458412693236298,14.264337944640545,9.532360947887812,3.2014194201694437
13.712649090699909,4.161598250090531,9.11355283244853,-1.483456076026336
-1.0552239604676694,-8.564480260673479,5.293697108622611,-6.5856425484395364
-19.510687612294895,-19.27613142602463,0.391430856149079,-9.842769152158947
-30.655095498988842,-23.88069743127687,-3.327465718060891,-10.006491383933255
-27.51474793376374,-20.758939480558883,-4.983967454420967,-7.395209888769257
-12.224108339286927,-11.382632245906697,-5.211978416555373,-3.4929430060272235
5.573054284570968,0.6218789383600847,-5.144614014333012,0.052979263934861735
15.759703831643614,11.219662480901688,-5.242339565563592,2.3283418846248773
14.656688308226283,17.45718200936077,-4.968767831826173,3.3971699402023603
6.591021604720825,18.115381496568098,-3.4758172844100623,3.871749747477668
-0.5401158668590769,13.656179870826804,-0.5614607416107733,4.2454862864018175
-1.6359646385758244,5.863091524897601,2.979445001013984,4.501490693486512
2.393577135140178,-2.672909640338181,5.83798546972967,4.215528559697628
6.5127420092472965,-9.330003030450886,6.990565302047019,2.9976811461123347
6.269645927876228,-12.426124667420112,6.156311072224853,0.932779669009879
1.2724173229171507,-11.8858347206324,3.7231423567764614,-1.267064891338004
-4.985403036283158,-9.035860070526876,0.4453745987993168,-2.5126756716351095
-8.201395433079208,-5.543219377474706,-2.760467629721422,-1.9165768032291104
-6.498328283076005,-2.27573270787682,-4.932091439043887,0.560303859614484
-1.4639608717933494,0.9829300748585165,-5.303666290700164,3.792956951828166
3.378606458904705,4.7519977824726976,-3.695723297247789,5.85113675820177
5.196057488396578,8.761211806312325,-0.7530155822702679,5.016663325052064
3.5849211258994713,11.599090572853148,2.2815131546913037,0.92899800014249
0.37129764305229457,11.497581807632711,4.198749052609154,-4.931979726881692
-2.0595574451358845,7.6606174901362465,4.4320844553421175,-9.897542295589778
-2.438508014493487,1.1032731445729107,3.2278234219268556,-11.597716231088906
-1.06619530163096,-5.626147901395207,1.3297727305089038,-9.340247155096367
0.9677987910222035,-9.670247936102411,-0.5252781333515202,-4.460478894190661
2.736487145604376,-9.315696057046402,-1.9629433290175298,0.5669650607218197
3.62795997910165,-4.914114801679199,-3.0274973521033637,3.617292655930916
2.8837569375682373,1.198009086200983,-3.96846671027708,4.028544295376136
-0.37273565858006086,5.823213699156044,-4.872823703730497,2.723157652879982
-6.0121270340760224,6.612801592974942,-5.340901938864749,1.4259172798670319
-11.637771075839089,3.452311506619709,-4.49381169156495,1.5707748200541096
-13.015068361339031,-1.429618339214694,-1.510106558712897,3.5253755688149053
-6.8476382991679445,-4.906087914670489,3.50726386859826,6.454591809329739
5.891697922792416,-5.098305834384985,8.989367067954745,8.784428271823703
19.15730899304933,-2.6637247932025345,12.349388434668976,8.997636466228682
25.068448312511602,-0.15097027545080827,11.419234418352506,6.403045524498874
19.28364118878751,0.16373782033437365,5.980020384663548,1.5356634252970824
4.392533305218117,-1.7652963377336306,-1.8048508727214156,-4.023049219476191
-11.563805700144302,-3.6586913475301857,-8.535007172433446,-8.355491434315404
-20.49882212607321,-2.836991240267973,-11.56172942053881,-10.107416780015118
-19.50900390637705,1.3848506795082764,-10.399608651853821,-9.097354992156744
-12.059566322021638,6.823814441160898,-6.608130291266682,-6.300703178523012
-4.595853919111478,9.847920453422134,-2.411808885884492,-3.23355801055253
-1.5514309696684938,8.013654319775693,0.7569492769406874,-1.109319582321931
-2.575968615077382,1.9012436193212066,2.741037282093951,-0.2557719657616496
-3.674840728195909,-5.2058609355822405,4.069896957365491,-0.10289646568816427
-0.9062102738832123,-9.496953057808781,5.0619824808362335,0.2962942559237733
6.306817073386686,-9.052320310739944,5.445984518195047,1.5622613702772594
14.532199825032066,-4.83995004140653,4.697713416637815,3.554799998610505
18.642820119785277,0.2640618458857357,2.6460050802190516,5.483810750812971
15.480349698781742,3.5991595151684597,-0.21413827134375982,6.4715667801752765
6.414189042001601,4.436438017991284,-2.8998723191606834,6.141556225383407
-3.109943562397812,4.103366212854868,-4.410902370129976,4.774330829925083
-7.122808102151015,4.50504429345977,-4.180557397693544,2.9144541566517077
-3.6059062738829826,6.218565297816217,-2.319209321473334,0.8002934818976125
3.4780558109882107,7.703594502246149,0.4063279431036694,-1.8056806423227714
6.699017993892318,6.377236534275554,2.861723678960451,-5.135281397229967
0.9347616913623947,0.8428584681843919,4.040748014417107,-8.671049964491687
-11.90669874333075,-7.461209875148306,3.5635692301258604,-10.90767113808855
-23.35611891436887,-14.630381096935732,1.8732999087192088,-10.073779988319977
-24.325438393870325,-16.620700281533033,-0.055244928503203665,-5.444529880353522
-12.178193445595216,-11.925732281842947,-1.3517857949253855,1.7618789082393334
6.752000201982096,-2.660894924658738,-1.800524064041441,8.738338485863945
21.425966562390794,6.71332618901726,-1.8961058283767047,12.604105399317666
23.884513402825785,12.07078000321359,-2.3530600513642184,12.05892023606549
14.464315294778737,11.838058544537482,-3.4314803760258994,8.007762792248993
0.6245233983846935,7.420390392203566,-4.58995185219026,2.7671167646922474
-9.132715556334752,1.88232104879998,-4.7494756636694575,-1.4794255322995997
-11.070782804471877,-1.996652048473328,-3.0260307574795284,-3.8336104279545076
-7.464541753366906,-3.080364321320154,0.5387844250545031,-4.738340739119298
-3.2333067722430386,-2.0924821084251946,4.747799058232711,-5.141626467607283
-1.5364186232555985,-0.8499800683862179,7.737040889210516,-5.581352145785902
-1.9879859868623693,-1.0308679357804809,7.967327647791869,-5.882939624738003
-2.22341880439213,-3.0653836676915893,5.156917538055509,-5.53505601044478
-0.6393059690151007,-5.706484302892462,0.5611192110987426,-4.264465227688746
2.317937735381527,-6.637632503595149,-3.639620552526071,-2.2854988710253816
5.057638538506441,-3.9609385607853684,-5.520310316332929,-0.08992685210787285
6.578849696142098,2.258109922448997,-4.446857012713771,1.9333114265719171
7.195014849949236,9.49306780181376,-1.3352231156480232,3.6615264016008613
7.678875842701669,13.885681791106222,1.980954351814512,5.063412338247021
7.881484460481743,12.48452884662726,3.822443063698594,5.92255597700194
6.393997290404897,5.2092698550030265,3.5126994237677636,5.815553864085953
1.8379102800946943,-4.780976243268002,1.5745676478224724,4.463033180346979
-5.247886537864661,-12.658927457366245,-0.7213915673510081,2.1736599766719507
-11.796110901308678,-14.575688571286937,-2.1394664756948987,-0.08862955253787907
-13.92864632741247,-9.855028391003646,-2.1829105510203863,-1.2352573503317759
-10.02064326464356,-1.4347164657498286,-1.3654556483535092,-0.8656787922102883
-2.5547016724271,5.795424875575679,-0.8532960056916237,0.3129454885278679
3.2619731584375753,7.907339144769211,-1.588045024540042,0.9226176751214606
3.520689448603966,4.393397755748675,-3.406530059872238,-0.025259008961419888
-0.9425893190332424,-1.4775724211526768,-4.870276198415934,-2.2831311172637823
-4.93556391622038,-4.868310266594399,-4.161801563129087,-4.490790488593104
-3.313134067464044,-2.8346288377727875,-0.5705169470693842,-5.239592578592413
4.154668746034162,3.3990798516365133,4.579028098643243,-4.207743336324334
11.881559264413198,9.192767565122162,8.491441028471671,-2.3811016407663743
12.785766264606297,9.928289751042184,8.764595848585907,-1.1482304822233036
4.430565853738702,4.593885156487199,5.190993415713238,-1.0636045726497532
-8.32497573105287,-3.341754760588006,0.007766102531030611,-1.3926244703259567
-16.689834237263696,-8.575454073077346,-3.7165101617661387,-0.8640528639513214
-14.695076357415523,-8.08100367606155,-4.32057330942372,1.0404657295716346
-3.772282648426183,-3.3624444098786603,-2.6122843290286517,3.4409520609016684
8.531399026927668,0.9817277041094215,-0.9185170665578494,4.687463213602716
14.428349922449986,1.1574996750260202,-0.9807305748252803,3.760965992862613
11.444517058814533,-2.7202116433624357,-2.503183306645956,1.2413045230624742
3.4290315702864933,-6.855361544832391,-3.551182907309018,-1.0174181241653097
-3.160054013320634,-7.043294872462603,-2.3857284441415234,-1.2755112971358515
-4.205400013499501,-2.19636150609308,0.8832020641223137,0.7561711491497568
-0.27120593507834423,4.774512218617359,4.2362588226019815,3.6962894921955334
4.8221262958827324,9.343362785818282,5.312661610579543,5.537036138628885
7.330016463132899,8.965141054904448,3.2971924540162227,5.102631657930481
6.025961619650777,4.948267997207745,-0.40214084112560605,2.792616023677262
2.296279848251144,1.1780410092071545,-3.200527666199837,0.09438338410583394
-1.5561149061934896,0.8302136701106202,-3.252357431995678,-1.6727530519032752
-4.169687988902402,3.7622011096641024,-0.7461093400700366,-2.3514008118799796
-5.810258241701111,6.648976912166627,2.3666865460557838,-2.9026473141757134
-7.61551556827468,5.717199204383594,3.90703751862481,-4.399100555153161
-10.148667583753076,-0.11204991611656483,3.0156264781949877,-6.8998570680526345
-12.451794068256358,-8.159076217179118,0.535020112676734,-9.149938746900824
-12.440126092346103,-13.835115781059844,-1.936681028333999,-9.394965418929234
-8.492600793818692,-13.950313526139201,-3.38561438427216,-6.709163443201361
-1.0791442369015034,-8.909128824233212,-3.923897478424791,-1.805163605926355
6.962206240347998,-2.1609322720116126,-4.145977665425352,3.32523411952081
11.975120674362824,2.5175130445194003,-4.057583289245783,6.693096684478812
11.892404854156075,3.672105062978115,-2.765011660052738,7.564471925975414
7.728793327181821,2.7399125410910257,0.6099925704085082,6.76506382321068
2.9592023863794594,2.3414238391524584,5.567867167631311,5.853673671800006
1.127422144641687,3.914082019342165,9.7980605689559,5.829121478467139
3.3511395313134305,6.626809619980091,10.379188182233458,6.355907930729744
7.503232491369185,8.249774807750406,5.900685422651959,6.076451141473287
9.705470872321982,7.034942787776807,-2.1294882032083833,3.762635048215537
7.167495941208002,3.039993004216932,-9.81975938827873,-0.5567355118865448
0.3921734544382876,-1.9885845704206353,-13.162859290997034,-5.350216927146711
-6.943660860474333,-5.8585828564616085,-10.511054802549166,-8.460444378092767
-10.56623162139714,-7.275531162258229,-3.557026271768501,-8.530656067773386
-8.86097834453402,-6.406920746982271,3.826167823198468,-5.959560961021024
-4.212198366746302,-4.450816127387855,8.059838275124356,-2.6350203783901383
-1.0702756080376106,-2.6296181008173485,7.969182356583943,-0.5682965845036673
-2.0698554197229693,-1.322342500945395,5.1525666187648484,-0.42231549116491557
-5.486652625897551,0.06978893674495094,2.4555745700064793,-1.0974574486607738
-6.560337521598041,2.401162095116546,1.7095356596492128,-0.7678814174918589
-1.9355542563070396,5.7045416251397825,2.4120080121634677,1.421919761387111
6.588042181765766,8.640808691924981,2.3439175762121924,4.4171730534705285
12.662845828133198,9.100298916131266,-0.3478242764312786,5.946149185939656
10.381408255132287,5.715858186591459,-5.262754340879058,4.373680997514076
-0.4006158701241711,-0.802042109130111,-9.652589679234945,0.20125045472492142
-13.145383166794854,-7.654896168233014,-10.33736845457711,-4.091898038323742
-19.262941806932037,-11.487856380554406,-6.187556696727585,-5.823878333658894
-14.622891598034052,-10.457263903490919,0.8283533570498763,-4.096523105372974
-2.5759222239365798,-5.347916976220873,6.933548667837111,-0.39147492486636815
8.914259103039823,1.038017321419673,9.175791158217983,2.6740053789789786
13.451753506071512,5.6886809832496885,7.31085110161983,3.3708198110821885
10.55773315382357,7.040105884700864,3.5006523820235835,2.0168513540242627
4.97304537750642,5.435632922898796,0.24429760695299235,0.42530206435863704
2.124752448278217,2.3786956083925745,-1.59533718676998,0.24020744034167782
3.882201606748532,-0.5918857151547545,-3.0074190913915806,1.6045981971223413
7.859375301678899,-2.562654088278731,-5.25274975812686,3.2049392872670452
10.133657420536055,-3.2315925704279,-8.042646442426518,3.5197248485618275
8.568488180692139,-2.6042658774776295,-9.224163114335678,2.1354027631276655
4.028860240633921,-0.8606953197138163,-6.391819233197211,0.03569637145416324
-0.9767202792576993,1.511306838344297,0.8327993308487827,-1.308725811500967
-4.578031271119099,3.5946109167509626,9.750696764014128,-1.2353359756112092
-6.7566526074489035,4.258763105143083,15.781637417348904,-0.4811709937433503
-8.766089609114058,2.7547979162506864,15.24900434641787,-0.5833477851316865
-11.556938969051824,-0.6454027635097612,7.888453108977111,-2.5626972618917403
-14.617113378042632,-4.478870907476411,-2.676400998185724,-5.9353130212589065
-16.123638670311408,-6.707565005605537,-10.925775907301166,-8.852232940160903
-14.236518641220341,-5.909578881934495,-12.702224986555374,-9.303478238142091
-8.530814995035893,-2.3021967819670937,-7.670803142052399,-6.501864696099944
-0.4913655246834947,2.217498700153684,0.5956979211335345,-1.419230610708802
7.291896504763778,5.222294030400263,6.941749813872689,3.899858674898499
12.613177048116462,5.374729272202174,7.8247783662455275,7.684314875394832
14.724615967945004,3.3111990486659955,3.3085296356611322,9.403504500528516
14.294216319143265,1.0575835513679441,-3.3436464565306268,9.676725250133874
12.474647522622304,0.38828840617731847,-8.022935916574536,9.333595804580163
9.950775882084733,1.41838680443941,-8.3776058667076,8.505495931025868
6.686719332969866,2.5574159528851013,-4.965463531033825,6.54035280753515
2.413639972336879,1.8632732441021351,-0.40441039348184354,2.7881363117445708
-2.651913176931132,-1.2793319324513017,2.6404296610463907,-2.4562611339079403
-7.429827052212278,-5.472312049665149,3.137810353215727,-7.714440175053075
-10.239609682557669,-8.150607415580428,1.9768926014417116,-11.081707038234962
-9.681761912809899,-7.359332378462423,0.8909785126870869,-11.454061866530107
-5.760883845364636,-3.194533782796048,0.9901571850674117,-9.284547999534217
-0.48883238328435813,2.1257369227138367,2.0347884500729867,-6.244496909986048
2.848746044118741,5.662195799646143,2.9113688283417827,-3.984032986106027
1.8185382160979853,5.710711336238437,2.7952567725374964,-2.9001314516169314
-2.9422794998549477,2.9500440204151297,1.9447190779202823,-1.8777425693230263
-7.4477693741914255,-0.10552236233481076,1.406217996196367,0.7204270893730214
-6.978787481831883,-1.0454264217561362,1.883154730400331,5.504656839641865
-0.052070557620028796,0.5224615555044179,2.8246197002963664,11.147778184905498
9.553600526237274,2.626452423374579,2.6822398972865193,14.918879386615531
14.986634840225035,2.565345491788136,0.26697756556474234,14.400692730569888
11.547949479863007,-0.694056527510359,-3.93004430406511,9.187949625862412
0.8086385917569933,-5.343626680019216,-7.704520779821188,1.3094315436323198
-10.068662717598466,-7.901425343516593,-8.604384163853384,-5.959192915109023
-13.62549146198964,-5.918749171451199,-5.777686979122588,-10.028228365041354
-7.83087540395179,-0.05907951148251278,-0.6807436021018739,-10.292268161059617
2.4683799706421747,6.200253978007464,3.9470440202515737,-7.979092224302223
9.509974499578046,9.070779521561317,5.9784692245695465,-4.889519808513376
8.617588018469798,7.176250396210481,5.120814670479263,-2.1509677710663797
1.3563120831538127,2.3561908727327516,2.606930569318146,0.0883562399993886
-6.384337641498818,-1.9837658262162465,-0.12634285111006777,2.021796683440405
-9.32386860885169,-3.53171565491148,-2.4635767252005283,3.4101506871858773
-6.530304327274893,-2.5942253043198273,-4.4981518097133515,3.498112308410831
-1.2754739509159196,-1.3984653930588347,-6.131901247702023,1.7314661109254612
2.239591669794137,-1.916508488517818,-6.48806705308172,-1.3950415688619606
2.2522735695605056,-4.054953614893196,-4.3776775980412825,-4.2019675382918
0.3390874554225127,-5.645324218070907,0.5066340012380195,-4.692047085774949
-0.39518748860678177,-4.212500014567314,6.7494374333615115,-1.9026212392827728
1.936767949364455,0.849811405377258,11.58932293522425,3.2076709006601587
6.452030356518233,7.365370269456271,12.425370133228151,8.040501135791358
10.11483406615023,11.500943398672893,8.47579293311109,9.759415141544084
9.932666800696607,10.26494626552891,1.445644650994866,7.007449122910306
5.158538861651905,3.6843820539236427,-5.313759265096639,0.8641040712493179
-2.011954513527352,-4.92582164421181,-8.700772909337166,-5.627591378536392
-7.757334210983384,-10.930801383869913,-7.655079287619662,-9.159909089067739
-9.103559889078918,-11.31447032413458,-3.6858634265077233,-8.07609636806653
-5.850212200777883,-6.54901064365051,0.2523081299621223,-3.3045772079617954
-0.5907964683950823,-0.06798419383685228,1.804194128901559,2.281729468582923
3.152946959240401,4.238334229900582,0.737046582659671,5.649260555482405
3.2835510805993136,4.630981156312507,-1.1857615809682582,5.359882894884449
0.286902623998806,2.346274995395723,-1.8704197799452427,2.198720339931259
-3.479394533289674,0.18275206622812662,-0.7364525875386079,-1.612933875427062
-5.639376604447161,0.11338391013892977,0.8204909212344443,-3.9557578068523367
-5.3665784439709405,1.8263206393033509,0.7810201905778313,-4.0231505526998514
-3.6423309727940767,3.2340669944087614,-1.4638294056409524,-2.484350380695727
-2.2019762090740778,2.4002937040331855,-4.196465760593818,-0.67878428449869
-2.036697034894375,-0.7173658939266966,-4.510329184014884,0.4419404265379084
-2.5612797188792378,-4.080198307428552,-0.7202415407580354,0.8512350860769575
-2.100378224167241,-5.066381756458564,5.878011950603496,1.1827042574189273
0.5909754907805544,-2.4972064468425326,11.427380365017276,2.009780154757718
4.952319000125177,2.3637950293889465,11.995295118435248,3.30663133780013
8.690071162092117,6.6291768951924,6.399543450553019,4.490441490779893
9.550726534781534,7.832665954493672,-2.701271564048233,4.910598348454058
7.439735790175843,5.634304740714833,-10.342728668379758,4.284753219737132
4.830559296029594,1.8416072691723862,-12.433636076863516,2.701669651006524
4.639748755654544,-1.2584168901739565,-8.38368667935934,0.29250715165841873
7.156315952734879,-2.8331120463183477,-1.326457233074747,-2.9608669730929345
8.966736664390012,-3.9956212503434494,4.208239085470562,-6.951145740213457
5.448668107264278,-6.367557273936051,5.45343462446222,-10.921932751619181
-4.838457709830718,-9.98782415462385,3.059629873997433,-13.323956170138636
-17.715201699856244,-12.570444150687704,0.07738109528274462,-12.476959431375493
-25.52708512668071,-11.037983368567383,-0.7965261636783952,-7.738894288465637
-22.633178473361323,-4.217927177316893,0.5946484199216379,-0.28464220325447526
-9.883985107686275,5.606019173043636,2.032502396589711,7.261815488602413
5.67376830009151,13.792695585941738,1.2047905323425199,12.24117163648269
15.706024877622644,16.4050613608046,-1.95369438610307,13.450366370561758
16.162184807839854,12.857958547053606,-4.963611033610928,11.632937376507952
9.227362678474874,6.079403350799356,-4.856363082808872,8.660691009230929
0.6390398326798614,0.15288329962437752,-0.8145626503925847,6.107608081145128
-4.866833814763742,-2.5827426886710643,4.905794571684352,4.319417394173552
-6.199466933228605,-2.7100561910250813,8.599363671957896,2.582860856022698
-5.1258477095381085,-2.496424457895316,7.927878762951413,0.07739951189437344
-3.636181243859002,-3.5556451419570294,3.5933489229766993,-3.2623079526825918
-2.181156549320514,-5.462738695652308,-1.4370348979221725,-6.633387834651128
-0.05417092733739878,-6.366004853416748,-4.374172915819175,-8.964587776569603
3.0523105470226937,-4.86950827364925,-4.616712265651886,-9.643481596779997
6.174410028100044,-1.446164616295039,-3.7352674224768148,-8.794956706637022
7.748396882285191,1.8485139331102138,-3.640541053605057,-6.99534664228731
7.049263928875877,3.080519120354638,-4.656403120303202,-4.774351808511861
4.919349776731706,2.0539584496882917,-5.205056367539837,-2.362017057132137
3.039902402090647,0.4051907294344426,-3.360562030370288,0.14946778606621425
2.375360357192792,0.05265895901341876,1.108971813842714,2.466032419032503
2.2260409478247896,1.3574138885525526,6.05402791018827,3.9949655500052397
0.8764507355328421,2.705897049451743,8.356308442300838,4.208732708789963
-2.568620811528959,2.0393654374270107,6.400161787842022,3.2332619201791486
-6.801889103753655,-0.9572419322455934,1.554235892359161,2.0938363322621933
-8.936939107647836,-4.103634530733438,-2.7087518101707597,2.1928365892862693
-7.0443832622044615,-4.394090549696758,-3.509368039348139,4.2073323302563095
-2.5147152216995132,-0.833196329875246,-0.9172412693407074,7.22453423504671
0.2643379754923298,4.165345774869984,2.0733264285353066,8.97214260868709
-2.5948293728390914,6.419261717022802,2.079212420075887,7.249041829552284
-10.393354786330825,3.554982923088099,-1.665114371252261,1.6340052000809535
-17.025979134941764,-2.585060465839577,-6.412817189163943,-5.862626023451449
-15.040945146041151,-7.089612588167294,-8.018140304796429,-11.856002397180722
-1.9096115527374122,-6.005820354218313,-4.391415236115225,-13.68195358485912
16.707873144797844,0.14545164877214922,2.600156074619789,-10.991165815197473
30.019378986195186,6.550742579582614,8.445359798957663,-5.671799120607045
29.65770539929513,8.027033262342874,9.481593409548083,-0.2691609574659218
15.903994242131,3.395945477430889,5.692309348391518,3.748709443131638
-2.4571116707749403,-3.4814079298191714,0.5294367732427744,6.5131611945837955
-14.57132575359117,-6.942301503827554,-2.019081910125301,8.825417966837128
-15.09469012793816,-4.268940390005022,-0.6439424129965113,10.792923344899888
-7.086981121108596,2.0883114561082237,2.3950615066134016,11.345576607716852
1.515003125795551,6.61648293091034,3.3142896771956485,9.079580633883685
4.407651508794263,5.293473430287421,0.024353304746134233,3.665448325036265
1.0912214826150164,-1.2243394376431775,-6.06801031969304,-3.43598011214201
-4.05017461539437,-8.252243742355933,-11.017997901734681,-9.606475373843905
-6.151801258433134,-10.783335831420862,-11.233371968231392,-12.594430950934386
-3.7614467424577462,-7.140744508947649,-6.093110256003888,-11.791726882335254
0.6398911106543406,0.16004248007858632,1.5737257957031485,-8.380545104007064
3.2509829529296925,6.626258840158132,7.3915086726896835,-4.362849811431369
2.1550392498830857,9.039681484045408,8.311340507040645,-1.2703548492673276
-1.3887243096851125,7.265103709199316,4.473652779838849,0.5368919996007191
-4.238043817329217,3.607366149415383,-1.1195535801920102,1.6262487938232817
-3.9553043358287336,0.661241251665483,-4.760621204125645,2.669250495808425
-0.6509189382319013,-0.4995700680042463,-4.447547203150415,3.7616532382341785
3.2176699555951704,-0.5680306282217715,-0.9143442749402814,4.39066829933706
4.827936799993829,-0.8641301778671706,3.26654256424991,3.9897801243038553
3.191025770628619,-1.9960907781207216,5.648147223771267,2.565136558292401
-0.13359591675137028,-3.4221800559712285,5.4188408762135385,0.858970998332631
-2.3471728055473724,-4.081420398545488,3.485668028191562,-0.08874378182322348
-1.6750705791140736,-3.359886211362562,1.376117566830067,0.3556840738577532
1.2452152942325023,-1.5235854777019973,0.03740436459108503,1.9723131568238117
3.930716415105328,0.6216490247578943,-0.5625458665417727,3.8039617976815165
4.0280186411121,2.3594256697162015,-0.9889284742896088,4.730538396839685
1.0641348885687785,3.35748488179505,-1.6764599443403558,4.10700097118817
-3.319966144839373,3.492331216141916,-2.6185466994658375,2.0822589261726345
-6.619151012375997,2.602830719915052,-3.4525094426789664,-0.5412870785903782
-7.089288546317968,0.5818695036782118,-3.6478976953424045,-2.774486974846813
-4.626095508777521,-2.260905703420803,-2.6554059041015328,-3.9514901237039983
-0.5557873390567382,-5.023613991779363,-0.167591775110318,-4.01154864116326
3.2639981849840827,-6.538157256253025,3.420380293772503,-3.41820110952098
5.420522500570373,-5.998040481435769,6.684854319833797,-2.7847281992007074
5.554005313688425,-3.3790554777045787,7.552693576499988,-2.455076329376128
4.378282426796371,0.6350028743990402,4.531018240112103,-2.3295145456861297
3.119616009695367,5.032012470042373,-1.923400213908791,-2.0577815281375935
2.6777166010752893,8.76736508331708,-9.07203478317574,-1.436454372411904
3.0474946902980315,10.843798384642136,-13.221867721429584,-0.6651462654353176
3.4122097763594588,10.401379137754956,-12.034248487025879,-0.2173152919055193
2.8091447528819655,7.051847537961096,-6.162415075763352,-0.4116141993217778
0.8139568147292167,1.3283583653272244,1.1331695804793964,-1.0519598482474404
-2.254195364094993,-5.187499912122505,6.240840875985523,-1.4773085850204253
-5.61158618316243,-10.369175572964084,7.640292938289795,-1.0279042065324435
-8.392325221980801,-12.495219366214561,6.609342853056149,0.42714466952556657
-9.851210251736687,-11.062924993045215,5.65232961318929,2.3330172300596916
-9.460888215464605,-6.942026653557711,6.030300483478786,3.814406441462364
-7.093146283786775,-1.8067474852371221,6.589427718683894,4.3009927781922075
-3.225494002678686,2.73708832232016,4.990064404698891,3.935628168461665
1.1081126276013347,5.773277007099932,0.2817628162716424,3.440075184002005
4.737658726453925,7.144654620821089,-5.5658147270154865,3.5209366718975565
6.876095934195052,7.09266501200597,-8.7886799510142,4.256545819456223
7.341699579965516,5.860179263260738,-6.8818211687117214,4.941000421699919
6.3977707738775695,3.5907010177058893,-0.984540116421756,4.534651065950843
4.488353098973332,0.5387542359530915,4.632393185682037,2.4158234628224036
2.1360818082058994,-2.6965867717253857,5.789808602152549,-1.1082177144134877
-0.053865657246787955,-5.226336006156516,1.7437864547010857,-4.902775836467374
-1.5122659781832384,-6.248865956413337,-4.171728662312719,-7.643911520923002
-1.9684391238207004,-5.469304826240064,-7.20996218974847,-8.544827607308026
-1.5947343845210664,-3.2326768340328402,-5.0179992607751736,-7.703249528797404
-0.8277118855961062,-0.3007803963325436,0.5266397526336664,-5.912052119161886
-0.017709564774390462,2.5052429301727757,4.901955682211399,-4.13199252491277
0.7415171435003355,4.539157997682827,4.594490037410474,-2.9686267640583304
1.4739457106903093,5.394085816896566,-0.1397752134172534,-2.401838751851448
2.1054339696265996,4.928348788889519,-5.535166647671494,-1.848472553892071
2.4448716691578563,3.3273392805912048,-7.273969740947087,-0.5224529381907093
2.333917831186285,1.1034585584671162,-3.772350392173228,2.032411573357016
1.7217706117443468,-1.0822211968079993,2.6850618993415964,5.482751015719975
0.5844514687404423,-2.701789783542165,7.692014483193604,8.642662076506328
-1.1062167155922555,-3.5186620426187143,7.9211906550396805,9.994466466078071
-3.1997230961716854,-3.5112147039759285,3.396111844638807,8.59813090009048
-5.167457398762658,-2.7216820268282396,-2.7087647580614296,4.819857596380234
-6.2576719376557675,-1.2689028232377924,-6.405783298779547,0.30543119706213595
-6.0244499759588495,0.48353186327412273,-5.563060845930095,-2.9040599030993617
-4.732540926055695,1.8922056196247892,-1.0566123089199728,-3.5841565042569026
-3.1345408483254626,2.3434710491907182,4.167316427041683,-2.0493965031654136
-1.754206761889953,1.7063697876448467,7.180133173930634,0.11763341501348626
-0.4101555674887985,0.4549863162887971,6.753644711881774,1.1434678638241316
1.4599352717574614,-0.7523225683171857,3.6680198269993736,0.2082221881442269
3.9569665154070472,-1.6602818233773946,-0.19434968346508938,-2.1011576108278702
6.254931063798567,-2.530375287483369,-3.0805026644642375,-4.288029266154753
7.091565892578683,-3.582274794227386,-4.132027564947558,-5.006307293684335
5.842198681738199,-4.3253381003966815,-3.480723569027719,-3.9441200072532467
3.186527460489381,-3.6059087999873496,-1.9342963287592325,-1.9493031892814368
0.7113843707650205,-0.5775212986017402,-0.5515132198812027,-0.3559403873647509
-0.2633311873868137,4.177044957549469,-0.2134900424852794,-0.018826043430984596
0.3245713154585549,8.504973006289918,-1.2103015966515571,-0.7415471417327797
1.2788387118870623,9.935247559337713,-2.9740615079908674,-1.4758422726446196
1.1481013365737023,7.484576507468742,-4.203056010158678,-1.10872993048834
-0.5426318353257823,2.5278851538382097,-3.508015117193601,0.7415506597472328
-2.825300729899966,-2.126730021203263,-0.362610396376597,3.4515644099837726
-4.0479920051870035,-4.337086826971223,4.210480776212157,5.7608068402146175
-3.342967939130416,-4.1894629152200835,7.829247875002751,6.477850708388573
-1.5612644783214766,-3.6407778324100835,7.995960310799971,5.082128698892187
-0.6737160083071375,-4.463398175714691,3.8153491373510913,1.9415133501189206
-1.9121825748035828,-6.291414202706334,-2.975705713392851,-1.879325519020546
-4.268417461896101,-6.66037248399269,-8.657704331507572,-5.080219947339176
-5.003586798659147,-3.265193323424697,-9.771732210724302,-6.655153863550169
-2.1333300371860564,3.4368547698076948,-5.538538323805933,-6.266440070329919
3.22450075961982,9.755430330538104,1.4194155071008554,-4.2734234063152465
7.1062321001667765,11.2436574620455,6.8493784476608335,-1.394167036733823
5.894830368700134,6.2926916538023,7.953813597792362,1.75663864412999
-0.1244330710588245,-2.2315225645388503,5.3676404791806895,4.873340282915118
-6.245564197257774,-8.918412059262309,2.34379946993728,7.725172877779286
-6.846705116759612,-9.86611574205624,1.7652985818038869,9.733004381946492
-0.2111581666542158,-5.488943061065368,3.533398131039222,9.878381009343887
9.554411742876558,0.25903914442623666,4.657454688240022,7.239600263769546
15.420309466938438,3.4430911865266713,2.0547222572302863,1.849083067701895
12.881320093966403,3.279964282306512,-4.3538858346004226,-4.863287773161609
3.409282119378766,2.158982293108206,-11.020067598787023,-10.568653191592317
-6.8963465383437965,2.803834773340227,-13.302066544713377,-13.26512860338366
-12.129298669585054,5.408309749246028,-9.13027323768918,-12.37584300480102
-10.74587249894747,7.428306671551401,-0.798880939795731,-8.917912774188826
-5.873251298069199,6.081764407844019,6.562845042115598,-4.670896422189648
-2.0607285290817887,1.0727097308805615,8.59361824968872,-1.043578987688981
-1.597157855054159,-5.0122538359245965,4.5911300504662345,1.5144985054423126
-3.34161064493717,-8.867237757795227,-2.331913664105511,3.2675673270714394
-4.460414617367524,-9.051128620754474,-7.625875756740712,4.540578430858439
-3.087364695528903,-6.663843485626973,-8.24163042129822,5.323922232445938
0.3580689951193352,-3.7816087264274576,-4.105608703441943,5.423173294320821
3.8958374252406105,-1.4262225064411587,2.4832301011578504,4.873414073268472
5.744332327118257,0.941392389662135,8.617999966442563,4.1195974647867954
5.594807235790267,4.117728337663682,12.278442114202315,3.74460836712465
4.588928272139945,7.579331291361146,12.7551945499759,3.984647802522271
4.242627483452978,9.355666900052366,10.228801347617294,4.472744418038702
5.196505499646902,7.58216527864144,5.273515374963606,4.446664841003873
6.6670477311099425,2.3159547712729722,-1.197423313152277,3.266844068462426
6.968043118206264,-4.071972038815653,-7.706827344760115,0.8560814112002711
4.75497520514049,-8.357334346014756,-12.29712786001899,-2.2387594353164677
0.1167276893664549,-8.628659632366764,-13.274203266494878,-5.163360441713917
-5.303330412299051,-5.469902344727557,-10.261487357998206,-7.194431171928545
-9.282361185528584,-1.3165803675800927,-4.705763471055962,-8.009950918778598
-10.385282046553984,1.4173212983772907,0.7846930825165558,-7.676104232775455
-8.742336465242735,1.9709025356830985,3.9915919317192388,-6.452798189967888
-5.754952483636147,1.4534703376599185,4.434479881081097,-4.609495422192213
-3.059900826663512,1.621821250643968,3.4576401384725917,-2.36727799757438
-1.5283154549457079,3.274863686674921,2.95369535552882,0.05582744666448577
-0.9108193819405099,5.539462461021949,3.730414875787673,2.3899543447029195
-0.24885755250640837,6.558307821426828,4.839712720680471,4.310079185595057
1.2624723545398453,4.978659031613697,4.418059046517495,5.483255317524194
