timestamps,TP9,AF7,AF8,TP10,Right AUX
1679679915.674,-58.105,-32.715,-30.273,-62.012,0.000
1679679915.678,-131.348,-34.668,-37.109,-74.707,0.000
1679679915.682,-55.664,-25.879,-38.086,-61.035,0.000
1679679915.685,65.430,-15.625,-12.207,-44.434,0.000
1679679915.689,83.008,-25.391,1.465,-33.203,0.000
1679679915.693,-36.621,-45.410,-20.996,-65.430,0.000
1679679915.697,-150.879,-36.133,-45.898,-101.074,0.000
1679679915.701,-88.379,-24.414,-43.457,-76.172,0.000
1679679915.705,40.039,-21.484,-20.996,-48.828,0.000
1679679915.709,51.270,-24.902,-16.113,-57.617,0.000
1679679915.713,-50.781,-28.320,-27.344,-75.684,0.000
1679679915.717,-141.602,-36.133,-40.039,-83.984,0.000
1679679915.721,-97.656,-45.410,-31.738,-68.848,0.000
1679679915.724,23.926,-29.785,-20.020,-42.969,0.000
1679679915.728,51.758,-17.578,-26.855,-49.316,0.000
1679679915.732,-24.414,-23.926,-26.855,-62.988,0.000
1679679915.736,-110.840,-32.227,-31.250,-67.383,0.000
1679679915.740,-95.703,-36.621,-29.297,-59.082,0.000
1679679915.744,12.207,-19.531,-26.855,-42.969,0.000
1679679915.748,59.082,-17.578,-35.645,-45.898,0.000
1679679915.752,-14.648,-36.133,-40.039,-62.500,0.000
1679679915.756,-104.980,-34.668,-42.480,-69.824,0.000
1679679915.760,-99.609,-25.391,-29.297,-55.664,0.000
1679679915.764,4.395,-18.066,-21.484,-43.457,0.000
1679679915.767,75.195,-8.301,-26.855,-42.480,0.000
1679679915.771,8.301,-23.438,-32.715,-49.805,0.000
1679679915.775,-105.469,-48.340,-33.691,-54.688,0.000
1679679915.779,-117.188,-52.734,-25.391,-49.805,0.000
1679679915.783,-15.137,-40.039,-30.273,-39.062,0.000
1679679915.787,62.988,-20.508,-41.504,-32.715,0.000
1679679915.791,24.414,-32.715,-40.039,-42.969,0.000
1679679915.795,-83.984,-50.293,-40.527,-57.129,0.000
1679679915.799,-122.559,-54.688,-33.203,-50.781,0.000
1679679915.803,-26.855,-25.879,-23.438,-37.109,0.000
1679679915.806,51.270,-3.418,-31.250,-45.898,0.000
1679679915.810,18.066,-20.996,-30.762,-55.176,0.000
1679679915.814,-80.078,-45.898,-34.668,-59.570,0.000
1679679915.818,-127.441,-56.152,-41.992,-57.617,0.000
1679679915.822,-54.199,-43.457,-33.203,-42.480,0.000
1679679915.826,49.316,-26.367,-27.832,-37.109,0.000
1679679915.830,66.895,-9.277,-33.203,-32.227,0.000
1679679915.834,-34.180,-20.996,-30.273,-26.855,0.000
1679679915.838,-130.371,-41.016,-12.695,-33.691,0.000
1679679915.842,-72.266,-30.762,-9.277,-34.180,0.000
1679679915.846,44.922,-24.902,-16.113,-32.227,0.000
1679679915.849,49.805,-43.945,-18.066,-42.480,0.000
1679679915.853,-73.242,-53.711,-29.785,-71.777,0.000
1679679915.857,-169.434,-46.387,-36.621,-88.379,0.000
1679679915.861,-90.332,-30.273,-19.531,-59.082,0.000
1679679915.865,45.410,-25.879,-18.555,-31.250,0.000
1679679915.869,56.641,-63.965,-27.832,-39.062,0.000
1679679915.873,-40.527,-76.660,-40.039,-51.270,0.000
1679679915.877,-133.301,-50.781,-52.734,-56.152,0.000
1679679915.881,-89.844,-21.973,-29.785,-53.711,0.000
1679679915.885,26.367,-7.324,-11.719,-45.898,0.000
1679679915.889,52.246,-20.508,-21.484,-43.945,0.000
1679679915.892,-24.902,-26.367,-23.438,-43.457,0.000
1679679915.896,-114.258,-36.133,-20.020,-42.969,0.000
1679679915.900,-95.703,-37.598,-27.344,-37.598,0.000
1679679915.904,15.137,-21.973,-31.250,-31.250,0.000
1679679915.908,65.430,-37.109,-27.344,-24.902,0.000
1679679915.912,-9.277,-60.059,-31.738,-35.645,0.000
1679679915.916,-112.793,-41.992,-28.809,-49.316,0.000
1679679915.920,-103.027,-10.254,-21.484,-36.621,0.000
1679679915.924,7.324,-8.789,-18.555,-29.785,0.000
1679679915.928,69.336,-20.996,-11.230,-29.297,0.000
1679679915.931,7.324,-23.926,-16.602,-30.762,0.000
1679679915.935,-107.422,-28.320,-24.902,-36.133,0.000
1679679915.939,-125.000,-29.785,-19.043,-34.668,0.000
1679679915.943,-26.367,-25.879,-22.949,-44.434,0.000
1679679915.947,56.152,-15.625,-30.273,-47.363,0.000
1679679915.951,21.484,-23.926,-25.391,-46.875,0.000
1679679915.955,-105.469,-36.621,-24.902,-56.641,0.000
1679679915.959,-137.207,-39.551,-34.180,-44.434,0.000
1679679915.963,-25.391,-42.969,-41.016,-18.555,0.000
1679679915.967,54.199,-25.391,-34.668,-23.926,0.000
1679679915.971,18.555,-9.277,-24.414,-41.504,0.000
1679679915.974,-89.355,-36.133,-34.180,-51.758,0.000
1679679915.978,-141.602,-55.176,-47.363,-53.223,0.000
1679679915.982,-34.180,-29.297,-29.297,-29.297,0.000
1679679915.986,73.730,-9.277,-20.508,-19.043,0.000
1679679915.990,27.344,-31.738,-33.203,-35.156,0.000
1679679915.994,-94.238,-59.570,-30.762,-47.363,0.000
1679679915.998,-151.367,-52.734,-36.133,-54.688,0.000
1679679916.002,-69.824,-30.273,-35.645,-43.457,0.000
1679679916.006,47.852,-28.809,-24.414,-26.367,0.000
1679679916.010,48.340,-30.273,-30.762,-33.691,0.000
1679679916.014,-62.988,-22.461,-41.016,-49.316,0.000
1679679916.017,-145.996,-34.180,-44.922,-49.805,0.000
1679679916.021,-79.102,-35.645,-35.645,-29.297,0.000
1679679916.025,54.199,-26.367,-25.879,-7.324,0.000
1679679916.029,65.430,-20.996,-25.879,-20.020,0.000
1679679916.033,-55.176,-33.203,-28.320,-48.340,0.000
1679679916.037,-152.344,-49.316,-39.551,-48.340,0.000
1679679916.041,-92.773,-31.250,-46.875,-32.715,0.000
1679679916.045,37.109,-15.625,-23.926,-22.949,0.000
1679679916.049,67.383,-22.949,-12.695,-30.273,0.000
1679679916.053,-14.160,-30.762,-27.832,-38.086,0.000
1679679916.056,-105.957,-35.645,-27.344,-31.250,0.000
1679679916.060,-98.145,-30.762,-11.230,-33.203,0.000
1679679916.064,9.766,-23.926,-5.371,-39.062,0.000
1679679916.068,49.805,-31.250,-17.578,-44.434,0.000
1679679916.072,-36.621,-42.969,-29.297,-60.547,0.000
1679679916.076,-139.648,-54.199,-33.203,-69.336,0.000
1679679916.080,-131.348,-45.410,-25.879,-56.152,0.000
1679679916.084,-10.254,-29.297,-17.578,-45.898,0.000
1679679916.088,62.988,-20.996,-14.648,-36.133,0.000
1679679916.092,4.395,-37.598,-15.625,-36.133,0.000
1679679916.096,-114.746,-46.387,-34.180,-51.758,0.000
1679679916.099,-132.812,-45.410,-54.199,-44.434,0.000
1679679916.103,-28.809,-41.992,-43.945,-31.738,0.000
1679679916.107,55.176,-22.949,-25.391,-33.203,0.000
1679679916.111,9.766,-26.367,-27.344,-38.574,0.000
1679679916.115,-112.305,-44.922,-32.227,-50.293,0.000
1679679916.119,-127.441,-41.504,-32.227,-49.316,0.000
1679679916.123,-25.879,-32.227,-25.391,-32.227,0.000
1679679916.127,49.316,-33.691,-19.043,-31.250,0.000
1679679916.131,11.719,-24.902,-31.738,-46.875,0.000
1679679916.135,-102.539,-28.809,-39.551,-56.152,0.000
1679679916.138,-131.836,-56.152,-30.762,-42.969,0.000
1679679916.142,-20.508,-41.016,-30.273,-20.508,0.000
1679679916.146,73.730,-14.160,-40.527,-15.137,0.000
1679679916.150,43.457,-7.812,-39.551,-19.043,0.000
1679679916.154,-76.660,-22.949,-31.250,-38.574,0.000
1679679916.158,-142.090,-38.086,-27.344,-48.828,0.000
1679679916.162,-54.688,-17.090,-18.555,-30.762,0.000
1679679916.166,53.223,-7.324,-12.207,-23.926,0.000
1679679916.170,41.992,-19.531,-21.484,-31.250,0.000
1679679916.174,-62.012,-28.320,-27.832,-37.598,0.000
1679679916.178,-137.695,-43.457,-26.367,-45.410,0.000
1679679916.181,-63.965,-45.410,-18.555,-27.832,0.000
1679679916.185,57.617,-27.832,-21.973,-14.160,0.000
1679679916.189,72.266,-18.555,-25.879,-20.996,0.000
1679679916.193,-33.691,-32.227,-21.973,-29.297,0.000
1679679916.197,-142.578,-43.457,-34.180,-41.992,0.000
1679679916.201,-88.867,-32.715,-34.180,-33.203,0.000
1679679916.205,41.016,-5.371,-18.555,-20.996,0.000
1679679916.209,63.477,5.859,-14.160,-25.391,0.000
1679679916.213,-33.203,-17.090,-18.555,-40.527,0.000
1679679916.217,-126.465,-27.344,-20.020,-48.340,0.000
1679679916.221,-84.961,-19.043,-18.555,-32.715,0.000
1679679916.224,34.180,-24.414,-21.484,-26.855,0.000
1679679916.228,72.754,-41.992,-21.484,-22.949,0.000
1679679916.232,-10.254,-50.781,-25.391,-25.391,0.000
1679679916.236,-115.234,-50.781,-37.598,-43.945,0.000
1679679916.240,-101.562,-48.828,-28.320,-42.969,0.000
1679679916.244,35.156,-25.391,-0.977,-0.977,0.000
1679679916.248,103.516,-12.695,0.000,11.230,0.000
1679679916.252,5.859,-11.230,-20.996,-31.250,0.000
1679679916.256,-117.676,-17.578,-33.203,-61.523,0.000
1679679916.260,-114.746,-24.902,-32.715,-52.246,0.000
1679679916.263,8.301,-12.695,-28.320,-28.809,0.000
1679679916.267,84.473,-4.883,-19.043,-21.484,0.000
1679679916.271,10.742,-21.484,-29.785,-41.504,0.000
1679679916.275,-105.469,-31.738,-44.922,-62.012,0.000
1679679916.279,-121.582,-22.949,-41.992,-49.805,0.000
1679679916.283,-20.508,-15.137,-34.180,-32.227,0.000
1679679916.287,76.172,-12.695,-23.926,-27.344,0.000
1679679916.291,44.434,-26.855,-29.785,-33.691,0.000
1679679916.295,-90.820,-43.457,-46.387,-55.664,0.000
1679679916.299,-135.742,-36.133,-48.828,-62.988,0.000
1679679916.303,-20.020,-23.926,-36.621,-41.992,0.000
1679679916.306,65.918,-21.973,-28.320,-35.156,0.000
1679679916.310,27.344,-23.438,-34.668,-51.758,0.000
1679679916.314,-87.891,-54.199,-47.363,-60.059,0.000
1679679916.318,-139.160,-58.594,-53.711,-49.316,0.000
1679679916.322,-61.523,-17.090,-44.434,-41.992,0.000
1679679916.326,37.109,-16.113,-24.414,-44.434,0.000
1679679916.330,31.738,-27.344,-22.461,-47.363,0.000
1679679916.334,-81.543,-23.438,-30.762,-53.711,0.000
1679679916.338,-148.926,-42.480,-32.715,-45.898,0.000
1679679916.342,-69.336,-47.852,-28.320,-30.762,0.000
1679679916.346,38.574,-10.254,-28.320,-27.832,0.000
1679679916.349,30.762,5.859,-32.715,-41.016,0.000
1679679916.353,-61.035,-16.113,-32.715,-45.410,0.000
1679679916.357,-131.836,-35.156,-38.086,-50.781,0.000
1679679916.361,-71.777,-36.133,-43.945,-35.645,0.000
1679679916.365,56.152,-17.578,-28.320,-11.230,0.000
1679679916.369,67.383,-16.113,-17.090,-23.438,0.000
1679679916.373,-60.059,-31.738,-31.250,-49.805,0.000
1679679916.377,-152.344,-43.945,-32.227,-54.688,0.000
1679679916.381,-99.609,-49.316,-31.250,-39.551,0.000
1679679916.385,20.996,-29.785,-28.809,-28.320,0.000
1679679916.388,58.105,-23.438,-21.973,-37.598,0.000
1679679916.392,-29.297,-26.367,-32.227,-43.945,0.000
1679679916.396,-128.418,-28.320,-47.363,-44.434,0.000
1679679916.400,-99.609,-33.691,-36.621,-30.273,0.000
1679679916.404,32.715,-33.691,-17.090,-13.184,0.000
1679679916.408,78.613,-26.855,-22.949,-18.066,0.000
1679679916.412,-6.348,-35.156,-36.133,-28.809,0.000
1679679916.416,-109.863,-42.969,-39.062,-40.527,0.000
1679679916.420,-101.074,-27.832,-41.992,-39.062,0.000
1679679916.424,4.883,-26.367,-32.715,-31.738,0.000
1679679916.428,61.523,-27.832,-21.484,-29.785,0.000
1679679916.431,7.324,-31.738,-27.832,-40.039,0.000
1679679916.435,-103.027,-41.504,-42.969,-46.387,0.000
1679679916.439,-120.117,-21.973,-40.527,-40.527,0.000
1679679916.443,-4.395,-5.371,-21.973,-26.855,0.000
1679679916.447,70.312,-19.531,-17.578,-14.160,0.000
1679679916.451,11.719,-19.531,-28.320,-26.855,0.000
1679679916.455,-105.469,-32.715,-28.809,-45.410,0.000
1679679916.459,-134.277,-44.922,-20.020,-42.969,0.000
1679679916.463,-32.715,-20.508,-17.578,-25.879,0.000
1679679916.467,47.363,-19.043,-19.043,-26.855,0.000
1679679916.471,5.859,-42.969,-18.555,-35.645,0.000
1679679916.474,-110.352,-47.852,-28.320,-46.875,0.000
1679679916.478,-130.859,-26.855,-46.387,-35.156,0.000
1679679916.482,-14.160,-18.555,-33.203,12.695,0.000
1679679916.486,54.688,-14.648,0.000,1.465,0.000
1679679916.490,4.883,-11.230,7.324,-39.062,0.000
1679679916.494,-116.699,-39.551,-15.625,-60.059,0.000
1679679916.498,-194.824,-58.105,-31.250,-70.801,0.000
1679679916.502,-120.605,-49.316,-15.137,-60.547,0.000
1679679916.506,-4.883,-41.992,1.465,-54.199,0.000
1679679916.510,-8.301,-50.781,8.789,-50.781,0.000
1679679916.513,-123.047,-66.406,0.977,-59.082,0.000
1679679916.517,-211.426,-51.758,-11.230,-78.613,0.000
1679679916.521,-136.230,-36.133,-2.930,-63.965,0.000
1679679916.525,-12.207,-41.016,5.859,-41.992,0.000
1679679916.529,-25.391,-48.340,-2.930,-46.875,0.000
1679679916.533,-124.023,-55.176,2.930,-53.711,0.000
1679679916.537,-193.848,-57.617,9.766,-55.664,0.000
1679679916.541,-141.602,-56.641,2.930,-38.086,0.000
1679679916.545,-23.926,-49.805,8.301,-24.902,0.000
1679679916.549,20.996,-45.410,10.742,-21.484,0.000
1679679916.553,-68.359,-46.387,-6.836,-33.203,0.000
1679679916.556,-174.805,-58.594,-19.043,-48.828,0.000
1679679916.560,-137.207,-53.711,-14.648,-33.691,0.000
1679679916.564,-11.719,-23.438,-6.348,-17.090,0.000
1679679916.568,40.039,-19.531,-4.883,-21.973,0.000
1679679916.572,-35.645,-29.785,-14.648,-31.250,0.000
1679679916.576,-137.207,-35.645,-16.602,-30.762,0.000
1679679916.580,-128.418,-38.086,-4.883,-19.531,0.000
1679679916.584,-17.090,-35.156,-4.395,-10.254,0.000
1679679916.588,39.062,-30.762,-11.719,-14.648,0.000
1679679916.592,-14.160,-36.133,-12.695,-20.508,0.000
1679679916.596,-118.652,-41.504,-20.996,-21.973,0.000
1679679916.599,-130.859,-38.574,-20.996,-20.020,0.000
1679679916.603,-12.695,-30.762,-13.672,-6.348,0.000
1679679916.607,56.641,-16.602,-18.555,-11.230,0.000
1679679916.611,2.441,-17.090,-19.043,-26.855,0.000
1679679916.615,-111.816,-38.086,-28.809,-39.551,0.000
1679679916.619,-127.930,-60.059,-26.855,-28.809,0.000
1679679916.623,-8.789,-44.922,-8.789,0.000,0.000
1679679916.627,61.035,-17.090,-20.020,-10.254,0.000
1679679916.631,15.625,-19.531,-27.344,-27.344,0.000
1679679916.635,-86.914,-31.250,-19.531,-30.762,0.000
1679679916.638,-132.324,-34.180,-25.391,-38.086,0.000
1679679916.642,-24.902,-26.367,-25.879,-21.484,0.000
1679679916.646,76.172,-29.785,-19.043,-4.395,0.000
1679679916.650,30.762,-34.668,-21.484,-15.625,0.000
1679679916.654,-78.613,-35.156,-28.809,-23.926,0.000
1679679916.658,-135.742,-41.992,-28.320,-20.996,0.000
1679679916.662,-54.199,-40.527,-23.926,-9.766,0.000
1679679916.666,48.340,-34.668,-29.785,-6.836,0.000
1679679916.670,23.926,-29.785,-34.180,-22.461,0.000
1679679916.674,-85.938,-34.180,-39.551,-32.715,0.000
1679679916.678,-164.062,-45.898,-36.621,-44.922,0.000
1679679916.681,-83.984,-42.969,-20.508,-28.809,0.000
1679679916.685,36.133,-24.414,-22.461,-6.348,0.000
1679679916.689,40.039,-18.066,-33.203,-14.160,0.000
1679679916.693,-54.688,-41.016,-34.180,-19.043,0.000
1679679916.697,-147.949,-73.242,-35.156,-31.250,0.000
1679679916.701,-99.121,-67.383,-30.273,-20.508,0.000
1679679916.705,26.855,-27.344,-20.508,-2.930,0.000
1679679916.709,46.875,-20.508,-28.320,-11.719,0.000
1679679916.713,-52.246,-43.945,-33.203,-22.461,0.000
1679679916.717,-145.996,-48.828,-29.297,-30.273,0.000
1679679916.721,-100.586,-21.973,-28.809,-15.137,0.000
1679679916.724,24.414,-5.371,-19.531,2.930,0.000
1679679916.728,66.406,-21.484,-17.578,5.371,0.000
1679679916.732,-9.277,-37.598,-29.297,8.301,0.000
1679679916.736,-140.625,-40.039,-29.297,-9.766,0.000
1679679916.740,-143.555,-37.109,-23.926,-15.625,0.000
1679679916.744,4.395,-31.738,-21.973,14.160,0.000
1679679916.748,58.105,-27.832,-21.973,6.348,0.000
1679679916.752,-43.457,-36.133,-33.691,-22.461,0.000
1679679916.756,-152.832,-44.434,-48.340,-32.715,0.000
1679679916.760,-130.859,-43.457,-44.922,-17.090,0.000
1679679916.763,-10.254,-36.621,-29.785,-0.977,0.000
1679679916.767,52.246,-22.949,-25.879,-11.230,0.000
1679679916.771,-5.859,-28.320,-41.016,-24.414,0.000
1679679916.775,-116.211,-44.434,-49.316,-25.879,0.000
1679679916.779,-133.301,-40.527,-31.250,-21.973,0.000
1679679916.783,-15.137,-18.066,-15.625,-14.160,0.000
1679679916.787,83.496,-20.020,-10.742,-0.488,0.000
1679679916.791,30.762,-52.246,-10.254,-11.719,0.000
1679679916.795,-104.492,-50.781,-24.902,-24.414,0.000
1679679916.799,-136.719,-29.297,-33.203,-20.996,0.000
1679679916.803,-30.762,-13.672,-24.902,-20.020,0.000
1679679916.806,57.617,-4.395,-22.461,-20.020,0.000
1679679916.810,23.438,-24.902,-27.832,-25.879,0.000
1679679916.814,-88.867,-41.504,-32.715,-32.715,0.000
1679679916.818,-145.508,-29.297,-29.785,-30.762,0.000
1679679916.822,-52.734,-13.672,-15.137,-16.113,0.000
1679679916.826,63.477,-15.625,-8.301,-1.953,0.000
1679679916.830,45.898,-34.668,-20.996,-11.719,0.000
1679679916.834,-79.590,-57.129,-38.574,-52.734,0.000
1679679916.838,-154.297,-55.664,-42.480,-60.059,0.000
1679679916.842,-74.707,-37.109,-33.203,-36.621,0.000
1679679916.846,51.270,-27.344,-26.367,-21.973,0.000
1679679916.849,55.176,-23.926,-33.203,-27.832,0.000
1679679916.853,-58.105,-31.738,-33.691,-45.410,0.000
1679679916.857,-142.090,-45.898,-29.785,-46.875,0.000
1679679916.861,-82.031,-32.715,-30.762,-32.715,0.000
1679679916.865,37.598,-18.066,-19.531,-22.949,0.000
1679679916.869,55.176,-28.809,-16.113,-24.414,0.000
1679679916.873,-42.969,-34.668,-35.645,-46.875,0.000
1679679916.877,-130.859,-35.156,-43.457,-54.688,0.000
1679679916.881,-89.844,-40.039,-32.227,-31.738,0.000
1679679916.885,17.578,-34.668,-24.414,-24.902,0.000
1679679916.888,49.805,-16.602,-22.461,-32.227,0.000
1679679916.892,-28.809,-29.297,-29.785,-47.852,0.000
1679679916.896,-129.883,-53.711,-33.691,-57.617,0.000
1679679916.900,-110.840,-48.340,-18.066,-41.016,0.000
1679679916.904,13.672,-28.320,-10.254,-25.879,0.000
1679679916.908,65.918,-13.184,-13.672,-36.133,0.000
1679679916.912,-8.789,-13.184,-23.438,-53.711,0.000
1679679916.916,-126.953,-41.504,-47.852,-69.824,0.000
1679679916.920,-90.332,-41.016,-39.062,-23.926,0.000
1679679916.924,29.785,-6.836,-18.555,-12.695,0.000
1679679916.928,32.227,4.883,-24.902,-79.590,0.000
1679679916.931,-27.344,-19.531,-30.762,-93.750,0.000
1679679916.935,-116.211,-43.945,-35.156,-83.496,0.000
1679679916.939,-127.930,-44.922,-36.133,-76.172,0.000
1679679916.943,-27.832,-20.508,-21.484,-69.336,0.000
1679679916.947,34.668,0.977,-19.531,-68.359,0.000
1679679916.951,-11.719,-21.973,-25.391,-75.195,0.000
1679679916.955,-129.883,-41.504,-40.527,-97.168,0.000
1679679916.959,-159.668,-24.414,-51.270,-94.727,0.000
1679679916.963,-50.781,-11.230,-39.551,-65.430,0.000
1679679916.967,45.410,-25.879,-31.250,-54.688,0.000
1679679916.970,13.184,-24.902,-24.414,-67.871,0.000
1679679916.974,-100.098,-23.438,-29.785,-85.449,0.000
1679679916.978,-138.672,-20.996,-33.691,-75.195,0.000
1679679916.982,-40.527,-18.066,-20.508,-41.992,0.000
1679679916.986,66.895,-20.508,-10.254,-32.715,0.000
1679679916.990,47.852,-22.461,-10.742,-37.109,0.000
1679679916.994,-80.078,-45.898,-23.926,-56.152,0.000
1679679916.998,-154.785,-49.316,-45.898,-80.078,0.000
1679679917.002,-68.848,-26.855,-46.387,-59.082,0.000
1679679917.006,47.852,-10.742,-37.598,-41.992,0.000
1679679917.010,41.504,-13.672,-41.992,-56.152,0.000
1679679917.013,-67.383,-28.320,-52.246,-68.359,0.000
1679679917.017,-144.043,-42.969,-46.387,-73.242,0.000
1679679917.021,-73.730,-35.156,-24.414,-54.199,0.000
1679679917.025,46.875,-5.371,-14.160,-34.180,0.000
1679679917.029,56.641,-5.371,-23.926,-41.992,0.000
1679679917.033,-54.199,-35.156,-41.016,-56.152,0.000
1679679917.037,-154.785,-34.180,-46.875,-73.242,0.000
1679679917.041,-107.422,-11.719,-34.668,-68.848,0.000
1679679917.045,18.066,-3.906,-22.949,-49.805,0.000
1679679917.049,51.270,-12.207,-21.484,-47.852,0.000
1679679917.053,-41.992,-19.531,-34.668,-58.105,0.000
1679679917.056,-131.348,-28.809,-42.969,-56.641,0.000
1679679917.060,-87.891,-28.809,-31.738,-41.016,0.000
1679679917.064,40.527,-21.484,-20.020,-25.879,0.000
1679679917.068,87.891,-25.879,-7.812,-17.578,0.000
1679679917.072,-14.160,-36.621,-21.484,-36.133,0.000
1679679917.076,-131.348,-39.062,-49.805,-62.988,0.000
1679679917.080,-100.586,-25.391,-40.039,-57.129,0.000
1679679917.084,17.578,-13.184,-27.344,-36.133,0.000
1679679917.088,65.430,-10.742,-25.391,-23.926,0.000
1679679917.092,-4.395,-21.973,-33.203,-38.086,0.000
1679679917.096,-115.234,-30.273,-42.480,-49.805,0.000
1679679917.099,-107.910,-35.645,-31.738,-31.250,0.000
1679679917.103,2.930,-31.250,-27.344,-29.297,0.000
1679679917.107,73.242,-18.555,-26.855,-41.016,0.000
1679679917.111,20.020,-40.527,-18.555,-48.828,0.000
1679679917.115,-108.398,-51.758,-25.879,-65.430,0.000
1679679917.119,-127.930,-32.227,-25.879,-58.105,0.000
1679679917.123,-12.207,-12.695,-15.137,-38.086,0.000
1679679917.127,73.242,-1.953,-15.137,-32.227,0.000
1679679917.131,38.574,-23.438,-24.414,-30.273,0.000
1679679917.135,-79.102,-37.598,-32.227,-44.922,0.000
1679679917.138,-130.371,-38.086,-25.879,-55.664,0.000
1679679917.142,-24.902,-41.504,-11.230,-26.367,0.000
1679679917.146,67.871,-20.020,-18.555,-14.160,0.000
1679679917.150,30.762,-16.113,-48.828,-38.574,0.000
1679679917.154,-82.031,-43.945,-50.293,-57.129,0.000
1679679917.158,-140.625,-41.504,-32.715,-49.316,0.000
1679679917.162,-50.781,-16.113,-28.809,-27.832,0.000
1679679917.166,51.758,-5.859,-28.320,-25.391,0.000
1679679917.170,44.922,-23.438,-26.367,-29.785,0.000
1679679917.174,-54.199,-49.805,-35.156,-34.668,0.000
1679679917.178,-114.746,-54.688,-25.879,-34.668,0.000
1679679917.181,-36.133,-47.852,-12.207,-20.996,0.000
1679679917.185,46.387,-29.785,-29.785,-24.902,0.000
1679679917.189,33.203,-8.301,-36.133,-33.691,0.000
1679679917.193,-53.223,-21.484,-36.133,-44.922,0.000
1679679917.197,-130.371,-37.598,-39.062,-59.570,0.000
1679679917.201,-82.031,-35.156,-25.879,-41.504,0.000
1679679917.205,43.457,-30.762,-15.137,-21.973,0.000
1679679917.209,72.754,-34.180,-18.555,-24.902,0.000
1679679917.213,-30.273,-47.363,-31.738,-44.922,0.000
1679679917.217,-117.676,-48.828,-31.250,-48.828,0.000
1679679917.221,-68.848,-36.621,-27.344,-33.203,0.000
1679679917.224,46.875,-19.043,-23.926,-38.574,0.000
1679679917.228,80.566,-2.441,-22.461,-40.527,0.000
1679679917.232,3.418,-7.812,-25.391,-39.062,0.000
1679679917.236,-97.168,-31.738,-33.691,-43.945,0.000
1679679917.240,-79.102,-35.645,-29.297,-30.762,0.000
1679679917.244,34.668,-36.621,-15.137,-23.438,0.000
1679679917.248,88.379,-41.504,-15.625,-30.762,0.000
1679679917.252,24.414,-26.855,-12.207,-30.273,0.000
1679679917.256,-83.496,-28.320,-20.020,-42.480,0.000
1679679917.260,-78.125,-24.902,-40.039,-49.316,0.000
1679679917.263,13.672,-18.555,-44.434,-44.434,0.000
1679679917.267,70.312,-20.996,-42.969,-39.551,0.000
1679679917.271,24.414,-18.066,-40.039,-49.805,0.000
1679679917.275,-91.797,-37.598,-31.250,-57.617,0.000
1679679917.279,-111.328,-49.316,-20.020,-45.898,0.000
1679679917.283,10.254,-9.277,-20.508,-26.367,0.000
1679679917.287,104.004,0.488,-28.320,-11.230,0.000
1679679917.291,29.297,-30.762,-33.691,-43.457,0.000
1679679917.295,-119.629,-48.340,-37.598,-80.078,0.000
1679679917.299,-155.762,-55.664,-34.180,-73.242,0.000
1679679917.303,-37.109,-47.363,-30.273,-36.621,0.000
1679679917.306,77.148,-37.598,-22.949,-10.742,0.000
1679679917.310,41.016,-41.016,-34.668,-31.250,0.000
1679679917.314,-79.102,-44.922,-51.758,-48.828,0.000
1679679917.318,-128.418,-35.645,-42.969,-54.199,0.000
1679679917.322,-40.527,-20.996,-27.344,-44.922,0.000
1679679917.326,67.383,-22.949,-23.438,-34.180,0.000
1679679917.330,39.551,-30.762,-33.203,-41.016,0.000
1679679917.334,-86.426,-34.180,-42.480,-53.711,0.000
1679679917.338,-137.695,-41.992,-36.621,-52.246,0.000
1679679917.342,-45.410,-47.852,-24.414,-27.832,0.000
1679679917.345,57.617,-25.879,-15.137,-18.066,0.000
1679679917.349,46.875,-13.672,-20.508,-34.668,0.000
1679679917.353,-54.688,-32.715,-26.855,-41.992,0.000
1679679917.357,-132.812,-41.016,-25.391,-48.340,0.000
1679679917.361,-72.266,-24.414,-24.414,-36.133,0.000
1679679917.365,42.480,-30.273,-24.414,-24.902,0.000
1679679917.369,56.152,-33.203,-27.832,-31.250,0.000
1679679917.373,-42.969,-27.832,-30.762,-37.109,0.000
1679679917.377,-133.301,-38.086,-27.832,-49.805,0.000
1679679917.381,-86.426,-39.062,-23.926,-38.086,0.000
1679679917.385,46.387,-25.879,-25.879,-14.648,0.000
1679679917.388,82.520,-11.230,-24.902,-20.996,0.000
1679679917.392,-21.484,-32.227,-23.926,-39.062,0.000
1679679917.396,-117.676,-51.270,-32.715,-40.527,0.000
1679679917.400,-87.891,-33.691,-31.738,-23.926,0.000
1679679917.404,18.555,-24.902,-32.227,-23.926,0.000
1679679917.408,66.406,-19.531,-31.250,-39.062,0.000
1679679917.412,-9.766,-26.855,-34.180,-44.434,0.000
1679679917.416,-116.211,-36.133,-34.668,-48.828,0.000
1679679917.420,-100.098,-29.785,-25.879,-38.574,0.000
1679679917.424,27.344,-32.227,-24.414,-17.090,0.000
1679679917.428,97.168,-18.555,-27.344,-17.090,0.000
1679679917.431,16.602,-22.461,-40.527,-41.016,0.000
1679679917.435,-107.910,-54.199,-45.410,-56.641,0.000
1679679917.439,-120.605,-44.922,-35.645,-47.363,0.000
1679679917.443,-6.348,-20.508,-31.250,-29.785,0.000
1679679917.447,76.172,-12.695,-30.273,-31.738,0.000
1679679917.451,23.438,-19.043,-34.180,-39.062,0.000
1679679917.455,-88.379,-47.363,-32.715,-34.668,0.000
1679679917.459,-119.141,-48.340,-32.715,-35.156,0.000
1679679917.463,-25.879,-21.973,-30.762,-37.109,0.000
1679679917.467,67.871,-11.230,-20.508,-28.320,0.000
1679679917.471,33.691,-19.043,-27.832,-31.738,0.000
1679679917.474,-77.637,-27.344,-31.250,-47.363,0.000
1679679917.478,-118.164,-38.086,-23.926,-50.293,0.000
1679679917.482,-36.133,-32.227,-23.926,-29.785,0.000
1679679917.486,66.895,-10.742,-31.738,-25.391,0.000
1679679917.490,44.922,-26.367,-39.551,-44.922,0.000
1679679917.494,-77.637,-44.434,-46.875,-53.711,0.000
1679679917.498,-139.160,-39.551,-44.434,-49.316,0.000
1679679917.502,-49.805,-8.301,-26.855,-28.320,0.000
1679679917.506,61.523,-14.648,-23.438,-19.531,0.000
1679679917.510,43.457,-43.945,-33.203,-42.969,0.000
1679679917.513,-72.754,-43.945,-32.227,-65.430,0.000
1679679917.517,-154.785,-35.645,-26.855,-62.500,0.000
1679679917.521,-90.332,-38.086,-26.367,-43.457,0.000
1679679917.525,36.621,-26.367,-22.461,-33.691,0.000
1679679917.529,53.711,-17.090,-20.508,-38.086,0.000
1679679917.533,-51.758,-35.156,-31.250,-51.270,0.000
1679679917.537,-134.277,-46.875,-36.621,-58.105,0.000
1679679917.541,-83.008,-25.879,-31.250,-39.551,0.000
1679679917.545,29.785,-22.461,-28.809,-31.738,0.000
1679679917.549,61.035,-39.551,-27.344,-39.551,0.000
1679679917.553,-34.180,-25.391,-27.344,-45.898,0.000
1679679917.556,-144.531,-28.320,-28.809,-57.617,0.000
1679679917.560,-104.492,-39.551,-25.879,-49.805,0.000
1679679917.564,37.109,-16.602,-21.484,-20.508,0.000
1679679917.568,79.102,-8.789,-23.926,-15.625,0.000
1679679917.572,-10.254,-35.156,-28.320,-34.180,0.000
1679679917.576,-126.465,-32.227,-32.227,-50.293,0.000
1679679917.580,-104.004,-26.855,-35.156,-30.273,0.000
1679679917.584,36.133,-48.340,-38.574,-5.859,0.000
1679679917.588,83.984,-40.527,-41.992,-25.879,0.000
1679679917.592,9.277,-17.578,-35.156,-46.387,0.000
1679679917.596,-105.469,-19.043,-37.109,-53.711,0.000
1679679917.599,-122.070,-19.531,-38.086,-42.480,0.000
1679679917.603,-7.812,-11.230,-32.227,-27.832,0.000
1679679917.607,69.824,-10.254,-30.762,-33.203,0.000
1679679917.611,15.137,-27.832,-41.016,-46.875,0.000
1679679917.615,-99.609,-51.758,-54.688,-47.363,0.000
1679679917.619,-117.676,-44.434,-43.457,-29.297,0.000
1679679917.623,-12.207,-25.391,-23.926,-20.996,0.000
1679679917.627,72.266,-15.137,-25.391,-21.973,0.000
1679679917.631,29.297,-18.555,-36.133,-35.156,0.000
1679679917.635,-95.703,-37.109,-48.828,-51.270,0.000
1679679917.638,-140.137,-41.504,-46.387,-57.617,0.000
1679679917.642,-37.109,-22.461,-24.414,-34.668,0.000
1679679917.646,65.918,-10.254,-26.367,-20.508,0.000
1679679917.650,31.738,-32.715,-34.668,-41.504,0.000
1679679917.654,-87.891,-49.805,-26.367,-49.805,0.000
1679679917.658,-144.531,-35.156,-20.508,-43.457,0.000
1679679917.662,-60.547,-26.855,-19.043,-31.250,0.000
1679679917.666,50.781,-15.137,-23.438,-33.691,0.000
1679679917.670,40.039,-13.184,-28.809,-40.527,0.000
1679679917.674,-66.406,-29.785,-34.180,-41.992,0.000
1679679917.678,-142.090,-46.387,-42.480,-54.199,0.000
1679679917.681,-77.148,-42.480,-33.203,-43.457,0.000
1679679917.685,38.574,-36.133,-20.508,-35.156,0.000
1679679917.689,55.664,-31.250,-19.043,-33.203,0.000
1679679917.693,-45.898,-22.461,-25.391,-49.805,0.000
1679679917.697,-135.254,-25.391,-30.762,-56.641,0.000
1679679917.701,-84.961,-37.598,-26.367,-30.273,0.000
1679679917.705,34.180,-31.738,-17.578,-14.160,0.000
1679679917.709,55.664,-23.926,-26.367,-26.855,0.000
1679679917.713,-48.828,-32.715,-36.621,-41.016,0.000
1679679917.717,-140.137,-39.551,-35.156,-47.363,0.000
1679679917.720,-95.215,-23.438,-31.250,-38.086,0.000
1679679917.724,42.969,-9.766,-17.090,-7.812,0.000
1679679917.728,79.590,-7.324,-20.508,-14.160,0.000
1679679917.732,-21.973,-14.648,-38.574,-46.387,0.000
1679679917.736,-129.395,-38.086,-38.086,-59.570,0.000
1679679917.740,-111.328,-38.086,-27.344,-42.969,0.000
1679679917.744,23.438,-19.531,-24.902,-15.625,0.000
1679679917.748,80.078,-14.160,-33.203,-20.508,0.000
1679679917.752,0.488,-17.090,-33.203,-44.434,0.000
1679679917.756,-113.770,-31.250,-23.438,-52.734,0.000
1679679917.760,-120.605,-31.738,-23.438,-35.645,0.000
1679679917.763,3.906,-21.973,-27.832,-13.184,0.000
1679679917.767,79.590,-12.207,-37.598,-21.973,0.000
1679679917.771,14.648,-27.832,-35.156,-36.133,0.000
1679679917.775,-96.191,-53.223,-16.113,-36.621,0.000
1679679917.779,-118.652,-56.152,-21.973,-28.809,0.000
1679679917.783,-12.207,-38.086,-26.367,-15.137,0.000
1679679917.787,73.730,-12.695,-16.602,-14.648,0.000
1679679917.791,23.926,-7.812,-12.695,-24.414,0.000
1679679917.795,-102.051,-26.367,-22.949,-42.969,0.000
1679679917.799,-136.719,-35.156,-31.250,-50.781,0.000
1679679917.803,-22.461,-25.391,-20.508,-28.320,0.000
1679679917.806,67.383,-20.508,-17.090,-13.184,0.000
1679679917.810,33.203,-36.621,-18.066,-22.461,0.000
1679679917.814,-63.965,-50.781,-19.531,-32.227,0.000
1679679917.818,-129.395,-45.898,-20.996,-35.156,0.000
1679679917.822,-53.223,-27.832,-26.367,-31.250,0.000
1679679917.826,62.500,-16.113,-28.809,-29.785,0.000
1679679917.830,36.621,-17.090,-25.879,-32.715,0.000
1679679917.834,-74.219,-24.414,-20.996,-36.133,0.000
1679679917.838,-125.977,-29.297,-24.414,-35.156,0.000
1679679917.842,-50.781,-29.297,-29.297,-31.738,0.000
1679679917.846,58.105,-20.996,-28.809,-26.367,0.000
1679679917.849,48.340,-29.297,-32.715,-40.527,0.000
1679679917.853,-60.547,-44.434,-24.902,-52.734,0.000
1679679917.857,-130.859,-54.688,-25.391,-48.828,0.000
1679679917.861,-69.336,-50.293,-33.203,-36.621,0.000
1679679917.865,44.434,-28.320,-26.367,-26.855,0.000
1679679917.869,55.664,-27.344,-16.602,-30.273,0.000
1679679917.873,-47.363,-40.527,-19.531,-41.992,0.000
1679679917.877,-122.559,-45.898,-17.090,-31.738,0.000
1679679917.881,-48.828,-43.945,-1.953,13.672,0.000
1679679917.885,54.688,-20.020,-14.648,-2.930,0.000
1679679917.888,57.617,-10.254,-31.250,-35.156,0.000
1679679917.892,-17.578,-38.574,-36.133,-39.062,0.000
1679679917.896,-112.793,-48.340,-41.016,-51.758,0.000
1679679917.900,-106.445,-40.039,-40.039,-46.387,0.000
1679679917.904,10.254,-36.133,-33.691,-32.715,0.000
1679679917.908,48.340,-28.320,-32.227,-36.621,0.000
1679679917.912,-22.949,-30.273,-35.645,-42.969,0.000
1679679917.916,-104.492,-32.715,-37.109,-38.086,0.000
1679679917.920,-97.168,-21.484,-29.297,-30.273,0.000
1679679917.924,11.230,-19.531,-27.832,-15.137,0.000
1679679917.928,82.031,-17.578,-30.273,-6.348,0.000
1679679917.931,23.926,-25.391,-28.809,-15.137,0.000
1679679917.935,-99.121,-46.387,-39.062,-33.691,0.000
1679679917.939,-123.535,-53.223,-43.945,-35.645,0.000
1679679917.943,-6.348,-29.785,-32.715,-17.090,0.000
1679679917.947,69.336,-25.879,-26.855,-23.926,0.000
1679679917.951,18.555,-58.105,-25.879,-39.551,0.000
1679679917.955,-90.332,-62.012,-31.738,-48.340,0.000
1679679917.959,-112.793,-27.832,-40.527,-44.922,0.000
1679679917.963,9.766,5.859,-33.691,-9.766,0.000
1679679917.967,88.867,3.418,-25.391,-5.371,0.000
1679679917.971,25.879,-7.812,-28.320,-38.574,0.000
1679679917.974,-97.656,-23.438,-30.762,-59.570,0.000
1679679917.978,-148.438,-41.992,-34.668,-67.871,0.000
1679679917.982,-41.016,-38.086,-28.320,-49.316,0.000
1679679917.986,78.125,-23.438,-18.066,-27.344,0.000
1679679917.990,55.664,-34.180,-25.391,-34.668,0.000
1679679917.994,-66.406,-49.805,-34.668,-47.363,0.000
1679679917.998,-136.719,-38.574,-29.297,-52.734,0.000
1679679918.002,-43.457,-20.996,-14.160,-30.762,0.000
1679679918.006,75.195,-9.277,-27.344,-27.832,0.000
1679679918.010,54.199,-0.488,-41.992,-52.734,0.000
1679679918.013,-57.129,-18.555,-31.738,-59.082,0.000
1679679918.017,-131.836,-43.945,-31.250,-49.805,0.000
1679679918.021,-74.707,-41.992,-33.691,-27.832,0.000
1679679918.025,34.180,-13.672,-15.137,-22.461,0.000
1679679918.029,47.363,-8.301,-16.602,-30.762,0.000
1679679918.033,-48.828,-32.715,-31.738,-42.480,0.000
1679679918.037,-140.137,-40.039,-35.156,-54.688,0.000
1679679918.041,-88.379,-42.969,-33.203,-39.551,0.000
1679679918.045,42.480,-39.551,-30.762,-18.555,0.000
1679679918.049,57.129,-26.855,-35.645,-17.578,0.000
1679679918.053,-45.410,-26.855,-49.316,-28.809,0.000
1679679918.056,-129.395,-30.762,-42.480,-39.062,0.000
1679679918.060,-100.098,-40.527,-14.648,-30.762,0.000
1679679918.064,1.953,-36.621,-18.555,-32.227,0.000
1679679918.068,38.086,-23.438,-35.645,-43.457,0.000
1679679918.072,-41.992,-36.621,-42.969,-53.223,0.000
1679679918.076,-147.461,-45.410,-43.457,-59.082,0.000
1679679918.080,-111.328,-38.574,-44.922,-39.062,0.000
1679679918.084,53.223,-28.809,-30.762,12.207,0.000
1679679918.088,81.543,-29.297,-10.254,-4.883,0.000
1679679918.092,-34.668,-46.387,-14.160,-48.340,0.000
1679679918.095,-120.117,-52.246,-21.973,-34.180,0.000
1679679918.099,-117.188,-40.039,-28.809,-21.973,0.000
1679679918.103,-2.441,-20.020,-25.879,-15.625,0.000
1679679918.107,85.938,-12.207,-18.555,-8.301,0.000
1679679918.111,18.066,-34.668,-34.668,-21.973,0.000
1679679918.115,-106.445,-54.199,-48.828,-38.574,0.000
1679679918.119,-121.582,-49.805,-45.410,-33.691,0.000
1679679918.123,-13.184,-33.203,-31.738,-15.625,0.000
1679679918.127,74.707,-14.648,-16.602,-5.371,0.000
1679679918.131,34.668,-13.672,-15.137,-9.766,0.000
1679679918.135,-83.008,-28.809,-24.414,-21.973,0.000
1679679918.138,-121.094,-28.809,-24.414,-19.043,0.000
1679679918.142,-3.906,-16.602,-4.883,12.695,0.000
1679679918.146,92.285,-11.230,-5.859,12.695,0.000
1679679918.150,34.668,-20.020,-25.391,-18.066,0.000
1679679918.154,-83.008,-34.668,-33.691,-30.762,0.000
1679679918.158,-136.230,-33.203,-33.691,-25.879,0.000
1679679918.162,-43.457,-30.273,-33.691,-0.977,0.000
1679679918.166,63.477,-40.039,-24.414,10.254,0.000
1679679918.170,42.480,-29.297,-14.648,1.465,0.000
1679679918.174,-59.570,-15.625,-12.207,-14.160,0.000
1679679918.178,-132.812,-37.598,-15.137,-19.531,0.000
1679679918.181,-58.105,-36.133,-20.508,8.789,0.000
1679679918.185,51.270,-5.371,-23.926,12.207,0.000
1679679918.189,39.551,-10.742,-35.156,-13.184,0.000
1679679918.193,-62.012,-38.086,-44.922,-20.508,0.000
1679679918.197,-140.137,-35.645,-41.504,-13.184,0.000
1679679918.201,-78.613,-29.297,-27.344,2.930,0.000
1679679918.205,43.457,-26.367,-21.973,20.020,0.000
1679679918.209,68.848,-22.949,-28.320,17.090,0.000
1679679918.213,-25.879,-31.250,-24.414,1.465,0.000
1679679918.217,-130.371,-46.387,-22.461,-3.906,0.000
1679679918.220,-91.309,-37.109,-20.996,8.301,0.000
1679679918.224,36.621,-23.438,-12.695,17.090,0.000
1679679918.228,79.590,-13.672,-11.230,10.254,0.000
1679679918.232,-17.578,-8.789,-20.020,-14.648,0.000
1679679918.236,-140.137,-35.645,-42.480,-35.156,0.000
1679679918.240,-119.629,-43.945,-52.246,-20.996,0.000
1679679918.244,0.977,-34.180,-36.133,-6.836,0.000
1679679918.248,52.246,-26.855,-31.738,-13.672,0.000
1679679918.252,-21.484,-29.297,-41.504,-33.691,0.000
1679679918.256,-135.742,-51.758,-37.109,-48.340,0.000
1679679918.260,-132.324,-46.387,-30.273,-39.551,0.000
1679679918.263,-9.766,-30.762,-33.203,-17.090,0.000
1679679918.267,53.711,-25.391,-23.438,-10.254,0.000
1679679918.271,-15.137,-22.461,-26.855,-27.344,0.000
1679679918.275,-125.000,-47.363,-41.504,-39.062,0.000
1679679918.279,-134.766,-62.988,-45.410,-33.691,0.000
1679679918.283,-21.484,-34.180,-41.504,-28.809,0.000
1679679918.287,64.941,-20.996,-34.668,-26.367,0.000
1679679918.291,21.973,-34.180,-25.879,-26.855,0.000
1679679918.295,-101.074,-35.645,-18.066,-36.621,0.000
1679679918.299,-153.809,-27.832,-22.949,-44.922,0.000
1679679918.303,-44.434,-20.020,-20.508,-30.762,0.000
1679679918.306,67.383,-15.625,-6.836,-14.160,0.000
1679679918.310,25.391,-19.043,-18.066,-31.738,0.000
1679679918.314,-106.445,-42.480,-40.039,-62.500,0.000
1679679918.318,-144.043,-46.387,-29.785,-53.711,0.000
1679679918.322,-44.434,-40.039,-26.855,-37.109,0.000
1679679918.326,43.457,-30.762,-39.062,-40.039,0.000
1679679918.330,30.273,-17.578,-41.016,-41.504,0.000
1679679918.334,-73.242,-25.391,-33.691,-51.270,0.000
1679679918.338,-140.137,-38.574,-18.066,-52.734,0.000
1679679918.342,-63.477,-33.203,-11.719,-38.574,0.000
1679679918.345,48.828,-0.977,-10.254,-21.973,0.000
1679679918.349,38.086,-0.977,-24.414,-47.363,0.000
1679679918.353,-67.383,-26.855,-39.062,-64.453,0.000
1679679918.357,-147.949,-50.781,-38.574,-62.012,0.000
1679679918.361,-89.355,-48.828,-37.109,-47.852,0.000
1679679918.365,41.016,-12.207,-35.645,-32.715,0.000
1679679918.369,54.199,-9.766,-41.992,-46.875,0.000
1679679918.373,-52.734,-38.574,-40.527,-55.664,0.000
1679679918.377,-144.043,-47.363,-32.227,-60.059,0.000
1679679918.381,-91.309,-46.387,-21.973,-46.875,0.000
1679679918.385,33.203,-31.250,-15.137,-30.762,0.000
1679679918.388,57.129,-17.090,-21.973,-36.621,0.000
1679679918.392,-39.062,-30.762,-30.762,-53.711,0.000
1679679918.396,-127.930,-35.156,-36.621,-65.430,0.000
1679679918.400,-88.867,-33.691,-32.715,-40.039,0.000
1679679918.404,27.344,-42.969,-12.695,-10.742,0.000
1679679918.408,64.941,-32.227,-20.020,-26.367,0.000
1679679918.412,-12.695,-14.648,-34.668,-55.176,0.000
1679679918.416,-121.094,-24.902,-30.273,-58.594,0.000
1679679918.420,-132.324,-33.691,-30.762,-45.410,0.000
1679679918.424,-5.859,-25.391,-21.484,-27.832,0.000
1679679918.427,68.848,-23.438,-20.996,-29.785,0.000
1679679918.431,7.324,-25.879,-27.344,-40.527,0.000
1679679918.435,-97.168,-34.668,-28.320,-47.363,0.000
1679679918.439,-115.234,-50.781,-22.949,-44.434,0.000
1679679918.443,-15.625,-44.434,-18.555,-36.133,0.000
1679679918.447,59.570,-22.461,-27.832,-38.574,0.000
1679679918.451,10.742,-16.602,-34.180,-46.875,0.000
1679679918.455,-98.145,-21.973,-33.691,-60.547,0.000
1679679918.459,-108.887,-35.645,-33.203,-49.805,0.000
1679679918.463,0.488,-37.598,-27.344,-23.438,0.000
1679679918.467,77.148,-21.973,-23.438,-17.578,0.000
1679679918.470,34.180,-21.484,-25.391,-32.227,0.000
1679679918.474,-88.867,-28.809,-26.367,-55.176,0.000
1679679918.478,-137.207,-37.598,-28.809,-56.641,0.000
1679679918.482,-35.156,-52.246,-20.508,-34.180,0.000
1679679918.486,64.453,-34.180,-18.066,-26.367,0.000
1679679918.490,31.738,-18.066,-30.762,-50.781,0.000
1679679918.494,-79.590,-24.414,-36.621,-66.895,0.000
1679679918.498,-135.254,-19.043,-30.273,-59.570,0.000
1679679918.502,-44.922,-11.719,-16.602,-40.527,0.000
1679679918.506,65.918,-6.348,-14.160,-32.227,0.000
1679679918.510,53.223,-13.672,-23.438,-37.598,0.000
1679679918.513,-49.316,-34.668,-23.926,-41.992,0.000
1679679918.517,-110.352,-49.316,-25.879,-42.480,0.000
1679679918.521,-40.039,-51.270,-28.320,-28.809,0.000
1679679918.525,51.758,-35.645,-19.531,-37.598,0.000
1679679918.529,49.316,-22.949,-13.672,-42.480,0.000
1679679918.533,-52.246,-25.879,-21.973,-41.016,0.000
1679679918.537,-145.996,-39.551,-41.992,-70.312,0.000
1679679918.541,-97.656,-37.109,-46.875,-60.547,0.000
1679679918.545,37.598,-21.484,-26.367,-26.855,0.000
1679679918.549,74.707,-22.949,-17.090,-29.297,0.000
1679679918.552,-17.578,-44.922,-21.484,-48.828,0.000
1679679918.556,-123.535,-44.434,-19.043,-59.570,0.000
1679679918.560,-98.633,-30.762,-26.367,-49.316,0.000
1679679918.564,18.555,-30.273,-31.250,-40.039,0.000
1679679918.568,57.129,-18.066,-18.555,-41.992,0.000
1679679918.572,-30.762,-20.020,-26.855,-49.805,0.000
1679679918.576,-143.555,-37.598,-33.203,-68.848,0.000
1679679918.580,-116.699,-37.598,-21.484,-53.711,0.000
1679679918.584,1.465,-29.297,-29.785,-34.180,0.000
1679679918.588,46.875,-16.113,-30.273,-43.457,0.000
1679679918.592,-10.254,-26.367,-15.625,-55.176,0.000
1679679918.595,-114.258,-53.711,-22.461,-67.871,0.000
1679679918.599,-123.047,-43.457,-34.180,-62.012,0.000
1679679918.603,-3.906,-35.645,-27.832,-34.180,0.000
1679679918.607,72.754,-43.945,-27.344,-32.715,0.000
1679679918.611,5.371,-31.250,-45.898,-52.246,0.000
1679679918.615,-112.793,-21.973,-48.828,-67.871,0.000
1679679918.619,-131.836,-23.438,-42.969,-64.941,0.000
1679679918.623,-23.438,-11.719,-49.316,-49.316,0.000
1679679918.627,57.129,-8.789,-49.805,-36.621,0.000
1679679918.631,12.695,-22.461,-35.645,-49.805,0.000
1679679918.635,-101.074,-37.109,-28.809,-70.312,0.000
1679679918.638,-134.766,-34.668,-24.414,-63.965,0.000
1679679918.642,-28.809,-29.785,-20.508,-42.969,0.000
1679679918.646,67.383,-26.855,-28.809,-35.645,0.000
1679679918.650,33.691,-33.691,-34.668,-48.340,0.000
1679679918.654,-75.195,-55.176,-32.227,-57.617,0.000
1679679918.658,-141.602,-51.270,-41.504,-59.082,0.000
1679679918.662,-58.105,-13.184,-39.062,-37.109,0.000
1679679918.666,57.617,-0.977,-34.668,-22.461,0.000
1679679918.670,45.898,-12.207,-30.762,-35.156,0.000
1679679918.674,-71.777,-30.273,-34.668,-55.176,0.000
1679679918.678,-154.785,-50.781,-47.852,-67.383,0.000
1679679918.681,-72.266,-48.340,-35.156,-47.363,0.000
1679679918.685,58.594,-27.344,-19.531,-27.832,0.000
1679679918.689,60.059,-17.090,-24.414,-37.598,0.000
1679679918.693,-55.176,-17.090,-36.133,-54.688,0.000
1679679918.697,-141.602,-31.738,-31.250,-55.664,0.000
1679679918.701,-75.684,-33.691,-27.344,-46.875,0.000
1679679918.705,38.574,-16.602,-26.367,-46.875,0.000
1679679918.709,52.246,-16.113,-23.926,-50.293,0.000
1679679918.713,-40.039,-34.180,-31.250,-57.129,0.000
1679679918.717,-141.602,-45.410,-41.016,-60.547,0.000
1679679918.720,-96.680,-41.016,-45.410,-50.781,0.000
1679679918.724,27.344,-36.621,-48.340,-45.410,0.000
1679679918.728,66.406,-37.598,-36.621,-43.945,0.000
1679679918.732,1.465,-40.527,-23.926,-27.344,0.000
1679679918.736,-113.281,-39.551,-27.832,-38.086,0.000
1679679918.740,-121.582,-20.996,-28.320,-58.594,0.000
1679679918.744,1.953,-7.324,-21.484,-43.945,0.000
1679679918.748,58.105,-13.672,-21.973,-41.016,0.000
1679679918.752,-13.184,-21.973,-29.785,-51.270,0.000
1679679918.756,-123.047,-35.156,-40.039,-56.152,0.000
1679679918.760,-134.766,-55.176,-36.621,-52.734,0.000
1679679918.763,-7.324,-44.922,-33.203,-29.785,0.000
1679679918.767,73.730,-29.785,-46.387,-22.461,0.000
1679679918.771,5.371,-50.293,-46.387,-40.527,0.000
1679679918.775,-102.051,-50.293,-35.645,-41.504,0.000
1679679918.779,-115.723,-23.438,-30.762,-40.527,0.000
1679679918.783,-13.184,-18.555,-24.414,-32.227,0.000
1679679918.787,79.102,-15.137,-13.672,-14.648,0.000
1679679918.791,28.809,-7.812,-15.625,-25.879,0.000
1679679918.795,-101.074,-21.973,-32.715,-50.293,0.000
1679679918.799,-124.023,-42.969,-31.738,-41.504,0.000
1679679918.802,-3.906,-44.434,-15.625,-17.090,0.000
1679679918.806,92.285,-18.066,-12.207,-9.766,0.000
1679679918.810,46.875,-19.531,-29.785,-27.832,0.000
1679679918.814,-75.684,-38.574,-36.621,-42.480,0.000
1679679918.818,-123.047,-46.875,-29.297,-33.691,0.000
1679679918.822,-25.391,-29.297,-27.344,-12.207,0.000
1679679918.826,75.684,-8.789,-31.250,-11.719,0.000
1679679918.830,55.664,-15.625,-33.691,-32.715,0.000
1679679918.834,-50.293,-29.297,-27.344,-41.992,0.000
1679679918.838,-114.258,-35.645,-22.949,-44.922,0.000
1679679918.842,-34.668,-28.320,-13.672,-22.949,0.000
1679679918.845,74.219,-15.137,-10.254,-9.766,0.000
1679679918.849,62.988,-15.137,-28.809,-25.879,0.000
1679679918.853,-48.828,-22.461,-45.410,-46.387,0.000
1679679918.857,-134.277,-20.996,-42.969,-48.828,0.000
1679679918.861,-66.406,-26.367,-28.809,-21.484,0.000
1679679918.865,77.148,-27.832,-23.926,-0.488,0.000
1679679918.869,67.383,-18.555,-31.738,-27.832,0.000
1679679918.873,-62.988,-22.949,-37.598,-52.246,0.000
1679679918.877,-140.137,-37.598,-30.273,-46.387,0.000
1679679918.881,-91.797,-30.273,-18.066,-39.062,0.000
1679679918.885,31.738,-28.320,-20.508,-22.949,0.000
1679679918.888,48.340,-52.734,-36.133,-38.086,0.000
1679679918.892,-38.574,-40.527,-35.645,-52.246,0.000
1679679918.896,-130.371,-20.508,-30.762,-52.734,0.000
1679679918.900,-114.258,-27.832,-30.762,-50.293,0.000
1679679918.904,6.836,-30.273,-26.367,-25.391,0.000
1679679918.908,60.059,-21.973,-19.043,-15.625,0.000
1679679918.912,-18.066,-30.762,-20.996,-37.109,0.000
1679679918.916,-124.512,-37.598,-28.809,-49.316,0.000
1679679918.920,-113.770,-21.973,-24.414,-33.691,0.000
1679679918.924,12.695,-4.883,-19.043,-15.137,0.000
1679679918.927,78.613,-1.465,-18.066,-13.672,0.000
1679679918.931,-1.465,-18.066,-19.043,-31.250,0.000
1679679918.935,-114.258,-41.504,-27.832,-53.223,0.000
1679679918.939,-116.211,-50.293,-25.879,-48.340,0.000
1679679918.943,-2.441,-37.109,-18.066,-27.832,0.000
1679679918.947,75.195,-29.297,-23.438,-22.949,0.000
1679679918.951,22.949,-25.391,-33.691,-34.180,0.000
1679679918.955,-100.586,-24.414,-30.762,-49.805,0.000
1679679918.959,-136.719,-29.785,-34.180,-51.270,0.000
1679679918.963,-29.785,-23.438,-33.691,-34.668,0.000
1679679918.967,62.500,-7.324,-20.508,-31.738,0.000
1679679918.970,36.133,-10.742,-11.230,-31.250,0.000
1679679918.974,-82.031,-43.457,-18.555,-45.898,0.000
1679679918.978,-137.207,-43.945,-20.508,-50.293,0.000
1679679918.982,-36.133,-19.043,-20.020,-17.578,0.000
1679679918.986,55.664,-9.277,-36.621,-13.184,0.000
1679679918.990,29.297,-15.625,-38.086,-33.691,0.000
1679679918.994,-73.730,-55.664,-21.973,-44.922,0.000
1679679918.998,-148.438,-72.754,-16.602,-44.434,0.000
1679679919.002,-65.430,-31.250,-14.648,-22.949,0.000
1679679919.006,58.594,-5.371,-6.348,-7.812,0.000
1679679919.010,50.781,-15.625,-10.742,-16.602,0.000
1679679919.013,-70.801,-39.551,-27.832,-37.598,0.000
1679679919.017,-160.156,-45.898,-32.715,-50.781,0.000
1679679919.021,-86.426,-31.250,-23.438,-35.156,0.000
1679679919.025,35.645,-14.160,-19.531,-35.156,0.000
1679679919.029,37.109,-16.113,-30.273,-48.340,0.000
1679679919.033,-63.965,-32.715,-38.574,-56.641,0.000
1679679919.037,-144.043,-38.574,-37.598,-61.035,0.000
1679679919.041,-92.773,-35.156,-31.250,-37.109,0.000
1679679919.045,30.762,-30.762,-21.484,-23.926,0.000
1679679919.049,61.035,-29.297,-9.766,-30.273,0.000
1679679919.053,-30.762,-39.551,-19.531,-36.133,0.000
1679679919.056,-132.324,-44.434,-39.551,-50.781,0.000
1679679919.060,-96.191,-33.203,-35.645,-46.875,0.000
1679679919.064,25.879,-21.973,-25.391,-33.691,0.000
1679679919.068,60.059,-18.066,-27.344,-37.109,0.000
1679679919.072,-17.578,-32.227,-30.762,-49.805,0.000
1679679919.076,-126.465,-34.180,-38.086,-57.617,0.000
1679679919.080,-112.793,-20.020,-39.551,-40.039,0.000
1679679919.084,14.648,-14.648,-19.531,-18.555,0.000
1679679919.088,72.754,-10.254,-12.207,-20.508,0.000
1679679919.092,-1.465,-25.879,-15.625,-36.133,0.000
1679679919.095,-123.047,-42.969,-26.855,-47.852,0.000
1679679919.099,-124.023,-40.527,-41.504,-35.156,0.000
1679679919.103,7.812,-42.480,-34.668,-19.043,0.000
1679679919.107,67.871,-41.992,-30.762,-32.715,0.000
1679679919.111,-5.371,-24.902,-34.180,-54.688,0.000
1679679919.115,-114.258,-21.973,-26.855,-63.477,0.000
1679679919.119,-135.742,-31.250,-30.762,-57.617,0.000
1679679919.123,-21.973,-30.273,-27.832,-41.504,0.000
1679679919.127,67.383,-27.344,-15.625,-32.227,0.000
1679679919.131,18.555,-33.691,-18.066,-44.434,0.000
1679679919.135,-103.516,-38.086,-28.320,-57.617,0.000
1679679919.138,-142.578,-27.344,-33.203,-47.852,0.000
1679679919.142,-36.133,-18.066,-27.832,-23.926,0.000
1679679919.146,63.477,-24.902,-28.809,-20.508,0.000
1679679919.150,39.062,-30.273,-31.738,-27.832,0.000
1679679919.154,-78.125,-33.203,-37.109,-43.457,0.000
1679679919.158,-148.438,-36.133,-42.480,-56.641,0.000
1679679919.162,-54.199,-30.762,-32.715,-42.480,0.000
1679679919.166,57.129,-20.508,-22.461,-31.738,0.000
1679679919.170,31.250,-20.020,-25.391,-52.246,0.000
1679679919.174,-74.707,-20.996,-34.180,-66.895,0.000
1679679919.177,-140.625,-18.066,-35.645,-61.523,0.000
1679679919.181,-63.477,-26.367,-34.180,-37.109,0.000
1679679919.185,73.730,-25.391,-19.531,-5.371,0.000
1679679919.189,66.895,-17.578,-21.973,-28.320,0.000
1679679919.193,-64.453,-20.996,-39.551,-59.082,0.000
1679679919.197,-145.996,-34.180,-38.086,-55.664,0.000
1679679919.201,-82.031,-34.180,-33.203,-42.480,0.000
1679679919.205,40.039,-34.180,-30.762,-31.250,0.000
1679679919.209,73.242,-28.809,-21.973,-32.715,0.000
1679679919.213,-32.715,-21.484,-20.020,-52.246,0.000
1679679919.217,-145.020,-24.902,-27.832,-65.918,0.000
1679679919.220,-98.633,-21.973,-25.879,-41.504,0.000
1679679919.224,23.438,-21.484,-20.020,-24.902,0.000
1679679919.228,53.711,-15.137,-23.438,-36.133,0.000
1679679919.232,-39.062,-26.367,-20.020,-45.410,0.000
1679679919.236,-137.695,-39.062,-20.508,-49.805,0.000
1679679919.240,-117.188,-36.133,-24.414,-46.875,0.000
1679679919.244,6.348,-36.133,-19.043,-40.039,0.000
1679679919.248,58.594,-24.902,-21.484,-35.156,0.000
1679679919.252,-18.555,-20.508,-27.344,-41.016,0.000
1679679919.256,-119.629,-21.484,-28.809,-48.828,0.000
1679679919.260,-125.488,-23.926,-33.203,-52.246,0.000
1679679919.263,-13.184,-23.926,-31.250,-40.527,0.000
1679679919.267,58.105,-7.812,-32.715,-36.621,0.000
1679679919.271,1.953,-18.555,-27.832,-49.805,0.000
1679679919.275,-104.980,-34.668,-23.926,-53.711,0.000
1679679919.279,-118.652,-35.156,-33.691,-44.434,0.000
1679679919.283,-15.137,-36.621,-35.645,-37.109,0.000
1679679919.287,60.059,-30.762,-32.715,-42.480,0.000
1679679919.291,11.230,-23.926,-25.879,-47.363,0.000
1679679919.295,-96.191,-29.785,-21.484,-47.852,0.000
1679679919.299,-136.719,-32.227,-34.180,-46.387,0.000
1679679919.303,-16.602,-12.695,-29.297,-18.555,0.000
1679679919.306,81.055,1.953,-17.090,-8.301,0.000
1679679919.310,19.531,-3.418,-15.625,-28.320,0.000
1679679919.314,-94.238,-21.484,-19.531,-44.434,0.000
1679679919.318,-139.160,-30.273,-24.414,-46.387,0.000
1679679919.322,-48.828,-26.855,-25.391,-30.273,0.000
1679679919.326,53.711,-27.832,-28.809,-22.949,0.000
1679679919.330,50.293,-42.969,-28.320,-20.020,0.000
1679679919.334,-68.359,-65.430,-31.250,-40.039,0.000
1679679919.338,-145.508,-61.523,-36.133,-56.641,0.000
1679679919.342,-61.035,-33.691,-37.598,-35.156,0.000
1679679919.345,56.152,-11.230,-38.574,-27.344,0.000
1679679919.349,49.316,-4.883,-35.156,-42.480,0.000
1679679919.353,-56.152,-20.996,-31.738,-50.781,0.000
1679679919.357,-127.441,-36.133,-35.645,-45.410,0.000
1679679919.361,-63.477,-27.832,-38.086,-34.180,0.000
1679679919.365,51.758,-18.066,-21.484,-27.344,0.000
1679679919.369,65.918,-22.949,-14.648,-32.227,0.000
1679679919.373,-29.297,-31.738,-32.227,-34.668,0.000
1679679919.377,-119.629,-41.016,-41.016,-38.574,0.000
1679679919.381,-81.055,-41.504,-40.527,-32.227,0.000
1679679919.385,42.480,-26.367,-40.039,-14.160,0.000
1679679919.388,73.730,-22.949,-35.645,-13.184,0.000
1679679919.392,-24.902,-34.180,-30.273,-26.855,0.000
1679679919.396,-133.301,-39.551,-26.855,-55.664,0.000
1679679919.400,-102.051,-35.156,-27.832,-41.992,0.000
1679679919.404,28.320,-31.250,-24.414,-11.230,0.000
1679679919.408,70.312,-26.855,-19.531,-24.902,0.000
1679679919.412,-7.324,-21.973,-20.020,-32.227,0.000
1679679919.416,-109.863,-27.344,-25.879,-34.668,0.000
1679679919.420,-104.004,-33.691,-34.180,-41.992,0.000
1679679919.424,20.996,-27.344,-35.645,-20.508,0.000
1679679919.428,84.961,-25.879,-40.039,-12.207,0.000
1679679919.431,5.859,-33.691,-44.434,-32.227,0.000
1679679919.435,-107.422,-27.832,-41.016,-42.480,0.000
1679679919.439,-123.535,-15.625,-45.410,-42.480,0.000
1679679919.443,-17.090,-7.812,-36.621,-38.574,0.000
1679679919.447,63.965,-16.602,-25.879,-35.156,0.000
1679679919.451,0.977,-35.156,-34.180,-52.246,0.000
1679679919.455,-113.281,-40.039,-34.668,-53.223,0.000
1679679919.459,-131.836,-44.922,-31.738,-35.645,0.000
1679679919.463,-22.461,-38.086,-28.809,-21.973,0.000
1679679919.467,61.523,-22.461,-24.414,-24.902,0.000
1679679919.470,24.902,-40.527,-23.926,-40.527,0.000
1679679919.474,-87.891,-61.523,-33.203,-48.340,0.000
1679679919.478,-141.113,-41.992,-41.016,-42.969,0.000
1679679919.482,-47.852,-19.531,-29.297,-27.344,0.000
1679679919.486,58.594,-10.742,-15.137,-22.949,0.000
1679679919.490,43.945,-10.254,-13.184,-29.785,0.000
1679679919.494,-82.031,-32.227,-35.156,-47.852,0.000
1679679919.498,-148.926,-43.945,-40.527,-47.852,0.000
1679679919.502,-61.523,-32.715,-20.996,-25.391,0.000
1679679919.506,41.016,-27.344,-29.785,-30.273,0.000
1679679919.510,27.832,-34.180,-42.480,-41.992,0.000
1679679919.513,-72.754,-51.758,-41.504,-48.340,0.000
1679679919.517,-138.184,-57.129,-42.480,-54.688,0.000
1679679919.521,-59.082,-35.156,-34.668,-33.203,0.000
1679679919.525,60.059,-13.672,-17.090,-15.625,0.000
1679679919.529,59.082,-16.602,-10.254,-34.668,0.000
1679679919.533,-40.039,-25.879,-21.484,-50.781,0.000
1679679919.537,-123.535,-37.109,-31.250,-46.387,0.000
1679679919.541,-66.895,-33.691,-21.484,-20.996,0.000
1679679919.545,49.805,-25.391,-19.043,-9.766,0.000
1679679919.549,58.105,-19.043,-33.203,-37.598,0.000
1679679919.552,-43.945,-20.020,-37.598,-55.664,0.000
1679679919.556,-136.719,-32.227,-32.227,-58.594,0.000
1679679919.560,-105.469,-33.691,-26.855,-46.387,0.000
1679679919.564,23.926,-31.738,-30.273,-21.484,0.000
1679679919.568,74.707,-27.344,-29.785,-20.508,0.000
1679679919.572,-22.949,-35.645,-29.297,-32.715,0.000
1679679919.576,-129.883,-47.852,-31.250,-51.758,0.000
1679679919.580,-111.328,-40.527,-23.438,-52.734,0.000
1679679919.584,12.207,-30.762,-22.949,-33.203,0.000
1679679919.588,76.660,-27.344,-26.855,-26.855,0.000
1679679919.592,5.859,-45.898,-32.227,-35.645,0.000
1679679919.595,-112.793,-55.176,-41.504,-55.176,0.000
1679679919.599,-125.000,-36.621,-35.156,-49.316,0.000
1679679919.603,-11.719,-6.348,-17.090,-31.738,0.000
1679679919.607,62.988,0.977,-21.973,-34.180,0.000
1679679919.611,8.789,-19.043,-39.551,-44.922,0.000
1679679919.615,-110.352,-29.785,-36.133,-55.664,0.000
1679679919.619,-126.953,-24.414,-23.926,-48.828,0.000
1679679919.623,-8.301,-9.766,-29.297,-31.738,0.000
1679679919.627,89.355,-8.301,-28.809,-19.531,0.000
1679679919.631,30.762,-30.273,-25.879,-33.691,0.000
1679679919.635,-99.609,-57.617,-38.574,-53.711,0.000
1679679919.638,-133.301,-58.105,-34.180,-48.340,0.000
1679679919.642,-38.574,-43.457,-26.367,-33.203,0.000
1679679919.646,59.570,-31.738,-28.320,-32.715,0.000
1679679919.650,33.691,-36.133,-26.855,-38.574,0.000
1679679919.654,-76.172,-58.105,-31.250,-44.434,0.000
1679679919.658,-128.418,-50.781,-37.109,-51.758,0.000
1679679919.662,-42.480,-22.949,-21.484,-31.738,0.000
1679679919.666,66.895,-2.930,-6.348,-21.484,0.000
1679679919.670,54.688,-0.977,-7.812,-28.809,0.000
1679679919.674,-57.129,-11.230,-20.508,-31.250,0.000
1679679919.678,-137.695,-26.367,-30.273,-35.645,0.000
1679679919.681,-68.848,-31.738,-21.973,-18.555,0.000
1679679919.685,47.852,-18.066,-10.254,-12.207,0.000
1679679919.689,55.664,-13.672,0.488,-22.461,0.000
1679679919.693,-55.664,-36.133,-14.648,-43.945,0.000
1679679919.697,-146.973,-46.387,-32.715,-63.477,0.000
1679679919.701,-85.938,-23.926,-29.297,-47.363,0.000
1679679919.705,29.785,-10.254,-28.320,-38.574,0.000
1679679919.709,50.781,-31.250,-28.320,-36.621,0.000
1679679919.713,-44.922,-47.363,-31.738,-40.527,0.000
1679679919.717,-138.672,-46.387,-37.109,-54.688,0.000
1679679919.721,-88.867,-25.879,-35.156,-40.527,0.000
1679679919.724,38.574,-3.906,-30.273,-19.043,0.000
1679679919.728,64.453,-16.602,-24.414,-31.250,0.000
1679679919.732,-42.969,-47.363,-27.832,-47.852,0.000
1679679919.736,-150.879,-60.059,-28.809,-54.688,0.000
1679679919.740,-111.328,-53.223,-16.113,-47.852,0.000
1679679919.744,9.766,-37.109,-18.555,-39.551,0.000
1679679919.748,41.992,-20.996,-30.273,-42.480,0.000
1679679919.752,-27.832,-14.648,-35.156,-42.969,0.000
1679679919.756,-128.906,-23.926,-36.621,-52.246,0.000
1679679919.760,-121.582,-39.062,-26.367,-42.480,0.000
1679679919.763,0.000,-28.320,-15.625,-20.020,0.000
1679679919.767,72.266,-19.043,-11.230,-25.879,0.000
1679679919.771,4.883,-25.879,-14.648,-39.551,0.000
1679679919.775,-122.559,-23.438,-32.715,-55.176,0.000
1679679919.779,-136.719,-25.391,-39.551,-53.711,0.000
1679679919.783,-24.902,-36.133,-25.879,-31.250,0.000
1679679919.787,56.641,-20.996,-20.508,-22.461,0.000
1679679919.791,11.719,-13.672,-32.227,-35.156,0.000
1679679919.795,-104.004,-27.344,-42.969,-53.711,0.000
1679679919.799,-124.023,-40.039,-44.434,-48.828,0.000
1679679919.803,-10.742,-31.250,-27.344,-23.926,0.000
1679679919.806,69.824,-16.113,-19.531,-23.926,0.000
1679679919.810,24.414,-17.090,-31.250,-40.039,0.000
1679679919.814,-91.797,-20.996,-31.250,-48.828,0.000
1679679919.818,-145.996,-28.809,-32.715,-62.500,0.000
1679679919.822,-52.246,-38.086,-27.344,-53.223,0.000
1679679919.826,48.340,-34.180,-16.602,-41.504,0.000
1679679919.830,41.992,-28.809,-14.160,-42.480,0.000
1679679919.834,-37.109,-34.180,-20.020,-16.602,0.000
1679679919.838,-136.719,-23.926,-27.344,-38.574,0.000
1679679919.842,-96.191,-16.113,-29.297,-68.359,0.000
1679679919.845,37.598,-11.230,-29.297,-46.875,0.000
1679679919.849,31.250,-15.625,-28.809,-54.199,0.000
1679679919.853,-70.312,-39.551,-30.273,-61.523,0.000
1679679919.857,-152.344,-49.316,-38.086,-77.148,0.000
1679679919.861,-111.816,-35.645,-41.016,-80.078,0.000
1679679919.865,12.207,-15.625,-30.762,-55.176,0.000
1679679919.869,22.949,-22.949,-37.598,-68.848,0.000
1679679919.873,-86.426,-38.574,-42.969,-81.543,0.000
1679679919.877,-183.105,-45.410,-41.016,-91.797,0.000
1679679919.881,-139.160,-40.527,-38.574,-79.102,0.000
1679679919.885,-4.883,-22.949,-30.762,-49.316,0.000
1679679919.888,34.668,-8.789,-31.738,-49.316,0.000
1679679919.892,-50.293,-20.508,-37.109,-58.105,0.000
1679679919.896,-149.414,-50.781,-42.480,-60.059,0.000
1679679919.900,-122.559,-40.527,-42.480,-53.711,0.000
1679679919.904,7.324,-17.578,-27.832,-35.156,0.000
1679679919.908,63.477,-27.832,-15.625,-26.367,0.000
1679679919.912,-21.973,-32.227,-28.809,-41.992,0.000
1679679919.916,-131.348,-38.086,-36.621,-52.734,0.000
1679679919.920,-113.770,-42.480,-23.926,-41.992,0.000
1679679919.924,-1.953,-22.949,-20.508,-29.297,0.000
1679679919.927,54.688,-6.348,-32.715,-37.598,0.000
1679679919.931,-4.883,-25.391,-29.785,-41.016,0.000
1679679919.935,-114.258,-44.434,-29.785,-44.434,0.000
1679679919.939,-115.234,-36.133,-34.668,-42.969,0.000
1679679919.943,-2.441,-25.879,-25.879,-24.414,0.000
1679679919.947,62.988,-9.277,-28.320,-22.461,0.000
1679679919.951,14.648,-1.465,-35.156,-38.574,0.000
1679679919.955,-90.332,-26.367,-32.227,-42.480,0.000
1679679919.959,-117.676,-45.410,-31.250,-27.344,0.000
1679679919.963,-26.855,-34.180,-29.297,-19.043,0.000
1679679919.967,56.641,-20.020,-31.738,-20.508,0.000
1679679919.970,19.531,-18.555,-29.785,-36.133,0.000
1679679919.974,-106.445,-29.297,-25.879,-51.270,0.000
1679679919.978,-146.484,-33.691,-30.762,-44.434,0.000
1679679919.982,-43.457,-34.668,-25.879,-32.715,0.000
1679679919.986,73.730,-33.203,-10.254,-13.184,0.000
1679679919.990,52.734,-20.996,-12.695,-20.996,0.000
1679679919.994,-81.543,-23.926,-31.250,-42.969,0.000
1679679919.998,-137.695,-28.320,-37.109,-41.504,0.000
1679679920.002,-47.852,-23.926,-23.926,-32.715,0.000
1679679920.006,63.477,-23.926,-15.137,-23.438,0.000
1679679920.010,48.828,-40.039,-22.461,-27.832,0.000
1679679920.013,-58.105,-46.387,-24.902,-25.391,0.000
1679679920.017,-124.023,-37.109,-25.879,-35.156,0.000
1679679920.021,-59.082,-16.113,-26.367,-24.902,0.000
1679679920.025,54.199,0.977,-21.973,-9.277,0.000
1679679920.029,55.176,-19.531,-25.391,-28.809,0.000
1679679920.033,-38.574,-33.203,-24.414,-43.945,0.000
1679679920.037,-118.652,-39.551,-31.250,-49.805,0.000
1679679920.041,-77.148,-36.621,-34.180,-38.086,0.000
1679679920.045,31.738,-16.602,-28.809,-26.855,0.000
1679679920.049,54.199,-11.230,-23.926,-24.414,0.000
1679679920.053,-24.902,-28.320,-17.578,-25.391,0.000
1679679920.056,-121.582,-45.410,-20.996,-29.297,0.000
1679679920.060,-85.449,-33.203,-23.926,-22.461,0.000
1679679920.064,46.875,-3.906,-22.949,-9.766,0.000
1679679920.068,83.496,-0.488,-28.320,-12.695,0.000
1679679920.072,-11.719,-15.137,-34.668,-23.926,0.000
1679679920.076,-107.910,-33.691,-23.438,-19.043,0.000
1679679920.080,-88.379,-28.320,-17.090,-10.742,0.000
1679679920.084,28.320,-11.719,-24.414,-5.371,0.000
1679679920.088,74.219,-12.207,-36.133,-0.977,0.000
1679679920.092,-6.836,-22.949,-31.738,-8.301,0.000
1679679920.095,-119.141,-42.480,-22.949,-29.785,0.000
1679679920.099,-119.141,-52.734,-24.902,-29.297,0.000
1679679920.103,-13.184,-52.246,-21.484,-15.137,0.000
1679679920.107,54.688,-32.227,-20.508,-16.602,0.000
1679679920.111,7.324,-11.230,-21.484,-23.438,0.000
1679679920.115,-120.117,-25.391,-31.250,-40.039,0.000
1679679920.119,-142.090,-35.645,-38.086,-26.367,0.000
1679679920.123,-25.879,-26.855,-26.855,0.488,0.000
1679679920.127,62.988,-25.391,-19.531,9.277,0.000
1679679920.131,22.949,-33.691,-23.926,-0.488,0.000
1679679920.135,-101.562,-47.852,-34.668,-30.273,0.000
1679679920.138,-145.996,-41.016,-29.785,-30.273,0.000
1679679920.142,-41.504,-16.113,-18.066,-8.301,0.000
1679679920.146,57.129,-3.906,-28.320,-12.695,0.000
1679679920.150,26.855,-17.578,-34.668,-24.902,0.000
1679679920.154,-97.168,-40.527,-38.086,-33.691,0.000
1679679920.158,-151.855,-54.688,-39.551,-26.855,0.000
1679679920.162,-53.711,-41.504,-27.832,-4.883,0.000
1679679920.166,41.016,-7.324,-25.391,-0.977,0.000
1679679920.170,18.555,3.418,-35.156,-22.461,0.000
1679679920.174,-83.496,-20.020,-36.133,-28.320,0.000
1679679920.178,-152.344,-37.598,-33.203,-17.090,0.000
1679679920.181,-67.871,-29.785,-30.762,-1.465,0.000
1679679920.185,45.410,-30.273,-25.391,6.348,0.000
1679679920.189,38.574,-41.016,-25.879,-5.859,0.000
1679679920.193,-63.965,-45.898,-26.855,-19.043,0.000
1679679920.197,-164.062,-37.109,-30.273,-35.645,0.000
1679679920.201,-116.211,-27.344,-28.809,-26.367,0.000
1679679920.205,19.043,-28.320,-31.738,-13.672,0.000
1679679920.209,43.945,-20.996,-39.062,-12.207,0.000
1679679920.213,-48.828,-13.184,-37.598,-23.926,0.000
1679679920.217,-135.254,-32.227,-44.922,-29.785,0.000
1679679920.220,-85.449,-47.363,-43.457,-16.113,0.000
1679679920.224,37.598,-35.156,-29.297,-6.348,0.000
1679679920.228,64.453,-28.320,-27.344,-6.836,0.000
1679679920.232,-31.250,-35.156,-28.809,-22.461,0.000
1679679920.236,-131.348,-23.438,-38.574,-38.574,0.000
1679679920.240,-96.191,-14.160,-35.645,-15.625,0.000
1679679920.244,21.484,-33.691,-31.250,-2.441,0.000
1679679920.248,63.965,-41.504,-35.645,-19.531,0.000
1679679920.252,-11.230,-28.320,-37.598,-34.180,0.000
1679679920.256,-123.047,-29.785,-41.504,-39.551,0.000
1679679920.260,-117.676,-31.250,-34.668,-26.367,0.000
1679679920.263,4.395,-25.391,-33.203,-9.277,0.000
1679679920.267,78.125,-26.855,-23.926,-7.324,0.000
1679679920.271,17.578,-27.832,-24.414,-17.090,0.000
1679679920.275,-110.352,-26.855,-29.297,-33.691,0.000
1679679920.279,-124.512,-28.320,-28.320,-31.250,0.000
1679679920.283,-2.930,-16.113,-20.996,-18.555,0.000
1679679920.287,74.219,-11.719,-24.902,-15.625,0.000
1679679920.291,11.230,-38.086,-46.875,-29.297,0.000
1679679920.295,-102.539,-47.852,-39.551,-39.062,0.000
1679679920.299,-122.070,-21.484,-28.320,-32.227,0.000
1679679920.302,-24.902,-19.043,-31.738,-21.973,0.000
1679679920.306,67.383,-37.109,-30.762,-20.996,0.000
1679679920.310,30.762,-42.969,-27.832,-25.391,0.000
1679679920.314,-90.332,-36.621,-25.879,-34.180,0.000
1679679920.318,-133.301,-26.367,-32.227,-46.875,0.000
1679679920.322,-48.828,-22.949,-26.367,-39.062,0.000
1679679920.326,53.223,-11.719,-13.672,-25.391,0.000
1679679920.330,36.621,-29.297,-21.484,-28.320,0.000
1679679920.334,-74.219,-59.570,-35.645,-34.668,0.000
1679679920.338,-139.160,-50.293,-38.086,-40.527,0.000
1679679920.342,-57.617,-28.809,-20.508,-27.344,0.000
1679679920.345,67.383,-12.695,-18.066,-12.207,0.000
1679679920.349,64.453,-30.273,-32.227,-32.227,0.000
1679679920.353,-39.551,-55.176,-33.203,-53.223,0.000
1679679920.357,-131.348,-44.922,-32.715,-57.129,0.000
1679679920.361,-91.797,-20.508,-38.086,-45.410,0.000
1679679920.365,30.273,-7.324,-47.363,-33.203,0.000
1679679920.369,51.758,-3.906,-37.598,-41.016,0.000
1679679920.373,-47.363,-31.250,-25.879,-57.129,0.000
1679679920.377,-138.672,-50.293,-31.738,-57.129,0.000
1679679920.381,-89.844,-32.227,-30.273,-36.133,0.000
1679679920.385,36.621,-13.672,-29.785,-22.461,0.000
1679679920.388,69.824,-16.113,-37.109,-33.691,0.000
1679679920.392,-28.320,-45.898,-38.086,-53.711,0.000
1679679920.396,-127.930,-57.129,-26.855,-59.570,0.000
1679679920.400,-95.215,-34.668,-30.273,-47.363,0.000
1679679920.404,20.020,-16.113,-37.598,-31.738,0.000
1679679920.408,85.449,-16.113,-28.320,-10.254,0.000
1679679920.412,-5.859,-38.086,-20.508,-33.203,0.000
1679679920.416,-140.625,-42.480,-31.250,-69.824,0.000
1679679920.420,-120.117,-18.555,-35.645,-62.012,0.000
1679679920.424,3.906,-17.578,-24.902,-56.641,0.000
1679679920.428,67.871,-28.809,-26.855,-52.734,0.000
1679679920.431,-0.488,-27.832,-37.109,-57.617,0.000
1679679920.435,-119.141,-47.363,-44.922,-66.895,0.000
1679679920.439,-122.070,-45.410,-39.551,-57.129,0.000
1679679920.443,-1.953,-19.043,-20.020,-33.203,0.000
1679679920.447,71.289,-21.484,-16.602,-26.855,0.000
1679679920.451,7.812,-31.250,-32.715,-50.781,0.000
1679679920.455,-98.145,-26.855,-31.250,-62.012,0.000
1679679920.459,-115.723,-34.180,-25.391,-57.129,0.000
1679679920.463,-24.414,-31.250,-25.391,-41.992,0.000
1679679920.467,63.477,-13.672,-16.113,-33.203,0.000
1679679920.470,26.855,-16.113,-16.113,-47.852,0.000
1679679920.474,-95.703,-29.297,-36.621,-68.848,0.000
1679679920.478,-137.695,-38.574,-40.039,-62.500,0.000
1679679920.482,-35.645,-27.832,-25.391,-39.062,0.000
1679679920.486,67.383,-20.996,-19.531,-35.156,0.000
1679679920.490,44.434,-43.945,-15.625,-40.527,0.000
1679679920.494,-65.918,-53.711,-19.043,-40.039,0.000
1679679920.498,-137.695,-37.109,-38.086,-46.387,0.000
1679679920.502,-64.941,-26.855,-36.621,-43.457,0.000
1679679920.506,48.340,-23.926,-21.484,-35.156,0.000
1679679920.510,42.969,-13.184,-16.602,-43.945,0.000
1679679920.513,-58.594,-27.832,-22.949,-52.734,0.000
1679679920.517,-130.371,-44.434,-34.180,-51.270,0.000
1679679920.521,-63.965,-33.203,-30.762,-34.180,0.000
1679679920.525,57.617,-24.414,-22.461,-24.414,0.000
1679679920.529,67.871,-20.508,-24.902,-32.227,0.000
1679679920.533,-40.039,-29.297,-25.879,-44.922,0.000
1679679920.537,-131.348,-37.598,-30.273,-55.176,0.000
1679679920.541,-67.383,-35.156,-33.203,-36.133,0.000
1679679920.545,59.570,-25.391,-15.625,-9.277,0.000
1679679920.549,63.965,-13.672,-11.230,-21.484,0.000
1679679920.553,-40.039,-21.973,-24.414,-48.828,0.000
1679679920.556,-133.789,-34.668,-28.320,-59.570,0.000
1679679920.560,-96.680,-31.250,-19.531,-40.527,0.000
1679679920.564,35.156,-14.160,-19.043,-11.230,0.000
1679679920.568,79.102,-8.301,-28.320,-15.625,0.000
1679679920.572,-10.742,-24.902,-28.809,-41.504,0.000
1679679920.576,-128.418,-33.691,-22.949,-64.941,0.000
1679679920.580,-114.746,-27.832,-19.043,-53.711,0.000
1679679920.584,18.555,-20.508,-20.508,-31.250,0.000
1679679920.588,66.895,-28.809,-24.902,-37.598,0.000
1679679920.592,-6.348,-53.223,-17.578,-46.875,0.000
1679679920.595,-102.539,-50.293,-11.719,-47.852,0.000
1679679920.599,-113.281,-18.555,-14.648,-42.969,0.000
1679679920.603,-4.395,-5.371,-20.508,-30.273,0.000
1679679920.607,57.129,-3.906,-30.273,-27.344,0.000
1679679920.611,-6.836,-16.602,-42.969,-48.340,0.000
1679679920.615,-121.094,-35.645,-39.062,-64.941,0.000
1679679920.619,-131.348,-33.203,-24.414,-55.664,0.000
1679679920.623,-15.137,-25.879,-13.184,-38.086,0.000
1679679920.627,66.895,-20.020,-11.719,-24.414,0.000
1679679920.631,26.367,-32.715,-21.973,-28.809,0.000
1679679920.635,-86.426,-42.480,-20.020,-41.016,0.000
1679679920.638,-116.211,-34.180,-9.277,-40.527,0.000
1679679920.642,-17.578,-14.160,-10.254,-26.367,0.000
1679679920.646,68.848,3.906,-12.695,-13.672,0.000
1679679920.650,44.922,-6.836,-20.020,-17.090,0.000
1679679920.654,-72.754,-41.504,-26.367,-37.109,0.000
1679679920.658,-133.301,-42.480,-20.020,-52.246,0.000
1679679920.662,-41.016,-13.184,-7.812,-33.691,0.000
1679679920.666,64.453,-13.672,-9.277,-23.438,0.000
1679679920.670,54.199,-27.832,-28.320,-31.250,0.000
1679679920.674,-63.965,-21.973,-40.527,-39.062,0.000
1679679920.677,-148.926,-28.320,-38.574,-46.875,0.000
1679679920.681,-70.801,-37.598,-28.809,-33.203,0.000
1679679920.685,49.316,-26.855,-20.020,-22.461,0.000
1679679920.689,54.688,-18.066,-27.832,-29.785,0.000
1679679920.693,-57.617,-27.832,-35.156,-37.598,0.000
1679679920.697,-141.113,-65.430,-20.996,-40.039,0.000
1679679920.701,-86.426,-71.289,-18.066,-24.414,0.000
1679679920.705,32.715,-17.578,-27.344,-14.648,0.000
1679679920.709,57.617,4.883,-22.949,-23.438,0.000
1679679920.713,-46.387,-6.348,-23.438,-41.992,0.000
1679679920.717,-143.555,-18.066,-31.250,-59.082,0.000
1679679920.720,-94.238,-19.043,-26.367,-43.945,0.000
1679679920.724,25.879,-12.207,-20.020,-25.391,0.000
1679679920.728,59.082,-15.625,-21.973,-36.621,0.000
1679679920.732,-21.484,-32.227,-37.109,-52.246,0.000
1679679920.736,-120.117,-39.551,-41.504,-62.500,0.000
1679679920.740,-102.051,-37.109,-36.133,-58.594,0.000
1679679920.744,19.531,-29.297,-27.344,-34.180,0.000
1679679920.748,79.590,-22.461,-32.715,-29.785,0.000
1679679920.752,-8.789,-37.109,-42.480,-52.734,0.000
1679679920.756,-125.488,-43.945,-33.691,-66.895,0.000
1679679920.759,-128.906,-20.996,-32.715,-57.617,0.000
1679679920.763,-25.879,-15.625,-31.250,-46.387,0.000
1679679920.767,49.805,-27.344,-27.344,-47.852,0.000
1679679920.771,-7.812,-40.527,-28.809,-54.199,0.000
1679679920.775,-128.906,-49.805,-38.574,-66.895,0.000
1679679920.779,-140.137,-51.270,-41.504,-64.453,0.000
1679679920.783,-19.043,-29.297,-37.598,-47.852,0.000
1679679920.787,64.453,-7.812,-29.785,-35.645,0.000
1679679920.791,12.207,-18.555,-20.996,-39.551,0.000
1679679920.795,-97.656,-41.992,-25.391,-53.711,0.000
1679679920.799,-127.441,-48.340,-35.156,-43.457,0.000
1679679920.802,-20.996,-16.602,-34.668,-20.020,0.000
1679679920.806,68.848,0.000,-27.344,-26.855,0.000
1679679920.810,33.691,-23.438,-20.996,-40.039,0.000
1679679920.814,-77.148,-47.363,-11.230,-48.340,0.000
1679679920.818,-137.695,-49.316,-23.438,-63.477,0.000
1679679920.822,-47.363,-38.574,-38.086,-46.387,0.000
1679679920.826,58.594,-31.250,-29.785,-30.762,0.000
1679679920.830,38.574,-26.367,-20.020,-41.504,0.000
1679679920.834,-75.195,-34.668,-27.832,-53.223,0.000
1679679920.838,-138.672,-51.270,-38.086,-59.082,0.000
1679679920.842,-51.270,-43.945,-40.527,-48.828,0.000
1679679920.845,72.266,-27.832,-35.156,-35.156,0.000
1679679920.849,56.152,-23.438,-28.809,-44.434,0.000
1679679920.853,-73.730,-30.762,-27.344,-66.895,0.000
1679679920.857,-140.625,-31.250,-23.926,-66.406,0.000
1679679920.861,-70.312,-21.973,-17.578,-45.410,0.000
1679679920.865,40.527,-22.461,-16.113,-35.156,0.000
1679679920.869,59.082,-23.438,-23.438,-38.086,0.000
1679679920.873,-32.715,-23.926,-40.527,-44.434,0.000
1679679920.877,-115.723,-22.461,-43.945,-61.035,0.000
1679679920.881,-71.777,-25.879,-33.203,-50.781,0.000
1679679920.885,42.480,-31.250,-27.344,-30.762,0.000
1679679920.888,70.312,-30.273,-31.738,-39.551,0.000
1679679920.892,-24.902,-43.945,-32.227,-51.758,0.000
1679679920.896,-122.559,-49.805,-32.227,-53.223,0.000
1679679920.900,-96.680,-28.320,-35.156,-39.551,0.000
1679679920.904,29.785,-21.484,-28.809,-24.902,0.000
1679679920.908,71.777,-26.367,-23.438,-28.809,0.000
1679679920.912,-5.859,-22.461,-23.926,-36.133,0.000
1679679920.916,-103.027,-35.156,-28.320,-43.945,0.000
1679679920.920,-108.398,-44.434,-33.691,-49.805,0.000
1679679920.924,5.371,-32.715,-27.344,-41.016,0.000
1679679920.927,77.148,-33.203,-20.508,-28.809,0.000
1679679920.931,4.883,-33.691,-33.691,-30.762,0.000
1679679920.935,-120.605,-22.949,-45.410,-55.176,0.000
1679679920.939,-131.348,-23.926,-36.621,-56.641,0.000
1679679920.943,-7.324,-7.812,-21.484,-29.297,0.000
1679679920.947,70.312,-11.230,-15.137,-25.391,0.000
1679679920.951,2.930,-32.227,-27.344,-53.711,0.000
1679679920.955,-111.328,-25.879,-31.250,-59.082,0.000
1679679920.959,-122.070,-29.785,-20.020,-46.387,0.000
1679679920.963,-5.371,-42.969,-13.672,-31.738,0.000
1679679920.967,66.406,-39.062,-24.902,-34.180,0.000
1679679920.970,5.859,-29.297,-41.016,-52.246,0.000
1679679920.974,-111.328,-18.555,-51.758,-63.477,0.000
1679679920.978,-146.484,-24.902,-45.410,-57.617,0.000
1679679920.982,-45.898,-24.902,-33.691,-43.457,0.000
1679679920.986,55.176,-21.484,-28.809,-37.598,0.000
1679679920.990,25.879,-40.527,-16.113,-41.992,0.000
1679679920.994,-92.285,-47.852,-18.555,-60.059,0.000
1679679920.998,-151.855,-39.062,-30.762,-60.547,0.000
1679679921.002,-67.383,-37.109,-35.156,-39.062,0.000
1679679921.006,44.922,-34.180,-35.645,-36.133,0.000
1679679921.009,41.504,-34.668,-34.668,-48.340,0.000
1679679921.013,-64.453,-39.551,-37.598,-56.641,0.000
1679679921.017,-144.531,-31.250,-39.551,-54.688,0.000
1679679921.021,-75.684,-22.461,-37.598,-31.250,0.000
1679679921.025,42.480,-22.461,-30.762,-30.273,0.000
1679679921.029,53.711,-28.320,-20.020,-35.645,0.000
1679679921.033,-41.992,-26.855,-11.719,-35.645,0.000
1679679921.037,-132.324,-24.414,-22.949,-56.152,0.000
1679679921.041,-80.566,-31.738,-35.156,-48.340,0.000
1679679921.045,50.293,-32.715,-22.949,-11.230,0.000
1679679921.049,91.309,-18.066,-19.531,0.000,0.000
1679679921.052,-28.809,-20.020,-29.785,-35.645,0.000
1679679921.056,-153.809,-48.340,-33.691,-70.312,0.000
1679679921.060,-98.145,-43.457,-29.297,-52.246,0.000
1679679921.064,25.391,-1.953,-27.344,-36.133,0.000
1679679921.068,53.223,18.066,-19.531,-33.691,0.000
1679679921.072,-18.555,-1.953,-14.648,-33.691,0.000
1679679921.076,-126.465,-27.832,-24.902,-49.805,0.000
1679679921.080,-108.887,-25.391,-33.203,-46.875,0.000
1679679921.084,17.578,-15.137,-46.387,-29.297,0.000
1679679921.088,73.730,-23.926,-40.039,-28.809,0.000
1679679921.092,1.465,-35.645,-21.973,-47.852,0.000
1679679921.095,-106.934,-41.992,-21.484,-56.152,0.000
1679679921.099,-105.469,-44.434,-28.320,-41.504,0.000
1679679921.103,5.371,-24.902,-34.180,-23.438,0.000
1679679921.107,75.684,-3.418,-23.926,-14.160,0.000
1679679921.111,17.578,-11.719,-35.156,-29.785,0.000
1679679921.115,-102.051,-26.855,-49.316,-53.223,0.000
1679679921.119,-128.906,-33.203,-27.832,-41.992,0.000
1679679921.123,-11.719,-32.715,-20.996,-21.484,0.000
1679679921.127,72.754,-13.672,-24.902,-22.949,0.000
1679679921.131,27.832,-24.902,-22.461,-29.297,0.000
1679679921.134,-83.496,-69.336,-35.645,-38.086,0.000
1679679921.138,-129.883,-53.711,-36.133,-38.574,0.000
1679679921.142,-36.621,-28.809,-25.391,-30.273,0.000
1679679921.146,55.664,-17.090,-32.227,-32.227,0.000
1679679921.150,29.785,-20.020,-33.691,-35.156,0.000
1679679921.154,-89.355,-43.945,-29.297,-49.805,0.000
1679679921.158,-148.926,-38.574,-24.414,-53.711,0.000
1679679921.162,-42.969,-31.250,-20.020,-34.180,0.000
1679679921.166,62.500,-37.598,-21.484,-29.785,0.000
1679679921.170,33.691,-23.926,-29.297,-43.457,0.000
1679679921.174,-83.008,-19.043,-31.250,-55.664,0.000
1679679921.177,-160.645,-41.016,-36.133,-69.336,0.000
1679679921.181,-77.148,-41.992,-39.062,-57.617,0.000
1679679921.185,45.898,-20.020,-36.621,-41.016,0.000
1679679921.189,49.805,-23.438,-29.785,-38.086,0.000
1679679921.193,-60.547,-58.594,-25.879,-41.016,0.000
1679679921.197,-157.227,-54.199,-36.133,-63.965,0.000
1679679921.201,-103.027,-17.578,-43.945,-60.547,0.000
1679679921.205,23.926,-21.973,-35.156,-33.203,0.000
1679679921.209,51.270,-27.344,-18.555,-30.273,0.000
1679679921.213,-41.992,-20.508,-20.020,-41.504,0.000
1679679921.217,-140.625,-29.297,-39.551,-50.781,0.000
1679679921.220,-92.773,-31.738,-31.738,-28.320,0.000
1679679921.224,37.109,-30.273,-15.625,-5.371,0.000
1679679921.228,70.312,-21.973,-27.344,-16.602,0.000
1679679921.232,-26.855,-26.367,-36.621,-32.715,0.000
1679679921.236,-130.859,-46.387,-33.203,-42.969,0.000
1679679921.240,-103.516,-34.180,-21.484,-35.645,0.000
1679679921.244,24.414,-20.020,-1.465,-12.207,0.000
1679679921.248,82.031,-27.344,-1.953,-8.789,0.000
1679679921.252,-7.812,-36.621,-26.855,-37.109,0.000
1679679921.256,-126.953,-34.668,-35.645,-56.641,0.000
1679679921.260,-126.465,-39.551,-31.738,-45.410,0.000
1679679921.263,-8.301,-61.035,-36.133,-25.879,0.000
1679679921.267,69.824,-44.434,-24.902,-20.020,0.000
1679679921.271,2.441,-7.812,-18.066,-40.039,0.000
1679679921.275,-120.117,-18.555,-27.832,-58.594,0.000
1679679921.279,-115.723,-30.273,-31.250,-40.039,0.000
1679679921.283,8.301,-18.555,-19.043,-4.883,0.000
1679679921.287,70.312,-21.973,-11.719,-21.973,0.000
1679679921.291,12.695,-25.391,-14.160,-52.246,0.000
1679679921.295,-104.004,-30.762,-20.996,-47.363,0.000
1679679921.299,-142.578,-41.016,-24.902,-39.551,0.000
1679679921.302,-35.645,-38.574,-22.461,-23.926,0.000
1679679921.306,72.754,-22.949,-14.160,-13.672,0.000
1679679921.310,33.691,-33.691,-18.555,-36.133,0.000
1679679921.314,-93.750,-50.293,-43.457,-63.965,0.000
1679679921.318,-135.742,-49.316,-43.945,-51.758,0.000
1679679921.322,-39.551,-39.551,-30.273,-25.879,0.000
1679679921.326,64.453,-14.648,-26.855,-28.320,0.000
1679679921.330,42.969,-4.883,-30.273,-28.809,0.000
1679679921.334,-65.430,-27.832,-31.250,-35.645,0.000
1679679921.338,-123.535,-40.039,-31.250,-41.016,0.000
1679679921.342,-49.316,-27.832,-22.949,-21.973,0.000
1679679921.345,48.828,-28.320,-13.672,-21.973,0.000
1679679921.349,42.480,-30.762,-11.719,-37.109,0.000
1679679921.353,-64.453,-38.574,-13.672,-41.016,0.000
1679679921.357,-137.207,-45.898,-18.066,-40.527,0.000
1679679921.361,-57.617,-29.297,-15.137,-17.090,0.000
1679679921.365,60.547,-13.672,-27.832,-6.348,0.000
1679679921.369,58.594,-15.625,-41.016,-36.621,0.000
1679679921.373,-41.016,-36.621,-33.691,-50.781,0.000
1679679921.377,-121.582,-34.668,-38.574,-47.363,0.000
1679679921.381,-69.824,-17.090,-33.203,-24.902,0.000
1679679921.384,41.504,-18.066,-14.160,-15.625,0.000
1679679921.388,51.270,-15.137,-13.184,-39.551,0.000
1679679921.392,-21.484,-29.785,-17.578,-53.223,0.000
1679679921.396,-110.352,-50.293,-18.066,-57.617,0.000
1679679921.400,-96.191,-35.156,-24.902,-51.758,0.000
1679679921.404,18.555,-20.996,-23.438,-32.227,0.000
1679679921.408,70.801,-25.391,-22.949,-18.066,0.000
1679679921.412,-13.672,-34.180,-31.738,-37.109,0.000
1679679921.416,-131.348,-32.227,-32.715,-54.688,0.000
1679679921.420,-127.930,-23.926,-39.062,-57.129,0.000
1679679921.424,-3.418,-8.301,-36.621,-43.945,0.000
1679679921.427,61.035,-8.789,-22.949,-35.156,0.000
1679679921.431,-9.277,-22.949,-23.926,-51.270,0.000
1679679921.435,-122.559,-39.062,-30.273,-62.988,0.000
1679679921.439,-118.164,-36.621,-31.738,-49.805,0.000
1679679921.443,12.695,-24.902,-18.066,-19.043,0.000
1679679921.447,68.359,-30.762,-16.602,-23.438,0.000
1679679921.451,-9.277,-28.320,-36.621,-52.246,0.000
1679679921.455,-109.375,-24.902,-29.785,-56.641,0.000
1679679921.459,-128.906,-16.602,-13.184,-47.363,0.000
1679679921.463,-32.227,-7.812,-11.230,-32.715,0.000
1679679921.466,62.988,-11.230,-14.648,-20.508,0.000
1679679921.470,28.320,-33.691,-30.273,-29.297,0.000
1679679921.474,-87.891,-40.039,-42.969,-51.270,0.000
1679679921.478,-129.883,-37.109,-41.016,-52.246,0.000
1679679921.482,-35.645,-29.785,-26.367,-32.227,0.000
1679679921.486,63.477,-11.719,-21.973,-23.926,0.000
1679679921.490,40.527,-18.066,-22.949,-28.320,0.000
1679679921.494,-82.520,-34.180,-22.461,-55.664,0.000
1679679921.498,-145.996,-29.785,-28.809,-67.871,0.000
1679679921.502,-63.965,-33.691,-25.391,-45.410,0.000
1679679921.506,40.527,-34.668,-13.672,-34.180,0.000
1679679921.509,32.227,-16.602,-23.438,-48.828,0.000
1679679921.513,-74.707,-21.484,-31.250,-62.012,0.000
1679679921.517,-142.578,-20.996,-33.691,-61.035,0.000
1679679921.521,-68.359,-16.602,-33.203,-40.039,0.000
1679679921.525,45.898,-26.367,-21.973,-27.832,0.000
1679679921.529,51.270,-27.832,-38.574,-45.410,0.000
1679679921.533,-45.898,-32.227,-46.875,-50.781,0.000
1679679921.537,-131.836,-43.457,-32.227,-48.828,0.000
1679679921.541,-79.590,-33.691,-20.996,-36.133,0.000
1679679921.545,42.480,-19.043,-22.949,-26.367,0.000
1679679921.549,74.219,-20.508,-22.461,-29.785,0.000
1679679921.552,-12.207,-20.508,-22.949,-44.434,0.000
1679679921.556,-125.000,-26.855,-35.645,-62.988,0.000
1679679921.560,-110.352,-28.320,-42.969,-54.199,0.000
1679679921.564,15.625,-19.043,-34.668,-35.156,0.000
1679679921.568,60.059,-16.602,-21.484,-31.738,0.000
1679679921.572,-16.602,-29.297,-22.949,-45.410,0.000
1679679921.576,-120.117,-46.387,-27.344,-49.316,0.000
1679679921.580,-93.262,-37.598,-17.090,-8.789,0.000
1679679921.584,39.551,-9.277,-20.020,10.254,0.000
1679679921.588,74.707,0.488,-34.668,-35.645,0.000
1679679921.592,-30.762,-22.949,-38.574,-78.125,0.000
1679679921.595,-145.508,-43.945,-43.945,-86.426,0.000
1679679921.599,-127.930,-34.668,-43.457,-74.707,0.000
1679679921.603,-18.066,-19.043,-43.945,-70.312,0.000
1679679921.607,37.109,-13.184,-43.945,-77.148,0.000
1679679921.611,-29.785,-21.484,-52.246,-94.727,0.000
1679679921.615,-153.320,-29.297,-63.965,-114.258,0.000
1679679921.619,-176.758,-26.367,-62.988,-115.234,0.000
1679679921.623,-59.570,-26.855,-60.547,-90.332,0.000
1679679921.627,24.414,-4.395,-62.988,-88.867,0.000
1679679921.631,-27.832,1.465,-72.754,-114.258,0.000
1679679921.634,-143.066,-14.160,-77.148,-125.000,0.000
1679679921.638,-163.086,-19.043,-75.195,-104.004,0.000
1679679921.642,-49.316,-21.484,-77.148,-74.219,0.000
1679679921.646,51.270,-3.906,-71.289,-67.383,0.000
1679679921.650,23.926,5.859,-64.453,-86.914,0.000
1679679921.654,-83.008,-18.555,-62.500,-83.008,0.000
1679679921.658,-119.141,-13.672,-77.637,-64.453,0.000
1679679921.662,-15.625,17.090,-79.102,-44.922,0.000
1679679921.666,82.520,29.785,-65.430,-28.320,0.000
1679679921.670,63.477,8.789,-75.195,-41.992,0.000
1679679921.674,-38.086,-21.484,-87.402,-50.293,0.000
1679679921.677,-99.609,-19.043,-80.566,-37.598,0.000
1679679921.681,-22.461,-7.324,-68.359,-27.344,0.000
1679679921.685,98.145,5.371,-65.918,-22.461,0.000
1679679921.689,122.070,12.207,-60.547,-1.953,0.000
1679679921.693,8.301,6.348,-62.988,-7.812,0.000
1679679921.697,-72.266,-7.812,-62.988,-20.508,0.000
1679679921.701,-12.207,-20.508,-53.711,-11.230,0.000
1679679921.705,108.398,-20.508,-54.199,9.766,0.000
1679679921.709,134.277,-10.742,-51.758,8.301,0.000
1679679921.713,16.602,-13.672,-59.082,-22.949,0.000
1679679921.716,-83.008,-27.344,-64.941,-26.367,0.000
1679679921.720,-33.691,-4.883,-54.199,-3.418,0.000
1679679921.724,94.238,10.742,-46.387,13.184,0.000
1679679921.728,128.906,-18.555,-48.340,9.277,0.000
1679679921.732,29.785,-21.484,-59.570,-9.766,0.000
1679679921.736,-69.336,8.789,-63.965,-16.113,0.000
1679679921.740,-40.039,6.348,-42.480,-2.930,0.000
1679679921.744,69.824,1.953,-18.066,11.230,0.000
1679679921.748,110.840,-6.836,-24.902,-2.441,0.000
1679679921.752,23.926,-13.184,-41.016,-31.250,0.000
1679679921.756,-97.168,-9.766,-45.410,-38.086,0.000
1679679921.759,-83.984,-23.438,-42.480,-24.902,0.000
1679679921.763,40.039,-32.715,-32.227,-11.230,0.000
1679679921.767,100.586,-5.859,-33.691,-12.207,0.000
1679679921.771,42.480,-13.672,-34.668,-10.254,0.000
1679679921.775,-74.707,-45.898,-32.715,-24.414,0.000
1679679921.779,-89.844,-22.949,-30.273,-25.391,0.000
1679679921.783,33.203,6.348,-21.484,4.883,0.000
1679679921.787,119.141,9.277,-21.484,9.766,0.000
1679679921.791,53.223,-6.836,-46.387,-14.648,0.000
1679679921.795,-77.637,-25.391,-44.434,-29.297,0.000
1679679921.799,-112.793,-35.645,-22.949,-29.785,0.000
1679679921.802,-17.578,-30.273,-19.531,-19.043,0.000
1679679921.806,76.660,-24.902,-18.555,-20.508,0.000
1679679921.810,35.645,-49.805,-33.691,-31.250,0.000
1679679921.814,-81.543,-58.105,-42.969,-34.668,0.000
1679679921.818,-125.488,-40.527,-36.133,-37.109,0.000
1679679921.822,-32.227,-24.414,-23.926,-19.043,0.000
1679679921.826,70.312,-22.949,-18.555,-10.254,0.000
1679679921.830,66.406,-41.992,-24.902,-7.324,0.000
1679679921.834,-29.297,-40.527,-36.621,-1.953,0.000
1679679921.838,-123.047,-20.996,-41.992,-30.273,0.000
1679679921.841,-57.617,-15.137,-25.879,-30.273,0.000
1679679921.845,70.312,-6.836,-17.090,-8.301,0.000
1679679921.849,68.359,-5.859,-21.973,-11.719,0.000
1679679921.853,-33.691,-18.066,-30.273,-19.531,0.000
1679679921.857,-101.562,-24.414,-28.320,-14.648,0.000
1679679921.861,-36.133,-18.555,-12.207,8.301,0.000
1679679921.865,80.078,-9.277,-6.348,20.508,0.000
1679679921.869,85.938,-22.949,-13.184,9.766,0.000
1679679921.873,-23.926,-42.480,-27.832,-9.277,0.000
1679679921.877,-117.188,-50.293,-37.109,-17.578,0.000
1679679921.881,-85.449,-39.062,-33.691,-3.906,0.000
1679679921.884,36.133,-8.301,-24.414,17.090,0.000
1679679921.888,70.312,-6.348,-21.973,10.254,0.000
1679679921.892,-19.043,-34.180,-34.668,-1.465,0.000
1679679921.896,-97.656,-39.551,-39.062,9.277,0.000
1679679921.900,-64.941,-29.297,-30.273,25.391,0.000
1679679921.904,37.598,-19.043,-27.832,34.180,0.000
1679679921.908,81.055,-14.648,-35.645,20.020,0.000
1679679921.912,5.371,-13.672,-25.391,1.953,0.000
1679679921.916,-112.793,-33.203,-9.277,-12.695,0.000
1679679921.920,-101.074,-31.738,-10.742,-5.859,0.000
1679679921.924,20.996,-14.160,-16.113,14.648,0.000
1679679921.927,72.754,-14.648,-19.531,7.324,0.000
1679679921.931,11.719,-24.414,-24.414,2.441,0.000
1679679921.935,-103.027,-49.316,-38.574,-7.812,0.000
1679679921.939,-125.000,-35.156,-35.156,-9.277,0.000
1679679921.943,-9.277,-6.348,-21.973,7.812,0.000
1679679921.947,70.801,-5.859,-21.973,7.324,0.000
1679679921.951,14.160,-12.695,-27.344,-4.395,0.000
1679679921.955,-95.215,-33.203,-32.227,-17.090,0.000
1679679921.959,-104.492,-45.898,-26.367,-5.859,0.000
1679679921.963,-4.883,-24.414,-31.250,11.719,0.000
1679679921.966,69.824,-17.090,-30.762,3.418,0.000
1679679921.970,36.621,-17.090,-29.785,-11.230,0.000
1679679921.974,-89.844,-31.250,-45.410,-27.344,0.000
1679679921.978,-132.324,-44.922,-38.574,-26.367,0.000
1679679921.982,-26.855,-32.715,-28.320,-2.930,0.000
1679679921.986,74.219,-10.254,-34.668,3.418,0.000
1679679921.990,49.316,-5.859,-39.062,-8.301,0.000
1679679921.994,-69.824,-20.996,-41.504,-20.020,0.000
1679679921.998,-127.441,-29.297,-38.574,-21.484,0.000
1679679922.002,-40.527,-12.695,-26.367,-8.301,0.000
1679679922.006,64.453,-11.230,-14.648,-14.648,0.000
1679679922.009,45.410,-37.109,-20.996,-22.461,0.000
1679679922.013,-54.688,-35.156,-40.039,-20.996,0.000
1679679922.017,-136.230,-13.184,-42.480,-43.945,0.000
1679679922.021,-94.727,-8.301,-28.809,-46.875,0.000
1679679922.025,17.090,-15.137,-28.320,-39.062,0.000
1679679922.029,23.438,-24.414,-37.109,-48.828,0.000
1679679922.033,-83.008,-40.039,-40.039,-63.477,0.000
1679679922.037,-163.086,-32.227,-38.574,-72.266,0.000
1679679922.041,-101.074,-20.996,-41.992,-61.035,0.000
1679679922.045,10.254,-12.695,-46.875,-57.617,0.000
1679679922.049,4.883,-7.324,-45.410,-77.637,0.000
1679679922.052,-103.027,-26.367,-44.922,-97.656,0.000
1679679922.056,-182.129,-38.086,-40.527,-96.680,0.000
1679679922.060,-126.465,-43.945,-29.785,-66.895,0.000
1679679922.064,-9.277,-50.781,-31.738,-49.805,0.000
1679679922.068,26.855,-40.039,-31.738,-50.293,0.000
1679679922.072,-59.082,-41.016,-36.621,-55.176,0.000
1679679922.076,-156.250,-43.945,-42.969,-61.523,0.000
1679679922.080,-125.977,-26.367,-37.109,-55.664,0.000
1679679922.084,-3.418,-8.301,-28.320,-45.410,0.000
1679679922.088,51.758,-7.324,-29.297,-38.574,0.000
1679679922.091,-18.066,-49.805,-31.250,-43.945,0.000
1679679922.095,-120.605,-56.641,-34.180,-70.312,0.000
1679679922.099,-116.699,-32.227,-31.738,-67.871,0.000
1679679922.103,-14.648,-30.762,-33.691,-57.129,0.000
1679679922.107,54.199,-13.672,-33.691,-54.688,0.000
1679679922.111,-4.395,-21.973,-26.855,-61.035,0.000
1679679922.115,-121.094,-56.641,-28.809,-71.777,0.000
1679679922.119,-140.625,-55.176,-43.945,-63.477,0.000
1679679922.123,-27.344,-36.133,-39.551,-39.551,0.000
1679679922.127,64.453,-14.648,-20.508,-30.273,0.000
1679679922.131,2.930,-21.973,-27.344,-51.758,0.000
1679679922.134,-120.117,-30.762,-28.809,-72.754,0.000
1679679922.138,-145.508,-14.648,-28.320,-68.359,0.000
1679679922.142,-34.180,-13.184,-24.414,-43.457,0.000
1679679922.146,66.895,-20.996,-21.973,-35.156,0.000
1679679922.150,25.879,-30.273,-24.414,-41.992,0.000
1679679922.154,-89.355,-47.852,-21.973,-49.316,0.000
1679679922.158,-140.625,-51.270,-27.344,-58.594,0.000
1679679922.162,-51.270,-31.738,-25.391,-44.434,0.000
1679679922.166,56.152,-20.020,-26.855,-31.738,0.000
1679679922.170,41.016,-26.855,-37.598,-46.387,0.000
1679679922.173,-65.430,-41.016,-34.180,-53.711,0.000
1679679922.177,-138.672,-50.781,-40.527,-61.035,0.000
1679679922.181,-70.801,-40.039,-42.480,-51.270,0.000
1679679922.185,37.109,-12.695,-23.438,-35.156,0.000
1679679922.189,39.551,-14.648,-20.508,-46.875,0.000
1679679922.193,-67.383,-43.457,-33.203,-68.848,0.000
1679679922.197,-147.949,-47.363,-41.992,-71.777,0.000
1679679922.201,-81.055,-44.922,-36.133,-50.781,0.000
1679679922.205,42.969,-37.109,-30.273,-28.809,0.000
1679679922.209,51.270,-33.203,-33.691,-32.715,0.000
1679679922.213,-55.664,-49.316,-35.156,-45.898,0.000
1679679922.216,-137.695,-56.152,-33.203,-48.340,0.000
1679679922.220,-71.289,-54.688,-28.320,-32.227,0.000
1679679922.224,41.504,-33.203,-16.602,-14.160,0.000
1679679922.228,49.805,-24.414,-17.090,-26.855,0.000
1679679922.232,-36.133,-28.320,-31.738,-45.898,0.000
1679679922.236,-123.047,-31.738,-37.598,-42.480,0.000
1679679922.240,-93.750,-46.875,-31.738,-24.902,0.000
1679679922.244,16.602,-31.738,-29.297,-20.996,0.000
1679679922.248,48.340,-24.902,-26.855,-32.227,0.000
1679679922.252,-32.715,-34.668,-24.902,-46.387,0.000
1679679922.256,-128.906,-46.875,-32.227,-49.316,0.000
1679679922.259,-117.676,-57.617,-33.691,-35.645,0.000
1679679922.263,-0.977,-39.062,-20.020,-19.043,0.000
1679679922.267,74.707,-32.715,-16.602,-12.695,0.000
1679679922.271,20.020,-57.129,-31.738,-22.461,0.000
1679679922.275,-94.727,-62.012,-30.762,-34.668,0.000
1679679922.279,-99.121,-31.738,-20.996,-20.996,0.000
1679679922.283,6.836,-18.066,-19.043,-8.789,0.000
1679679922.287,65.430,-20.508,-28.809,-24.414,0.000
1679679922.291,15.625,-16.602,-26.855,-38.086,0.000
1679679922.295,-94.238,-23.926,-18.555,-51.270,0.000
1679679922.299,-124.023,-31.738,-20.508,-44.434,0.000
1679679922.302,-13.184,-21.973,-18.066,-20.996,0.000
1679679922.306,59.570,-25.879,-24.902,-23.926,0.000
1679679922.310,26.367,-50.781,-36.133,-29.297,0.000
1679679922.314,-75.684,-42.969,-33.203,-33.691,0.000
1679679922.318,-132.812,-36.621,-25.879,-37.598,0.000
1679679922.322,-44.922,-52.734,-23.926,-20.996,0.000
1679679922.326,45.410,-18.066,-15.625,-13.672,0.000
1679679922.330,19.531,4.395,-13.184,-35.156,0.000
1679679922.334,-90.332,-23.926,-29.297,-55.176,0.000
1679679922.338,-147.949,-35.645,-29.785,-47.363,0.000
1679679922.341,-60.059,-28.809,-25.879,-27.344,0.000
1679679922.345,47.852,-18.066,-17.578,-18.555,0.000
1679679922.349,45.410,-24.414,-9.766,-20.020,0.000
1679679922.353,-61.035,-39.062,-26.367,-34.668,0.000
1679679922.357,-144.043,-48.340,-32.227,-49.316,0.000
1679679922.361,-72.754,-61.523,-13.184,-32.715,0.000
1679679922.365,52.734,-55.176,-1.465,-5.371,0.000
1679679922.369,57.129,-21.973,-17.578,-5.859,0.000
1679679922.373,-50.781,-8.789,-28.320,-32.227,0.000
1679679922.377,-138.184,-11.230,-24.902,-46.875,0.000
1679679922.381,-87.402,-10.254,-14.648,-28.809,0.000
1679679922.384,26.855,-20.020,-14.160,-23.438,0.000
1679679922.388,76.172,-15.137,-27.344,-12.207,0.000
1679679922.392,-3.906,-29.785,-17.090,1.953,0.000
1679679922.396,-142.090,-58.594,-13.672,-37.109,0.000
1679679922.400,-121.582,-47.852,-11.719,-42.969,0.000
1679679922.404,-2.441,-43.945,-4.395,-25.879,0.000
1679679922.408,27.832,-37.109,-14.648,-44.922,0.000
1679679922.412,-37.598,-34.668,-18.555,-51.758,0.000
1679679922.416,-130.859,-54.199,-23.438,-55.176,0.000
1679679922.420,-110.840,-46.875,-18.066,-44.434,0.000
1679679922.424,10.254,-20.996,-14.648,-25.391,0.000
1679679922.427,58.594,-14.648,-19.043,-26.367,0.000
1679679922.431,-14.648,-35.645,-20.508,-40.039,0.000
1679679922.435,-115.723,-38.086,-34.180,-51.270,0.000
1679679922.439,-110.352,-24.414,-32.227,-40.039,0.000
1679679922.443,4.395,-32.227,-18.555,-21.973,0.000
1679679922.447,69.336,-38.086,-22.949,-22.949,0.000
1679679922.451,15.625,-44.434,-37.109,-35.645,0.000
1679679922.455,-91.797,-48.828,-42.480,-52.246,0.000
1679679922.459,-120.117,-46.387,-41.992,-48.340,0.000
1679679922.463,-15.625,-37.598,-37.598,-33.691,0.000
1679679922.466,61.523,-30.273,-28.809,-25.391,0.000
1679679922.470,16.113,-32.227,-28.320,-32.715,0.000
1679679922.474,-91.309,-42.480,-34.180,-46.875,0.000
1679679922.478,-129.395,-41.992,-32.715,-43.457,0.000
1679679922.482,-27.832,-25.391,-22.949,-28.320,0.000
1679679922.486,62.012,-43.457,-20.996,-18.066,0.000
1679679922.490,20.020,-47.852,-25.391,-29.297,0.000
1679679922.494,-100.586,-38.086,-32.227,-45.898,0.000
1679679922.498,-146.484,-49.316,-32.715,-40.039,0.000
1679679922.502,-53.223,-34.180,-31.250,-23.438,0.000
1679679922.506,40.039,-18.066,-27.832,-18.555,0.000
1679679922.509,21.973,-20.996,-25.391,-40.039,0.000
1679679922.513,-82.031,-37.109,-28.320,-61.523,0.000
1679679922.517,-143.066,-43.457,-27.344,-58.594,0.000
1679679922.521,-72.266,-43.457,-19.043,-39.551,0.000
1679679922.525,32.227,-26.855,-19.043,-35.645,0.000
1679679922.529,37.109,-31.738,-28.320,-44.922,0.000
1679679922.533,-49.316,-52.734,-37.598,-47.363,0.000
1679679922.537,-112.793,-45.898,-25.391,-38.086,0.000
1679679922.541,-69.824,-26.855,-15.137,-28.809,0.000
1679679922.545,20.996,-13.672,-27.832,-31.738,0.000
1679679922.548,36.621,-16.602,-34.668,-44.434,0.000
1679679922.552,-52.734,-34.668,-33.203,-54.199,0.000
1679679922.556,-144.531,-41.504,-33.203,-61.035,0.000
1679679922.560,-100.098,-20.508,-20.020,-49.805,0.000
1679679922.564,21.973,-3.906,-9.766,-29.297,0.000
1679679922.568,53.223,-13.184,-14.160,-33.203,0.000
1679679922.572,-26.367,-37.109,-21.973,-50.293,0.000
1679679922.576,-114.746,-40.039,-26.367,-48.828,0.000
1679679922.580,-97.656,-30.273,-21.484,-31.250,0.000
1679679922.584,16.113,-23.438,-8.301,-12.207,0.000
1679679922.588,64.941,-26.855,-10.742,-23.438,0.000
1679679922.591,-9.277,-47.363,-26.367,-45.898,0.000
1679679922.595,-108.398,-46.875,-21.484,-48.340,0.000
1679679922.599,-97.656,-20.508,-21.484,-36.133,0.000
1679679922.603,11.719,-0.977,-24.414,-9.277,0.000
1679679922.607,66.895,0.488,-28.320,-10.742,0.000
1679679922.611,2.441,-15.137,-30.762,-32.227,0.000
1679679922.615,-99.121,-36.621,-27.832,-41.504,0.000
1679679922.619,-107.910,-35.156,-23.438,-38.574,0.000
1679679922.623,-23.926,-23.438,-20.996,-44.922,0.000
1679679922.627,37.109,-18.555,-19.531,-48.340,0.000
1679679922.631,2.930,-32.227,-21.973,-45.898,0.000
1679679922.634,-93.750,-48.828,-29.297,-56.641,0.000
1679679922.638,-115.723,-46.875,-27.344,-51.270,0.000
1679679922.642,-26.367,-30.273,-23.438,-33.203,0.000
1679679922.646,47.363,-0.977,-20.508,-27.344,0.000
1679679922.650,18.066,-9.277,-25.391,-38.574,0.000
1679679922.654,-87.891,-40.039,-35.645,-47.852,0.000
1679679922.658,-134.766,-41.504,-45.410,-48.828,0.000
1679679922.662,-45.410,-15.625,-40.527,-36.133,0.000
1679679922.666,55.664,-10.254,-19.531,-27.832,0.000
1679679922.670,46.875,-27.832,-18.066,-37.598,0.000
1679679922.673,-50.293,-31.250,-31.250,-41.016,0.000
1679679922.677,-113.770,-34.668,-34.180,-37.109,0.000
1679679922.681,-54.199,-35.645,-29.297,-30.762,0.000
1679679922.685,40.527,-19.531,-19.531,-29.785,0.000
1679679922.689,43.457,-23.926,-18.555,-34.180,0.000
1679679922.693,-50.293,-41.016,-28.809,-44.434,0.000
1679679922.697,-116.211,-47.363,-29.297,-46.875,0.000
1679679922.701,-58.105,-43.457,-34.668,-33.203,0.000
1679679922.705,43.457,-16.113,-38.574,-27.832,0.000
1679679922.709,55.664,-7.324,-25.879,-36.133,0.000
1679679922.713,-32.715,-27.832,-17.578,-40.527,0.000
1679679922.716,-115.723,-35.645,-25.391,-41.992,0.000
1679679922.720,-89.844,-35.645,-35.645,-42.480,0.000
1679679922.724,16.602,-27.832,-29.785,-29.297,0.000
1679679922.728,45.410,-26.855,-23.438,-26.367,0.000
1679679922.732,-28.320,-35.156,-25.879,-31.738,0.000
1679679922.736,-108.887,-35.645,-23.438,-35.645,0.000
1679679922.740,-92.285,-44.434,-22.461,-41.992,0.000
1679679922.744,4.395,-31.250,-22.949,-29.297,0.000
1679679922.748,30.762,-9.766,-24.902,-32.227,0.000
1679679922.752,-44.922,-28.809,-37.109,-60.059,0.000
1679679922.756,-113.770,-40.527,-45.898,-60.547,0.000
1679679922.759,-92.773,-29.297,-29.297,-39.551,0.000
1679679922.763,4.395,-25.879,-14.160,-26.855,0.000
1679679922.767,49.316,-29.297,-23.926,-36.621,0.000
1679679922.771,-16.602,-37.109,-25.879,-56.152,0.000
1679679922.775,-114.746,-36.133,-26.855,-63.477,0.000
1679679922.779,-114.746,-36.621,-32.715,-41.992,0.000
1679679922.783,-6.348,-20.020,-36.133,-19.531,0.000
1679679922.787,49.316,-18.066,-30.762,-29.785,0.000
1679679922.791,5.371,-30.762,-14.160,-35.156,0.000
1679679922.795,-87.891,-23.438,-20.508,-43.457,0.000
1679679922.799,-108.887,-19.043,-35.156,-51.758,0.000
1679679922.802,-8.301,-11.719,-37.598,-47.852,0.000
1679679922.806,89.844,-3.418,-45.898,-26.855,0.000
1679679922.810,65.430,-32.227,-32.715,-1.465,0.000
1679679922.814,-69.336,-68.359,-16.602,-35.645,0.000
1679679922.818,-133.789,-53.711,-23.926,-53.711,0.000
1679679922.822,-56.152,-26.855,-25.879,-29.785,0.000
1679679922.826,26.855,-26.367,-13.672,-28.809,0.000
1679679922.830,-20.020,-31.250,-3.906,-49.316,0.000
1679679922.834,-138.184,-54.688,-6.836,-60.059,0.000
1679679922.838,-181.152,-83.008,-11.230,-57.617,0.000
1679679922.841,-102.051,-57.617,-5.371,-50.781,0.000
1679679922.845,-20.996,-33.691,10.742,-57.617,0.000
1679679922.849,-41.504,-41.992,10.254,-78.125,0.000
1679679922.853,-122.559,-52.734,-0.488,-77.148,0.000
1679679922.857,-198.730,-64.453,-7.812,-82.031,0.000
1679679922.861,-121.094,-45.410,2.930,-47.363,0.000
1679679922.865,0.488,-14.648,10.742,-28.320,0.000
1679679922.869,-40.527,-33.691,-0.977,-74.707,0.000
1679679922.873,-131.836,-70.801,-5.859,-80.566,0.000
1679679922.877,-184.082,-88.379,-7.812,-68.359,0.000
1679679922.881,-127.441,-81.055,-0.488,-58.594,0.000
1679679922.884,-8.789,-55.664,2.441,-50.781,0.000
1679679922.888,1.465,-41.992,-11.230,-60.547,0.000
1679679922.892,-83.496,-46.387,-17.578,-64.941,0.000
1679679922.896,-157.227,-44.434,-19.043,-62.012,0.000
1679679922.900,-112.305,-39.551,-4.883,-37.109,0.000
1679679922.904,0.488,-24.902,7.812,-19.043,0.000
1679679922.908,33.203,-31.250,-1.953,-30.762,0.000
1679679922.912,-41.504,-52.734,-13.184,-43.945,0.000
1679679922.916,-140.137,-64.453,-28.320,-49.805,0.000
1679679922.920,-103.516,-51.758,-31.738,-23.926,0.000
1679679922.923,20.508,-20.996,-14.648,-7.812,0.000
1679679922.927,44.434,-23.438,-3.418,-20.996,0.000
1679679922.931,-24.902,-49.316,-20.020,-39.062,0.000
1679679922.935,-111.328,-62.988,-30.762,-62.988,0.000
1679679922.939,-101.562,-48.340,-18.555,-51.270,0.000
1679679922.943,7.324,-33.691,-4.883,-20.508,0.000
1679679922.947,51.758,-32.227,-7.324,-33.203,0.000
1679679922.951,-18.066,-41.016,-25.879,-58.594,0.000
1679679922.955,-120.605,-35.156,-30.762,-64.453,0.000
1679679922.959,-138.184,-29.297,-18.066,-60.547,0.000
1679679922.963,-38.574,-30.762,-9.766,-54.688,0.000
1679679922.966,36.621,-29.297,-11.230,-54.688,0.000
1679679922.970,-9.277,-34.668,-13.184,-55.664,0.000
1679679922.974,-116.211,-41.016,-30.273,-67.383,0.000
1679679922.978,-134.766,-41.992,-37.109,-62.012,0.000
1679679922.982,-40.527,-38.086,-21.484,-37.109,0.000
1679679922.986,33.691,-33.691,-24.902,-36.133,0.000
1679679922.990,7.812,-29.297,-31.738,-38.574,0.000
1679679922.994,-80.078,-39.062,-28.320,-35.156,0.000
1679679922.998,-119.141,-45.410,-37.109,-40.527,0.000
1679679923.002,-54.199,-41.504,-35.645,-39.062,0.000
1679679923.005,37.109,-31.250,-25.391,-34.180,0.000
1679679923.009,21.973,-30.762,-20.996,-44.434,0.000
1679679923.013,-78.125,-44.922,-19.043,-44.434,0.000
1679679923.017,-137.695,-54.688,-21.484,-41.016,0.000
1679679923.021,-69.336,-38.086,-18.555,-33.691,0.000
1679679923.025,35.645,-33.691,-18.555,-17.090,0.000
1679679923.029,27.832,-50.293,-31.738,-23.438,0.000
1679679923.033,-63.965,-41.504,-34.668,-44.434,0.000
1679679923.037,-130.859,-27.344,-30.762,-47.852,0.000
1679679923.041,-82.031,-8.301,-24.414,-34.668,0.000
1679679923.045,30.762,-1.465,-8.301,-20.020,0.000
1679679923.048,52.734,-8.789,-7.324,-24.902,0.000
1679679923.052,-44.922,-19.531,-20.996,-51.270,0.000
1679679923.056,-129.883,-33.691,-29.785,-62.500,0.000
1679679923.060,-68.848,-35.156,-18.066,-35.645,0.000
1679679923.064,35.645,-27.832,-21.973,-21.484,0.000
1679679923.068,38.574,-37.598,-36.621,-35.156,0.000
1679679923.072,-33.691,-49.316,-33.203,-41.504,0.000
1679679923.076,-117.676,-55.664,-37.598,-53.711,0.000
1679679923.080,-83.496,-45.410,-33.691,-43.945,0.000
1679679923.084,27.832,-11.230,-20.996,-24.902,0.000
1679679923.088,53.223,3.906,-19.043,-30.273,0.000
1679679923.091,-12.207,-17.578,-24.414,-35.156,0.000
1679679923.095,-95.703,-20.020,-23.926,-43.945,0.000
1679679923.099,-99.609,-11.719,-30.273,-51.270,0.000
1679679923.103,-6.348,-22.949,-40.527,-43.945,0.000
1679679923.107,43.945,-34.180,-40.527,-39.551,0.000
1679679923.111,-9.766,-32.227,-35.645,-47.363,0.000
1679679923.115,-98.145,-37.109,-30.273,-56.641,0.000
1679679923.119,-93.262,-46.875,-41.992,-32.715,0.000
1679679923.123,29.297,-29.297,-30.273,6.348,0.000
1679679923.127,78.125,-7.324,-6.348,-7.812,0.000
1679679923.131,-9.766,-5.371,-15.137,-60.059,0.000
1679679923.134,-107.910,-27.832,-28.809,-66.895,0.000
1679679923.138,-121.582,-48.340,-26.367,-45.898,0.000
1679679923.142,-42.969,-37.598,-21.484,-52.734,0.000
1679679923.146,35.645,-27.344,-12.207,-52.246,0.000
1679679923.150,3.906,-30.762,-14.160,-47.363,0.000
1679679923.154,-112.793,-44.922,-22.461,-62.012,0.000
1679679923.158,-164.551,-55.176,-14.160,-69.336,0.000
1679679923.162,-67.383,-48.340,-9.277,-42.969,0.000
1679679923.166,9.766,-37.598,-4.883,-42.969,0.000
1679679923.170,-23.926,-39.062,-8.301,-59.570,0.000
1679679923.173,-108.398,-61.035,-9.766,-65.918,0.000
1679679923.177,-163.574,-48.828,0.977,-64.453,0.000
1679679923.181,-91.309,-14.648,-4.883,-52.246,0.000
1679679923.185,6.348,-21.973,-21.484,-62.500,0.000
1679679923.189,15.625,-35.645,-13.184,-50.293,0.000
1679679923.193,-68.848,-46.875,-9.766,-49.805,0.000
1679679923.197,-139.648,-57.129,-18.555,-72.266,0.000
1679679923.201,-87.891,-40.039,-7.812,-55.664,0.000
1679679923.205,21.484,-14.160,1.953,-35.645,0.000
1679679923.209,32.715,-18.555,-8.789,-38.086,0.000
1679679923.213,-67.871,-36.133,-17.578,-49.805,0.000
1679679923.216,-148.926,-39.551,-11.719,-51.758,0.000
1679679923.220,-98.145,-27.344,-4.395,-30.273,0.000
1679679923.224,16.113,-28.809,-7.812,-23.926,0.000
1679679923.228,34.668,-29.297,-15.137,-31.738,0.000
1679679923.232,-33.203,-22.461,-12.695,-26.367,0.000
1679679923.236,-124.023,-51.270,-23.438,-37.109,0.000
1679679923.240,-112.793,-62.988,-41.016,-38.086,0.000
1679679923.244,5.859,-33.203,-32.227,-25.879,0.000
1679679923.248,44.922,-13.184,-14.160,-31.250,0.000
1679679923.252,-26.367,-17.578,-11.230,-38.574,0.000
1679679923.255,-120.605,-35.156,-25.879,-45.898,0.000
1679679923.259,-95.703,-40.527,-21.484,-31.250,0.000
1679679923.263,14.648,-37.598,-10.254,-21.484,0.000
1679679923.267,41.504,-24.414,-20.508,-34.668,0.000
1679679923.271,-22.461,-19.043,-40.527,-42.969,0.000
1679679923.275,-99.609,-39.062,-40.527,-40.527,0.000
1679679923.279,-93.262,-40.039,-28.809,-24.414,0.000
1679679923.283,-3.906,-28.320,-34.668,-17.090,0.000
1679679923.287,60.059,-39.062,-31.250,-22.461,0.000
1679679923.291,7.812,-59.082,-30.762,-35.156,0.000
1679679923.295,-102.051,-57.129,-30.273,-43.457,0.000
1679679923.298,-121.582,-47.852,-20.996,-41.504,0.000
1679679923.302,-21.973,-29.785,-27.832,-31.738,0.000
1679679923.306,48.340,-8.789,-22.949,-19.531,0.000
1679679923.310,4.395,-20.508,-21.973,-20.020,0.000
1679679923.314,-87.402,-33.203,-28.320,-29.297,0.000
1679679923.318,-112.305,-34.180,-19.043,-31.738,0.000
1679679923.322,-21.484,-26.855,-20.508,-18.555,0.000
1679679923.326,62.012,-8.301,-32.715,-15.625,0.000
1679679923.330,21.484,-15.625,-33.691,-19.043,0.000
1679679923.334,-82.520,-37.598,-30.762,-29.785,0.000
1679679923.338,-129.883,-41.504,-27.832,-37.598,0.000
1679679923.341,-46.875,-33.691,-20.508,-25.879,0.000
1679679923.345,42.480,-23.926,-25.391,-26.855,0.000
1679679923.349,30.762,-29.297,-24.414,-27.832,0.000
1679679923.353,-58.594,-37.598,-15.137,-32.715,0.000
1679679923.357,-121.582,-26.855,-12.695,-35.156,0.000
1679679923.361,-51.758,-19.531,-9.766,-21.973,0.000
1679679923.365,45.898,-13.672,-14.160,-16.113,0.000
1679679923.369,46.875,-24.414,-13.672,-24.414,0.000
1679679923.373,-27.344,-41.504,-19.531,-19.531,0.000
1679679923.377,-94.238,-38.574,-34.180,-15.625,0.000
1679679923.380,-63.965,-28.320,-20.508,-22.461,0.000
1679679923.384,12.695,-28.320,-10.254,-38.574,0.000
1679679923.388,26.367,-41.504,-10.254,-39.062,0.000
1679679923.392,-43.457,-51.758,-11.719,-28.809,0.000
1679679923.396,-128.418,-50.293,-25.391,-39.062,0.000
1679679923.400,-94.727,-38.574,-18.555,-33.203,0.000
1679679923.404,5.859,-18.555,-9.766,-31.738,0.000
1679679923.408,29.785,-3.418,-16.113,-36.133,0.000
1679679923.412,-45.898,-20.996,-25.391,-44.434,0.000
1679679923.416,-135.742,-38.574,-35.156,-64.941,0.000
1679679923.420,-94.238,-34.668,-21.484,-45.410,0.000
1679679923.423,19.531,-42.480,-10.742,-24.414,0.000
1679679923.427,39.062,-44.922,-19.043,-32.227,0.000
1679679923.431,-23.438,-32.227,-30.762,-43.945,0.000
1679679923.435,-119.141,-40.039,-35.156,-58.105,0.000
1679679923.439,-128.906,-40.527,-21.973,-41.504,0.000
1679679923.443,-17.090,-21.484,-19.043,-21.973,0.000
1679679923.447,43.457,-30.762,-21.484,-22.461,0.000
1679679923.451,-17.578,-54.199,-27.832,-39.551,0.000
1679679923.455,-114.746,-35.645,-32.715,-53.223,0.000
1679679923.459,-126.465,-13.184,-32.715,-44.922,0.000
1679679923.463,-25.391,-17.578,-36.621,-30.762,0.000
1679679923.466,56.152,-13.672,-24.414,-28.809,0.000
1679679923.470,16.113,-13.184,-22.461,-36.133,0.000
1679679923.474,-78.125,-28.809,-30.762,-47.852,0.000
1679679923.478,-100.098,-37.109,-28.809,-50.293,0.000
1679679923.482,-31.738,-24.902,-26.855,-46.387,0.000
1679679923.486,38.574,-22.461,-28.809,-36.621,0.000
1679679923.490,9.277,-39.551,-34.180,-40.527,0.000
1679679923.494,-82.031,-49.805,-35.645,-51.758,0.000
1679679923.498,-122.559,-53.711,-23.438,-45.898,0.000
1679679923.502,-44.434,-35.156,-15.137,-33.691,0.000
1679679923.506,47.852,-15.137,-19.531,-28.320,0.000
1679679923.509,26.367,-13.184,-21.973,-30.273,0.000
1679679923.513,-64.453,-19.043,-33.203,-40.039,0.000
1679679923.517,-110.352,-28.320,-38.086,-41.016,0.000
1679679923.521,-59.570,-42.480,-22.949,-29.297,0.000
1679679923.525,20.020,-40.527,-17.090,-25.391,0.000
1679679923.529,24.902,-46.387,-24.902,-34.180,0.000
1679679923.533,-62.500,-51.758,-30.273,-46.875,0.000
1679679923.537,-138.672,-29.785,-40.527,-56.641,0.000
1679679923.541,-67.383,-13.672,-41.504,-34.180,0.000
1679679923.545,51.758,-17.578,-29.785,-11.230,0.000
1679679923.548,38.574,-27.344,-35.645,-30.762,0.000
1679679923.552,-59.570,-38.086,-40.039,-51.758,0.000
1679679923.556,-128.906,-47.852,-33.691,-62.012,0.000
1679679923.560,-86.914,-54.199,-33.691,-48.340,0.000
1679679923.564,29.297,-48.340,-27.344,-23.438,0.000
1679679923.568,45.898,-32.715,-22.461,-23.926,0.000
1679679923.572,-39.062,-13.184,-22.949,-41.016,0.000
1679679923.576,-113.281,-27.832,-22.461,-41.992,0.000
1679679923.580,-88.379,-40.039,-25.391,-20.508,0.000
1679679923.584,13.672,-16.113,-22.461,-16.113,0.000
1679679923.588,56.641,-13.672,-22.461,-23.926,0.000
1679679923.591,-17.578,-30.273,-34.668,-33.691,0.000
1679679923.595,-113.770,-29.785,-41.992,-41.992,0.000
1679679923.599,-95.703,-23.438,-32.227,-28.320,0.000
1679679923.603,28.320,-21.484,-15.137,-10.742,0.000
1679679923.607,85.449,-23.438,-10.254,-13.184,0.000
1679679923.611,-4.395,-26.855,-25.879,-38.086,0.000
1679679923.615,-108.398,-20.020,-39.551,-53.711,0.000
1679679923.619,-108.887,-22.949,-31.250,-41.016,0.000
1679679923.623,-11.230,-37.598,-24.414,-26.855,0.000
1679679923.627,49.805,-28.320,-29.297,-28.320,0.000
1679679923.630,2.441,-35.645,-29.297,-37.598,0.000
1679679923.634,-91.797,-48.340,-31.250,-45.410,0.000
1679679923.638,-119.141,-37.109,-33.691,-44.922,0.000
1679679923.642,-29.785,-27.832,-31.738,-32.715,0.000
1679679923.646,37.109,-28.320,-36.133,-36.133,0.000
1679679923.650,-1.953,-26.367,-27.832,-49.805,0.000
1679679923.654,-90.820,-28.320,-12.207,-48.828,0.000
1679679923.658,-127.930,-42.969,-15.625,-48.828,0.000
1679679923.662,-31.738,-63.477,-22.461,-23.438,0.000
1679679923.666,81.055,-50.781,-20.508,13.672,0.000
1679679923.670,38.086,-18.555,-29.785,-15.137,0.000
1679679923.673,-92.773,-12.207,-31.738,-58.105,0.000
1679679923.677,-125.000,-26.367,-26.367,-45.898,0.000
1679679923.681,-44.922,-16.602,-31.250,-36.133,0.000
1679679923.685,33.203,-10.254,-36.133,-50.293,0.000
1679679923.689,23.926,-34.180,-41.992,-56.152,0.000
1679679923.693,-68.848,-41.504,-53.711,-66.406,0.000
1679679923.697,-120.117,-28.320,-57.129,-64.453,0.000
1679679923.701,-62.500,-14.648,-56.152,-54.688,0.000
1679679923.705,27.344,-8.301,-52.246,-48.828,0.000
1679679923.709,43.457,-18.066,-49.316,-44.922,0.000
1679679923.712,-45.410,-39.062,-61.523,-53.711,0.000
1679679923.716,-113.770,-47.363,-71.777,-50.293,0.000
1679679923.720,-62.012,-44.922,-67.871,-33.203,0.000
1679679923.724,25.391,-28.809,-56.641,-32.227,0.000
1679679923.728,36.621,-6.348,-48.828,-41.504,0.000
1679679923.732,-30.762,-12.695,-40.039,-35.156,0.000
1679679923.736,-94.238,-33.203,-31.250,-32.715,0.000
1679679923.740,-59.082,-18.555,-26.367,-23.438,0.000
1679679923.744,22.949,0.000,-12.695,-8.789,0.000
1679679923.748,41.992,-1.953,-10.254,-11.719,0.000
1679679923.752,-12.695,-8.789,-26.855,-26.855,0.000
1679679923.755,-99.609,-26.855,-42.969,-41.016,0.000
1679679923.759,-99.609,-50.781,-52.246,-37.109,0.000
1679679923.763,8.789,-39.551,-47.852,-22.461,0.000
1679679923.767,63.477,-20.996,-40.527,-18.066,0.000
1679679923.771,-2.930,-38.574,-33.691,-25.879,0.000
1679679923.775,-106.445,-43.457,-42.480,-45.898,0.000
1679679923.779,-104.004,-13.672,-45.898,-41.016,0.000
1679679923.783,0.977,-7.812,-26.367,-22.949,0.000
1679679923.787,53.223,-13.184,-20.020,-25.391,0.000
1679679923.791,5.371,-17.578,-26.367,-30.273,0.000
1679679923.795,-83.984,-37.598,-31.738,-31.738,0.000
1679679923.798,-111.816,-46.875,-36.133,-34.668,0.000
1679679923.802,-25.879,-34.180,-33.691,-24.414,0.000
1679679923.806,50.293,-28.320,-31.250,-14.160,0.000
1679679923.810,15.137,-17.578,-33.691,-25.879,0.000
1679679923.814,-79.102,-17.578,-41.016,-38.574,0.000
1679679923.818,-104.004,-28.320,-32.715,-25.391,0.000
1679679923.822,-18.066,-39.062,-21.973,-11.230,0.000
1679679923.826,56.152,-36.133,-36.621,-11.230,0.000
1679679923.830,32.227,-32.227,-40.039,-20.020,0.000
1679679923.834,-50.293,-31.738,-23.438,-19.043,0.000
1679679923.838,-98.145,-28.320,-24.414,-21.973,0.000
1679679923.841,-38.086,-20.508,-30.762,-18.066,0.000
1679679923.845,45.898,-11.719,-32.715,-11.719,0.000
1679679923.849,42.480,-24.414,-31.250,-19.531,0.000
1679679923.853,-48.828,-37.109,-38.086,-25.391,0.000
1679679923.857,-118.652,-27.832,-42.480,-23.926,0.000
1679679923.861,-62.500,-30.762,-34.668,-25.879,0.000
1679679923.865,37.109,-45.410,-31.738,-23.926,0.000
1679679923.869,30.273,-34.180,-36.133,-32.227,0.000
1679679923.873,-49.805,-41.992,-40.039,-34.668,0.000
1679679923.877,-94.238,-42.969,-35.645,-11.719,0.000
1679679923.880,-60.547,-1.465,-36.133,-8.301,0.000
1679679923.884,28.809,8.789,-24.902,-5.859,0.000
1679679923.888,49.316,-2.441,-10.254,-4.395,0.000
1679679923.892,-24.902,-12.695,-18.555,-9.277,0.000
1679679923.896,-98.145,-33.203,-28.809,-11.719,0.000
1679679923.900,-66.895,-30.762,-23.926,-4.395,0.000
1679679923.904,33.691,-12.695,-26.367,1.953,0.000
1679679923.908,48.828,-21.973,-30.762,-2.441,0.000
1679679923.912,-18.555,-30.273,-25.391,-8.301,0.000
1679679923.916,-85.938,-36.621,-21.484,-4.883,0.000
1679679923.920,-79.102,-35.645,-19.043,5.371,0.000
1679679923.923,4.883,-23.438,-21.484,6.836,0.000
1679679923.927,38.574,-20.996,-28.320,5.859,0.000
1679679923.931,-14.648,-33.203,-23.926,9.277,0.000
1679679923.935,-87.891,-48.340,-25.879,0.000,0.000
1679679923.939,-88.379,-25.391,-33.203,-10.742,0.000
1679679923.943,0.000,-4.395,-22.949,-4.395,0.000
1679679923.947,46.875,-13.184,-20.020,-12.207,0.000
1679679923.951,-8.789,-19.043,-38.086,-23.438,0.000
1679679923.955,-99.609,-31.250,-41.992,-24.902,0.000
1679679923.959,-116.211,-41.504,-32.227,-28.809,0.000
1679679923.962,-21.973,-36.621,-26.367,-25.879,0.000
1679679923.966,57.129,-34.668,-17.578,-15.137,0.000
1679679923.970,5.371,-20.996,-20.508,-17.578,0.000
1679679923.974,-103.027,-18.066,-34.668,-37.109,0.000
1679679923.978,-122.559,-35.156,-36.621,-36.133,0.000
1679679923.982,-32.227,-30.273,-32.227,-21.484,0.000
1679679923.986,37.598,-25.391,-37.598,-16.113,0.000
1679679923.990,10.254,-16.113,-31.738,-20.996,0.000
1679679923.994,-80.566,-20.020,-27.344,-37.598,0.000
1679679923.998,-129.883,-34.668,-28.809,-47.852,0.000
1679679924.002,-43.457,-17.090,-14.160,-32.715,0.000
1679679924.005,44.922,-13.184,-12.207,-28.320,0.000
1679679924.009,18.066,-31.738,-29.785,-49.316,0.000
1679679924.013,-74.219,-32.715,-24.902,-53.711,0.000
1679679924.017,-126.953,-31.738,-19.531,-49.805,0.000
1679679924.021,-57.129,-39.062,-16.602,-28.320,0.000
1679679924.025,68.359,-41.016,-3.906,10.254,0.000
1679679924.029,68.359,-31.250,-11.230,3.906,0.000
1679679924.033,-67.871,-26.855,-31.250,-56.152,0.000
1679679924.037,-130.859,-24.414,-35.156,-64.941,0.000
1679679924.041,-37.598,-19.043,-27.344,-27.832,0.000
1679679924.045,44.922,-8.301,-29.785,-31.250,0.000
1679679924.048,35.156,-6.348,-38.086,-37.598,0.000
1679679924.052,-32.715,-28.809,-39.062,-43.945,0.000
1679679924.056,-106.934,-34.180,-49.805,-54.688,0.000
1679679924.060,-81.543,-12.207,-52.734,-58.105,0.000
1679679924.064,19.531,2.441,-46.387,-62.012,0.000
1679679924.068,61.035,-4.395,-48.828,-45.410,0.000
1679679924.072,-8.789,-30.273,-50.293,-32.715,0.000
1679679924.076,-97.656,-34.668,-43.457,-38.574,0.000
1679679924.080,-68.848,-29.297,-43.457,-44.922,0.000
1679679924.084,24.902,-39.551,-57.129,-47.363,0.000
1679679924.087,58.105,-34.668,-54.199,-50.293,0.000
1679679924.091,2.930,-29.785,-42.480,-46.875,0.000
1679679924.095,-81.543,-31.738,-40.527,-50.293,0.000
1679679924.099,-56.152,-29.297,-48.340,-36.621,0.000
1679679924.103,48.340,-32.715,-55.176,-9.766,0.000
1679679924.107,74.707,-14.648,-50.293,-22.949,0.000
1679679924.111,9.277,-3.906,-39.551,-49.316,0.000
1679679924.115,-72.266,-8.789,-26.855,-34.668,0.000
1679679924.119,-96.191,-18.555,-30.273,-28.320,0.000
1679679924.123,-19.531,-32.227,-38.574,-33.691,0.000
1679679924.127,50.293,-15.625,-44.434,-32.227,0.000
1679679924.130,16.602,-8.789,-49.805,-33.203,0.000
1679679924.134,-80.078,-33.691,-53.711,-44.922,0.000
1679679924.138,-108.398,-45.410,-42.480,-46.875,0.000
1679679924.142,-8.789,-17.578,-8.301,-12.695,0.000
1679679924.146,68.848,6.348,-0.977,-14.648,0.000
1679679924.150,27.344,-5.371,-29.297,-48.828,0.000
1679679924.154,-79.102,-32.227,-40.039,-60.059,0.000
1679679924.158,-117.676,-51.758,-34.668,-46.875,0.000
1679679924.162,-30.273,-31.250,-29.785,-30.762,0.000
1679679924.166,61.035,-17.578,-26.367,-31.250,0.000
1679679924.170,34.180,-20.996,-35.645,-39.551,0.000
1679679924.173,-68.848,-16.602,-44.434,-45.410,0.000
1679679924.177,-120.117,-24.414,-48.828,-42.969,0.000
1679679924.181,-46.387,-26.855,-41.992,-26.855,0.000
1679679924.185,55.176,-44.434,-32.715,-20.996,0.000
1679679924.189,41.504,-53.223,-35.156,-25.391,0.000
1679679924.193,-62.500,-38.086,-43.457,-41.504,0.000
1679679924.197,-123.047,-34.180,-34.668,-46.875,0.000
1679679924.201,-57.129,-13.184,-15.625,-32.227,0.000
1679679924.205,45.410,-5.859,-14.648,-30.273,0.000
1679679924.209,38.574,-16.602,-26.367,-41.992,0.000
1679679924.212,-49.316,-40.039,-38.574,-41.016,0.000
1679679924.216,-111.328,-54.688,-43.457,-35.645,0.000
1679679924.220,-56.641,-36.133,-30.762,-17.578,0.000
1679679924.224,40.527,-26.367,-37.109,-22.461,0.000
1679679924.228,41.992,-25.391,-49.805,-45.410,0.000
1679679924.232,-35.156,-29.785,-42.969,-45.410,0.000
1679679924.236,-125.488,-38.086,-46.875,-56.641,0.000
1679679924.240,-103.027,-43.945,-43.945,-54.199,0.000
1679679924.244,22.949,-28.320,-30.273,-23.438,0.000
1679679924.248,62.988,-23.438,-32.227,-20.996,0.000
1679679924.252,-25.879,-40.527,-40.039,-66.895,0.000
1679679924.255,-115.234,-41.992,-31.250,-69.824,0.000
1679679924.259,-95.215,-43.457,-25.879,-45.898,0.000
1679679924.263,-2.930,-36.133,-26.855,-52.246,0.000
1679679924.267,37.598,-23.438,-27.344,-56.152,0.000
1679679924.271,-27.832,-22.461,-30.273,-62.500,0.000
1679679924.275,-114.258,-34.668,-36.621,-62.500,0.000
1679679924.279,-114.258,-38.086,-34.668,-56.641,0.000
1679679924.283,-2.441,-20.996,-23.926,-30.273,0.000
1679679924.287,66.895,-21.973,-26.367,-26.367,0.000
1679679924.291,-14.648,-30.273,-40.527,-44.922,0.000
1679679924.294,-107.910,-43.945,-42.969,-42.969,0.000
1679679924.298,-107.910,-43.945,-41.016,-51.758,0.000
1679679924.302,-6.836,-25.391,-41.992,-36.621,0.000
1679679924.306,63.965,-24.414,-35.156,-25.391,0.000
1679679924.310,0.000,-25.391,-32.715,-51.758,0.000
1679679924.314,-92.285,-32.227,-36.621,-55.664,0.000
1679679924.318,-115.723,-37.598,-34.668,-49.316,0.000
1679679924.322,-44.434,-34.180,-26.855,-43.457,0.000
1679679924.326,42.480,-20.020,-23.438,-40.527,0.000
1679679924.330,28.809,-36.621,-21.973,-48.828,0.000
1679679924.334,-83.984,-45.410,-27.832,-53.223,0.000
1679679924.337,-121.582,-15.137,-33.691,-37.109,0.000
1679679924.341,-30.273,-4.883,-28.320,-21.484,0.000
1679679924.345,41.992,-10.254,-19.043,-34.668,0.000
1679679924.349,23.438,-28.320,-23.438,-43.457,0.000
1679679924.353,-82.520,-40.039,-40.039,-55.176,0.000
1679679924.357,-144.043,-23.926,-42.480,-68.848,0.000
1679679924.361,-71.289,-17.090,-27.344,-41.992,0.000
1679679924.365,35.156,-18.555,-22.949,-24.414,0.000
1679679924.369,34.180,-27.832,-27.344,-29.785,0.000
1679679924.373,-73.730,-43.945,-33.203,-47.852,0.000
1679679924.377,-133.789,-43.457,-37.109,-60.547,0.000
1679679924.380,-83.496,-25.391,-39.062,-48.340,0.000
1679679924.384,23.926,-16.602,-30.273,-26.855,0.000
1679679924.388,40.527,-17.090,-32.715,-21.973,0.000
1679679924.392,-62.988,-32.715,-46.875,-42.969,0.000
1679679924.396,-148.926,-53.223,-44.434,-60.059,0.000
1679679924.400,-109.863,-47.363,-41.504,-53.711,0.000
1679679924.404,-4.883,-38.574,-34.180,-30.273,0.000
1679679924.408,28.320,-27.832,-31.738,-33.203,0.000
1679679924.412,-28.320,-23.438,-22.461,-38.086,0.000
1679679924.416,-114.746,-44.922,-20.020,-35.645,0.000
1679679924.419,-96.191,-40.039,-34.180,-32.715,0.000
1679679924.423,19.043,-3.906,-33.203,-11.719,0.000
1679679924.427,42.969,-6.836,-27.832,-26.855,0.000
1679679924.431,-27.344,-37.109,-24.902,-36.621,0.000
1679679924.435,-140.137,-40.039,-27.832,-66.895,0.000
1679679924.439,-137.695,-26.855,-45.410,-62.012,0.000
1679679924.443,14.160,-26.367,-38.574,-8.789,0.000
1679679924.447,52.734,-24.902,-17.090,-32.227,0.000
1679679924.451,-25.879,-25.879,-21.973,-41.992,0.000
1679679924.455,-112.305,-28.320,-25.391,-29.785,0.000
1679679924.459,-121.094,-46.387,-19.531,-46.387,0.000
1679679924.462,-33.203,-50.781,-25.391,-31.738,0.000
1679679924.466,29.297,-23.926,-25.391,-40.039,0.000
1679679924.470,-12.207,-27.832,-28.809,-54.199,0.000
1679679924.474,-114.258,-43.457,-44.434,-46.875,0.000
1679679924.478,-137.695,-60.059,-39.551,-41.992,0.000
1679679924.482,-30.762,-50.781,-27.344,-24.902,0.000
1679679924.486,36.133,-19.531,-26.855,-25.391,0.000
1679679924.490,-10.742,-4.395,-32.227,-52.246,0.000
1679679924.494,-84.473,-28.809,-17.090,-54.199,0.000
1679679924.498,-133.301,-43.945,-2.441,-38.086,0.000
1679679924.502,-52.246,-34.668,-20.996,-26.855,0.000
1679679924.505,59.570,-30.762,-45.898,-10.254,0.000
1679679924.509,27.832,-26.367,-50.293,-25.879,0.000
1679679924.513,-98.633,-12.207,-45.410,-42.480,0.000
1679679924.517,-140.137,-26.367,-22.949,-35.156,0.000
1679679924.521,-30.762,-40.039,-8.789,-21.484,0.000
1679679924.525,80.078,-38.574,-9.277,-1.953,0.000
1679679924.529,41.992,-29.785,-10.254,-31.738,0.000
1679679924.533,-71.777,-25.391,-33.203,-47.852,0.000
1679679924.537,-116.699,-27.832,-49.805,-30.762,0.000
1679679924.541,-56.152,-30.273,-38.574,-24.902,0.000
1679679924.545,35.156,-31.738,-20.508,-32.227,0.000
1679679924.548,40.039,-22.949,-25.879,-37.109,0.000
1679679924.552,-42.480,-38.574,-37.109,-38.086,0.000
1679679924.556,-130.371,-55.176,-46.387,-43.457,0.000
1679679924.560,-80.566,-45.898,-34.180,-34.180,0.000
1679679924.564,43.457,-14.648,-28.809,-13.672,0.000
1679679924.568,60.547,-10.254,-36.621,-22.461,0.000
1679679924.572,-29.785,-39.551,-28.809,-46.875,0.000
1679679924.576,-111.328,-52.246,-24.902,-44.922,0.000
1679679924.580,-80.566,-32.227,-24.902,-21.484,0.000
