timestamps,TP9,AF7,AF8,TP10,Right AUX
1679759063.488,9.277,36.621,63.965,92.773,0.000
1679759063.492,-20.996,-31.250,-25.879,-41.992,0.000
1679759063.495,-41.992,-96.191,-120.605,-162.109,0.000
1679759063.499,-39.551,-66.895,-86.914,-94.727,0.000
1679759063.503,-17.090,9.766,17.090,51.758,0.000
1679759063.507,23.438,53.711,63.477,97.168,0.000
1679759063.511,3.906,-6.348,-3.906,-9.277,0.000
1679759063.515,-50.781,-118.164,-111.328,-141.602,0.000
1679759063.519,-39.062,-115.723,-106.934,-109.375,0.000
1679759063.523,4.395,-22.461,-3.906,35.156,0.000
1679759063.527,2.930,29.785,47.852,82.031,0.000
1679759063.531,-40.039,-10.742,-13.672,-27.344,0.000
1679759063.535,-61.035,-91.797,-112.305,-162.109,0.000
1679759063.538,-43.945,-105.469,-114.258,-130.371,0.000
1679759063.542,-21.484,-40.039,-17.090,12.695,0.000
1679759063.546,-14.160,30.762,57.617,82.031,0.000
1679759063.550,-47.852,20.996,14.160,-2.930,0.000
1679759063.554,-64.453,-71.289,-99.609,-141.602,0.000
1679759063.558,-41.992,-134.277,-127.441,-144.043,0.000
1679759063.562,-35.156,-71.289,-34.180,-21.973,0.000
1679759063.566,-34.180,24.902,56.641,58.594,0.000
1679759063.570,-41.992,8.789,29.297,6.348,0.000
1679759063.574,-59.570,-78.125,-81.055,-120.117,0.000
1679759063.577,-38.574,-113.281,-123.047,-155.273,0.000
1679759063.581,-9.277,-53.711,-46.387,-33.203,0.000
1679759063.585,3.418,25.391,44.434,90.820,0.000
1679759063.589,-5.371,15.137,37.598,44.434,0.000
1679759063.593,-30.762,-54.199,-57.129,-106.445,0.000
1679759063.597,-33.691,-104.492,-117.676,-152.832,0.000
1679759063.601,-6.836,-62.988,-51.270,-31.738,0.000
1679759063.605,20.996,13.184,50.293,99.121,0.000
1679759063.609,0.977,21.973,48.828,60.059,0.000
1679759063.613,-43.945,-57.129,-54.199,-100.586,0.000
1679759063.617,-46.387,-122.559,-124.023,-166.504,0.000
1679759063.620,-16.113,-86.426,-66.406,-59.570,0.000
1679759063.624,14.160,14.160,42.969,81.055,0.000
1679759063.628,-0.977,42.480,56.152,63.965,0.000
1679759063.632,-51.270,-40.039,-42.480,-84.473,0.000
1679759063.636,-48.828,-117.676,-124.023,-166.992,0.000
1679759063.640,-28.320,-80.566,-72.754,-81.055,0.000
1679759063.644,-20.996,19.531,32.715,44.922,0.000
1679759063.648,-2.441,58.594,60.059,58.594,0.000
1679759063.652,-23.438,-4.883,-17.578,-52.734,0.000
1679759063.656,-41.992,-106.445,-115.234,-153.320,0.000
1679759063.660,-37.109,-87.891,-91.309,-98.633,0.000
1679759063.663,-12.695,16.602,17.578,41.992,0.000
1679759063.667,-2.441,35.645,62.988,82.520,0.000
1679759063.671,-21.973,-25.391,-2.441,-31.250,0.000
1679759063.675,-58.105,-96.680,-103.516,-156.250,0.000
1679759063.679,-30.762,-99.121,-96.680,-109.375,0.000
1679759063.683,25.391,-11.719,6.348,50.293,0.000
1679759063.687,14.648,66.406,65.918,105.957,0.000
1679759063.691,-13.184,17.090,0.000,-4.883,0.000
1679759063.695,-27.344,-79.590,-106.445,-136.230,0.000
1679759063.699,-27.344,-107.422,-113.770,-121.094,0.000
1679759063.703,-14.160,-49.805,-16.113,9.277,0.000
1679759063.706,-9.277,20.996,60.059,83.984,0.000
1679759063.710,-8.789,2.441,12.695,13.184,0.000
1679759063.714,-12.695,-92.773,-98.145,-108.887,0.000
1679759063.718,-17.578,-105.469,-113.281,-122.070,0.000
1679759063.722,-8.789,-33.691,-26.855,-6.836,0.000
1679759063.726,1.953,25.879,58.594,85.449,0.000
1679759063.730,-18.066,6.348,35.645,19.531,0.000
1679759063.734,-39.551,-70.801,-71.777,-120.605,0.000
1679759063.738,-22.949,-95.703,-110.840,-132.812,0.000
1679759063.742,-2.441,-22.461,-31.738,-4.883,0.000
1679759063.746,6.348,39.062,54.199,105.957,0.000
1679759063.749,4.395,17.090,37.598,62.988,0.000
1679759063.753,-39.062,-60.059,-69.336,-95.703,0.000
1679759063.757,-51.758,-105.957,-126.953,-147.949,0.000
1679759063.761,-11.719,-60.547,-58.594,-38.086,0.000
1679759063.765,4.395,29.785,46.875,89.844,0.000
1679759063.769,15.137,38.574,50.781,69.824,0.000
1679759063.773,-7.812,-43.945,-50.293,-86.914,0.000
1679759063.777,-30.762,-93.262,-118.164,-158.691,0.000
1679759063.781,11.230,-45.410,-73.242,-48.340,0.000
1679759063.785,33.691,19.531,28.320,85.938,0.000
1679759063.789,-16.113,38.574,51.758,58.105,0.000
1679759063.792,-46.875,-37.598,-41.016,-84.473,0.000
1679759063.796,-46.875,-120.605,-122.559,-156.250,0.000
1679759063.800,-27.832,-87.402,-81.055,-74.707,0.000
1679759063.804,-0.977,-1.465,26.855,63.965,0.000
1679759063.808,-4.883,30.762,56.152,79.590,0.000
1679759063.812,-46.387,-24.414,-29.785,-59.082,0.000
1679759063.816,-79.102,-104.980,-122.559,-179.199,0.000
1679759063.820,-39.551,-91.797,-97.168,-129.883,0.000
1679759063.824,-21.484,-10.254,3.418,15.625,0.000
1679759063.828,-22.461,37.109,47.852,61.523,0.000
1679759063.832,-41.504,2.441,-10.742,-37.109,0.000
1679759063.835,-29.785,-77.148,-104.004,-147.949,0.000
1679759063.839,-19.531,-111.816,-107.422,-132.812,0.000
1679759063.843,-41.504,-26.367,-6.348,-2.441,0.000
1679759063.847,-4.395,52.246,61.035,84.473,0.000
1679759063.851,-12.207,1.953,5.859,-11.719,0.000
1679759063.855,-40.039,-90.332,-102.051,-145.020,0.000
1679759063.859,-26.855,-92.773,-104.980,-114.746,0.000
1679759063.863,-16.113,-21.484,0.977,16.602,0.000
1679759063.867,-12.207,34.180,77.637,88.379,0.000
1679759063.871,-32.227,10.742,25.391,-0.977,0.000
1679759063.875,-56.152,-67.383,-89.844,-142.090,0.000
1679759063.878,-45.898,-104.980,-115.234,-143.555,0.000
1679759063.882,-18.555,-26.855,-18.555,-6.348,0.000
1679759063.886,-14.160,48.340,63.965,85.938,0.000
1679759063.890,-20.508,8.301,27.832,11.719,0.000
1679759063.894,-34.668,-65.918,-80.078,-124.512,0.000
1679759063.898,-63.477,-107.422,-122.070,-167.969,0.000
1679759063.902,-44.922,-60.547,-40.039,-61.523,0.000
1679759063.906,-8.301,28.809,59.082,67.383,0.000
1679759063.910,-3.418,35.645,52.246,50.293,0.000
1679759063.914,-52.734,-51.758,-69.336,-113.281,0.000
1679759063.918,5.371,-39.062,-67.871,-118.164,0.000
1679759063.921,269.531,255.859,234.863,234.863,0.000
1679759063.925,415.527,489.746,477.051,497.070,0.000
1679759063.929,455.566,536.133,515.137,513.672,0.000
1679759063.933,479.492,483.887,456.543,429.688,0.000
1679759063.937,476.074,420.898,397.949,366.211,0.000
1679759063.941,508.301,470.215,451.660,461.914,0.000
1679759063.945,534.668,553.711,556.152,596.191,0.000
1679759063.949,516.113,556.641,565.918,585.449,0.000
1679759063.953,488.281,483.398,477.539,440.918,0.000
1679759063.957,485.352,408.691,394.531,348.633,0.000
1679759063.961,484.863,421.875,415.527,418.457,0.000
1679759063.964,497.559,495.117,501.953,550.293,0.000
1679759063.968,473.633,522.461,514.160,545.898,0.000
1679759063.972,428.223,446.289,420.898,393.555,0.000
1679759063.976,419.922,364.746,326.172,291.504,0.000
1679759063.980,427.246,371.094,345.215,343.750,0.000
1679759063.984,417.969,418.457,438.477,451.172,0.000
1679759063.988,398.438,440.918,459.473,477.051,0.000
1679759063.992,382.324,381.348,375.488,367.676,0.000
1679759063.996,346.680,287.598,273.438,232.910,0.000
1679759064.000,338.379,290.039,270.996,250.488,0.000
1679759064.004,361.328,357.422,360.352,381.348,0.000
1679759064.007,343.262,384.766,410.645,437.988,0.000
1679759064.011,318.848,333.984,335.938,329.590,0.000
1679759064.015,316.895,249.512,213.379,192.383,0.000
1679759064.019,343.750,253.906,195.801,208.496,0.000
1679759064.023,355.957,360.840,308.594,347.168,0.000
1679759064.027,338.867,398.926,393.555,423.828,0.000
1679759064.031,308.594,332.520,344.727,339.355,0.000
1679759064.035,294.922,247.559,224.609,201.660,0.000
1679759064.039,314.453,226.074,194.336,192.383,0.000
1679759064.043,320.312,288.574,278.809,304.688,0.000
1679759064.046,312.012,363.770,353.516,393.555,0.000
1679759064.051,312.988,337.402,318.848,336.426,0.000
1679759064.054,287.598,232.910,207.520,191.895,0.000
1679759064.058,252.441,201.660,159.668,140.625,0.000
1679759064.062,266.113,272.461,231.445,246.094,0.000
1679759064.066,291.016,331.055,313.965,348.145,0.000
1679759064.070,260.742,304.688,283.691,288.086,0.000
1679759064.074,230.469,208.008,177.734,145.020,0.000
1679759064.078,215.820,135.742,115.723,90.820,0.000
1679759064.082,220.703,187.012,176.758,181.152,0.000
1679759064.086,235.840,272.461,273.438,291.504,0.000
1679759064.089,219.727,258.301,261.719,261.719,0.000
1679759064.093,194.824,189.941,159.180,125.488,0.000
1679759064.097,196.777,138.184,91.797,62.012,0.000
1679759064.101,215.820,167.969,148.926,161.621,0.000
1679759064.105,217.285,232.422,252.441,288.086,0.000
1679759064.109,208.496,240.234,259.766,280.273,0.000
1679759064.113,186.523,184.570,153.320,138.184,0.000
1679759064.117,181.152,120.605,65.430,49.805,0.000
1679759064.121,187.012,128.906,101.562,124.512,0.000
1679759064.125,175.781,188.965,199.707,232.910,0.000
1679759064.129,170.410,221.191,233.887,262.207,0.000
1679759064.132,182.617,158.691,160.156,169.434,0.000
1679759064.136,170.898,68.359,63.477,52.246,0.000
1679759064.140,159.180,80.078,83.984,88.867,0.000
1679759064.144,181.152,180.176,184.570,225.098,0.000
1679759064.148,183.105,227.051,220.703,266.113,0.000
1679759064.152,158.691,159.180,151.367,143.066,0.000
1679759064.156,117.676,83.984,62.012,9.766,0.000
1679759064.160,116.211,77.148,65.430,38.086,0.000
1679759064.164,156.250,160.645,163.086,179.199,0.000
1679759064.168,161.621,209.473,220.703,241.699,0.000
1679759064.172,125.977,143.066,158.691,139.648,0.000
1679759064.175,99.609,47.363,50.781,-14.648,0.000
1679759064.179,105.469,36.621,36.133,-11.230,0.000
1679759064.183,113.770,115.723,123.047,121.582,0.000
1679759064.187,110.840,187.500,193.848,196.777,0.000
1679759064.191,100.586,160.645,154.785,125.977,0.000
1679759064.195,98.633,71.289,50.781,4.883,0.000
1679759064.199,121.582,32.227,18.066,4.395,0.000
1679759064.203,141.602,104.492,105.469,125.488,0.000
1679759064.207,140.625,187.012,192.871,218.750,0.000
1679759064.211,101.562,172.852,164.551,147.461,0.000
1679759064.215,80.566,70.312,50.781,6.348,0.000
1679759064.218,101.074,4.883,-1.465,-2.930,0.000
1679759064.222,125.488,75.684,83.008,121.094,0.000
1679759064.226,113.770,159.180,176.270,211.914,0.000
1679759064.230,102.051,137.695,152.344,150.879,0.000
1679759064.234,92.773,56.152,41.504,11.230,0.000
1679759064.238,87.891,12.207,-16.113,-24.414,0.000
1679759064.242,115.723,67.871,66.406,90.820,0.000
1679759064.246,129.395,142.090,166.016,205.566,0.000
1679759064.250,107.910,149.902,160.645,176.758,0.000
1679759064.254,99.121,74.707,60.547,43.945,0.000
1679759064.258,93.262,29.297,-3.418,-38.086,0.000
1679759064.261,80.078,60.547,43.945,30.273,0.000
1679759064.265,101.562,112.305,136.230,168.457,0.000
1679759064.269,115.234,134.766,159.668,180.664,0.000
1679759064.273,79.590,67.871,66.895,39.062,0.000
1679759064.277,72.266,-7.812,-21.484,-58.594,0.000
1679759064.281,89.355,38.574,22.949,10.254,0.000
1679759064.285,109.863,125.488,125.488,148.926,0.000
1679759064.289,113.281,143.555,159.668,180.664,0.000
1679759064.293,96.680,75.684,82.520,66.895,0.000
1679759064.297,48.340,-4.883,-13.184,-53.223,0.000
1679759064.301,39.062,17.578,9.277,-17.090,0.000
1679759064.304,95.215,111.816,107.422,129.883,0.000
1679759064.308,90.820,128.906,150.391,183.594,0.000
1679759064.312,68.359,63.477,78.613,80.566,0.000
1679759064.316,57.617,-7.324,-28.320,-58.105,0.000
1679759064.320,54.199,-9.766,-21.484,-34.180,0.000
1679759064.324,64.941,60.547,80.078,102.051,0.000
1679759064.328,60.547,111.816,134.766,158.691,0.000
1679759064.332,29.297,69.824,79.102,59.082,0.000
1679759064.336,23.438,-24.414,-22.461,-69.824,0.000
1679759064.340,49.316,-30.273,-27.832,-43.457,0.000
1679759064.344,49.805,58.594,56.152,68.848,0.000
1679759064.347,33.691,99.121,116.699,118.164,0.000
1679759064.351,25.391,71.777,76.172,39.062,0.000
1679759064.355,6.348,-6.348,-38.086,-91.309,0.000
1679759064.359,13.672,-42.480,-66.895,-93.262,0.000
1679759064.363,45.898,36.133,32.227,50.293,0.000
1679759064.367,64.453,104.980,117.676,155.762,0.000
1679759064.371,34.180,69.336,86.914,81.055,0.000
1679759064.375,19.043,-4.395,-17.090,-66.406,0.000
1679759064.379,29.785,-25.391,-58.105,-91.309,0.000
1679759064.383,42.969,17.090,15.137,23.926,0.000
1679759064.387,72.266,86.914,110.352,144.043,0.000
1679759064.390,60.059,86.914,104.004,107.422,0.000
1679759064.394,21.484,10.742,5.371,-26.855,0.000
1679759064.398,28.809,-23.926,-49.316,-65.430,0.000
1679759064.402,55.664,5.371,2.441,30.762,0.000
1679759064.406,50.781,81.055,96.191,140.625,0.000
1679759064.410,41.504,105.957,111.816,116.211,0.000
1679759064.414,20.020,22.461,15.625,-20.508,0.000
1679759064.418,25.879,-50.781,-57.617,-78.125,0.000
1679759064.422,74.219,-5.859,6.348,36.133,0.000
1679759064.426,68.359,96.191,106.445,143.066,0.000
1679759064.430,7.812,105.469,114.746,101.074,0.000
1679759064.433,25.391,26.855,21.973,-21.484,0.000
1679759064.437,41.992,-15.137,-56.152,-94.727,0.000
1679759064.441,32.715,4.395,-21.484,-22.949,0.000
1679759064.445,42.480,83.984,75.684,108.398,0.000
1679759064.449,37.109,114.258,104.980,119.141,0.000
1679759064.453,5.371,37.598,25.391,-16.602,0.000
1679759064.457,-12.207,-47.852,-70.312,-126.953,0.000
1679759064.461,29.297,-35.645,-49.316,-50.781,0.000
1679759064.465,68.848,55.176,60.059,105.469,0.000
1679759064.469,60.547,108.887,114.746,145.996,0.000
1679759064.473,46.387,52.246,43.945,43.945,0.000
1679759064.476,37.598,-31.738,-63.477,-72.266,0.000
1679759064.480,35.645,-24.414,-58.105,-52.246,0.000
1679759064.484,50.781,54.688,45.898,82.031,0.000
1679759064.488,58.105,109.863,111.328,155.762,0.000
1679759064.492,38.086,77.637,56.152,58.594,0.000
1679759064.496,8.789,-14.648,-56.152,-92.773,0.000
1679759064.500,22.461,-41.504,-66.895,-68.359,0.000
1679759064.504,65.430,40.039,39.062,87.891,0.000
1679759064.508,67.383,112.305,111.328,154.785,0.000
1679759064.512,38.086,62.012,61.035,55.664,0.000
1679759064.515,7.324,-20.020,-51.270,-93.262,0.000
1679759064.519,9.277,-37.598,-80.566,-100.098,0.000
1679759064.523,46.387,20.508,11.230,36.621,0.000
1679759064.527,39.062,100.098,98.145,131.348,0.000
1679759064.531,12.695,98.633,71.777,63.477,0.000
1679759064.535,3.418,3.418,-34.668,-79.590,0.000
1679759064.539,4.395,-43.457,-75.195,-95.703,0.000
1679759064.543,39.551,3.418,8.789,33.691,0.000
1679759064.547,54.199,66.406,97.656,134.277,0.000
1679759064.551,33.691,70.312,86.426,83.984,0.000
1679759064.555,12.695,-10.254,-12.695,-55.176,0.000
1679759064.558,10.742,-61.035,-75.684,-100.098,0.000
1679759064.562,62.012,3.418,0.977,37.598,0.000
1679759064.566,98.145,79.102,105.957,179.688,0.000
1679759064.570,47.363,78.125,96.191,117.676,0.000
1679759064.574,0.000,4.395,-13.184,-49.805,0.000
1679759064.578,20.996,-51.758,-84.473,-107.910,0.000
1679759064.582,48.340,-2.930,-28.320,-13.672,0.000
1679759064.586,62.012,93.750,76.172,123.047,0.000
1679759064.590,69.336,88.867,95.215,132.324,0.000
1679759064.594,46.387,-2.441,5.859,-1.465,0.000
1679759064.598,27.344,-62.500,-76.660,-84.961,0.000
1679759064.601,28.320,-32.715,-39.062,-21.484,0.000
1679759064.605,23.438,41.504,56.641,77.148,0.000
1679759064.609,27.344,68.359,93.750,93.750,0.000
1679759064.613,22.461,13.672,17.578,-10.742,0.000
1679759064.617,11.230,-56.641,-79.102,-111.328,0.000
1679759064.621,22.461,-46.875,-55.664,-62.012,0.000
1679759064.625,23.926,42.969,48.340,63.477,0.000
1679759064.629,30.273,86.426,100.098,110.352,0.000
1679759064.633,14.160,44.922,27.344,2.441,0.000
1679759064.637,-11.230,-41.992,-77.637,-125.000,0.000
1679759064.641,25.879,-52.734,-60.547,-67.871,0.000
1679759064.644,58.594,17.578,44.922,86.914,0.000
1679759064.648,40.527,76.660,102.539,134.766,0.000
1679759064.652,3.418,50.293,41.016,16.602,0.000
1679759064.656,0.977,-37.109,-65.430,-97.656,0.000
1679759064.660,32.715,-56.641,-74.219,-55.664,0.000
1679759064.664,45.898,16.113,26.367,75.684,0.000
1679759064.668,36.621,87.891,98.145,143.066,0.000
1679759064.672,31.250,58.594,44.434,45.898,0.000
1679759064.676,15.137,-35.156,-54.688,-89.844,0.000
1679759064.680,22.461,-38.574,-72.266,-77.148,0.000
1679759064.684,32.715,16.113,1.465,31.738,0.000
1679759064.687,44.922,78.125,76.172,118.652,0.000
1679759064.691,27.832,62.988,48.828,62.988,0.000
1679759064.695,-6.836,-29.785,-52.246,-84.961,0.000
1679759064.699,-0.488,-69.824,-90.820,-113.281,0.000
1679759064.703,31.738,-1.465,-15.137,18.066,0.000
1679759064.707,40.527,83.008,78.613,122.559,0.000
1679759064.711,22.949,66.895,67.383,78.613,0.000
1679759064.715,-8.789,-28.320,-40.527,-67.383,0.000
1679759064.719,-20.508,-62.500,-91.309,-125.488,0.000
1679759064.723,21.973,5.371,-20.020,0.000,0.000
1679759064.727,42.969,95.703,65.430,123.535,0.000
1679759064.730,17.578,83.008,65.430,91.797,0.000
1679759064.734,-7.812,-29.785,-18.555,-39.551,0.000
1679759064.738,-8.789,-91.309,-87.891,-113.770,0.000
1679759064.742,34.668,-38.086,-40.039,-20.508,0.000
1679759064.746,69.824,57.617,63.965,130.859,0.000
1679759064.750,54.688,79.102,83.984,122.070,0.000
1679759064.754,29.785,4.883,0.977,-7.324,0.000
1679759064.758,17.090,-45.898,-86.426,-94.727,0.000
1679759064.762,26.367,-12.695,-51.270,-31.250,0.000
1679759064.766,44.434,49.805,50.293,109.375,0.000
1679759064.770,55.176,74.219,86.426,130.859,0.000
1679759064.773,23.926,36.621,8.301,-5.371,0.000
1679759064.777,-11.230,-53.711,-99.121,-125.977,0.000
1679759064.781,7.324,-57.617,-80.078,-61.523,0.000
1679759064.785,40.527,41.504,33.691,92.285,0.000
1679759064.789,33.203,85.938,83.984,128.418,0.000
1679759064.793,-19.531,6.348,14.648,-14.648,0.000
1679759064.797,-40.527,-67.383,-83.496,-150.391,0.000
1679759064.801,0.488,-40.039,-68.848,-93.262,0.000
1679759064.805,27.344,31.738,26.855,58.105,0.000
1679759064.809,23.438,76.660,81.543,111.816,0.000
1679759064.813,7.812,50.781,37.598,11.719,0.000
1679759064.816,-16.602,-52.246,-66.406,-118.652,0.000
1679759064.820,1.465,-62.012,-72.754,-92.285,0.000
1679759064.824,31.738,20.020,24.902,44.922,0.000
1679759064.828,39.551,79.102,96.680,131.348,0.000
1679759064.832,30.273,56.152,60.059,63.965,0.000
1679759064.836,2.441,-38.086,-44.434,-76.660,0.000
1679759064.840,2.930,-74.707,-71.289,-84.473,0.000
1679759064.844,28.320,5.859,12.207,37.598,0.000
1679759064.848,42.969,86.426,98.145,131.348,0.000
1679759064.852,33.203,56.152,69.824,76.172,0.000
1679759064.856,-5.371,-41.504,-44.922,-75.684,0.000
1679759064.859,-4.883,-69.336,-83.008,-104.980,0.000
1679759064.863,35.156,8.301,-5.371,25.879,0.000
1679759064.867,38.086,94.238,83.984,125.000,0.000
1679759064.871,20.508,80.566,74.707,73.242,0.000
1679759064.875,10.254,-19.531,-28.809,-72.754,0.000
1679759064.879,-4.395,-72.266,-89.844,-137.207,0.000
1679759064.883,13.672,-21.973,-20.996,-21.973,0.000
1679759064.887,21.484,59.082,80.566,103.027,0.000
1679759064.891,0.000,66.895,85.938,73.730,0.000
1679759064.895,-16.113,-5.859,-7.324,-60.547,0.000
1679759064.899,-12.207,-61.523,-66.406,-119.629,0.000
1679759064.902,6.836,-39.551,-17.090,-34.180,0.000
1679759064.906,22.949,48.828,75.684,94.727,0.000
1679759064.910,25.879,83.984,87.891,104.004,0.000
1679759064.914,0.000,20.508,2.441,-34.180,0.000
1679759064.918,-9.277,-62.012,-76.660,-123.047,0.000
1679759064.922,20.996,-56.152,-47.363,-43.945,0.000
1679759064.926,31.250,36.133,52.246,86.914,0.000
1679759064.930,26.855,64.453,99.121,118.652,0.000
1679759064.934,12.207,-11.230,21.973,-3.906,0.000
1679759064.938,2.441,-75.195,-81.055,-121.582,0.000
1679759064.942,25.391,-44.434,-55.176,-60.547,0.000
1679759064.945,46.875,36.621,50.781,94.727,0.000
1679759064.949,41.016,79.590,89.355,127.930,0.000
1679759064.953,9.766,24.902,14.648,1.953,0.000
1679759064.957,-3.906,-49.316,-81.055,-114.746,0.000
1679759064.961,16.113,-34.180,-59.570,-64.453,0.000
1679759064.965,29.297,25.391,44.434,68.359,0.000
1679759064.969,26.367,60.059,100.586,105.469,0.000
1679759064.973,0.000,19.531,43.457,2.930,0.000
1679759064.977,-16.602,-78.613,-64.941,-124.512,0.000
1679759064.981,-7.324,-88.867,-81.543,-104.004,0.000
1679759064.984,20.996,2.441,12.695,33.203,0.000
1679759064.988,25.879,71.777,88.867,110.352,0.000
1679759064.992,-2.441,38.574,47.363,27.832,0.000
1679759064.996,-17.090,-50.293,-60.547,-109.375,0.000
1679759065.000,-5.859,-68.848,-86.426,-105.469,0.000
1679759065.004,0.977,-8.789,-2.930,18.555,0.000
1679759065.008,3.906,66.895,86.914,104.492,0.000
1679759065.012,4.883,57.129,69.336,60.547,0.000
1679759065.016,-4.395,-46.387,-36.133,-71.777,0.000
1679759065.020,3.418,-93.262,-78.125,-105.957,0.000
1679759065.023,41.016,-20.508,-5.371,26.855,0.000
1679759065.027,60.547,58.105,85.938,149.414,0.000
1679759065.031,23.926,41.016,80.078,91.797,0.000
1679759065.035,-1.953,-35.156,-17.578,-47.852,0.000
1679759065.039,3.906,-76.172,-78.613,-112.305,0.000
1679759065.043,20.508,-30.762,-17.090,-25.879,0.000
1679759065.047,25.391,48.340,80.078,103.027,0.000
1679759065.051,10.254,57.617,73.242,77.637,0.000
1679759065.055,-12.695,-11.230,-19.043,-55.176,0.000
1679759065.059,-1.465,-75.195,-89.844,-120.117,0.000
1679759065.063,22.949,-36.133,-37.109,-32.227,0.000
1679759065.067,13.184,51.270,64.453,84.961,0.000
1679759065.070,0.977,60.547,72.754,70.801,0.000
1679759065.074,-20.020,-32.227,-8.789,-56.641,0.000
1679759065.078,-25.391,-83.008,-81.543,-129.883,0.000
1679759065.082,-1.953,-32.715,-49.316,-52.734,0.000
1679759065.086,23.438,28.809,45.898,82.520,0.000
1679759065.090,15.137,52.246,86.426,105.957,0.000
1679759065.094,-6.348,18.066,18.066,-16.602,0.000
1679759065.098,-8.789,-63.477,-81.543,-125.000,0.000
1679759065.102,-5.371,-48.828,-65.918,-72.266,0.000
1679759065.106,8.301,27.832,31.250,58.594,0.000
1679759065.110,17.578,57.617,81.055,103.516,0.000
1679759065.113,1.953,13.672,28.809,3.906,0.000
1679759065.117,-13.672,-76.172,-65.918,-116.211,0.000
1679759065.121,5.371,-70.801,-58.105,-75.684,0.000
1679759065.125,34.180,26.855,33.691,62.500,0.000
1679759065.129,35.156,77.637,88.379,126.953,0.000
1679759065.133,12.207,23.438,37.109,33.691,0.000
1679759065.137,-32.227,-79.590,-67.871,-124.512,0.000
1679759065.141,-20.996,-80.566,-73.242,-113.770,0.000
1679759065.145,32.715,16.113,22.461,39.062,0.000
1679759065.149,50.293,82.031,95.215,123.535,0.000
1679759065.153,20.020,41.992,45.410,37.109,0.000
1679759065.156,-10.742,-57.129,-63.477,-110.352,0.000
1679759065.160,-1.465,-88.379,-83.984,-114.258,0.000
1679759065.164,21.973,-19.531,6.836,20.020,0.000
1679759065.168,27.344,44.922,89.355,113.281,0.000
1679759065.172,3.418,35.156,63.477,37.109,0.000
1679759065.176,-21.484,-25.879,-42.480,-110.840,0.000
1679759065.180,-14.648,-66.406,-83.984,-131.836,0.000
1679759065.184,2.930,-11.230,-0.977,-2.930,0.000
1679759065.188,17.090,75.684,91.797,108.887,0.000
1679759065.192,10.254,57.129,77.148,66.406,0.000
1679759065.196,8.789,-27.832,-30.273,-62.012,0.000
1679759065.199,12.695,-69.336,-83.984,-108.398,0.000
1679759065.203,27.832,-27.832,-12.207,-1.953,0.000
1679759065.207,43.945,55.176,81.543,121.094,0.000
1679759065.211,26.855,57.617,76.172,85.938,0.000
1679759065.215,-10.254,-22.461,-22.461,-62.500,0.000
1679759065.219,-10.254,-72.754,-85.938,-128.906,0.000
1679759065.223,23.926,-38.086,-33.203,-23.926,0.000
1679759065.227,39.062,48.340,66.895,120.605,0.000
1679759065.231,30.273,57.129,91.797,118.164,0.000
1679759065.235,-14.160,-22.461,10.742,-40.527,0.000
1679759065.239,-37.598,-71.289,-77.637,-148.438,0.000
1679759065.242,-3.906,-17.578,-44.922,-62.012,0.000
1679759065.246,27.344,52.246,49.805,78.125,0.000
1679759065.250,12.207,55.176,76.172,83.496,0.000
1679759065.254,-22.461,-7.812,-5.371,-41.016,0.000
1679759065.258,-19.043,-80.078,-90.820,-129.883,0.000
1679759065.262,7.812,-64.941,-53.711,-61.523,0.000
1679759065.266,35.645,31.250,46.387,77.148,0.000
1679759065.270,33.203,74.707,85.938,104.980,0.000
1679759065.274,-20.020,5.371,18.555,-30.762,0.000
1679759065.278,-44.922,-74.707,-83.008,-158.203,0.000
1679759065.282,-3.906,-60.059,-74.707,-98.145,0.000
1679759065.285,38.086,10.742,32.715,66.406,0.000
1679759065.289,37.598,77.148,93.262,114.746,0.000
1679759065.293,7.812,41.016,25.391,3.906,0.000
1679759065.297,-12.207,-59.570,-84.473,-125.977,0.000
1679759065.301,-7.812,-77.148,-86.914,-109.375,0.000
1679759065.305,17.090,-12.207,11.719,29.297,0.000
1679759065.309,33.203,42.969,83.984,119.629,0.000
1679759065.313,7.812,23.926,40.527,37.598,0.000
1679759065.317,-23.438,-51.758,-61.523,-106.934,0.000
1679759065.321,-8.789,-76.660,-86.914,-109.863,0.000
1679759065.325,11.230,-17.090,-2.930,12.695,0.000
1679759065.328,4.395,49.316,77.637,98.633,0.000
1679759065.332,-2.441,29.297,41.016,39.062,0.000
1679759065.336,-16.602,-43.945,-61.523,-102.539,0.000
1679759065.340,-27.344,-79.590,-96.191,-142.090,0.000
1679759065.344,-12.695,-35.645,-20.508,-26.367,0.000
1679759065.348,8.789,49.316,77.148,90.332,0.000
1679759065.352,-4.883,43.945,59.082,49.316,0.000
1679759065.356,-25.879,-55.176,-47.363,-86.426,0.000
1679759065.360,-21.484,-110.352,-99.609,-126.953,0.000
1679759065.364,1.953,-44.434,-35.156,-20.996,0.000
1679759065.368,22.461,39.551,56.641,99.609,0.000
1679759065.371,-0.977,44.434,59.570,72.754,0.000
1679759065.375,-33.691,-17.090,-22.949,-68.359,0.000
1679759065.379,-20.996,-80.078,-89.355,-135.254,0.000
1679759065.383,11.230,-32.715,-35.645,-30.273,0.000
1679759065.387,15.137,37.109,62.988,94.727,0.000
1679759065.391,-7.812,40.039,80.078,83.496,0.000
1679759065.395,-23.438,-17.578,-6.348,-33.691,0.000
1679759065.399,-22.461,-95.215,-90.820,-110.840,0.000
1679759065.403,-9.766,-78.125,-49.316,-33.691,0.000
1679759065.406,5.859,20.020,54.199,86.914,0.000
1679759065.411,4.395,65.430,76.172,99.121,0.000
1679759065.414,1.465,0.977,-12.207,-15.137,0.000
1679759065.418,-20.508,-86.914,-107.422,-137.695,0.000
1679759065.422,-37.598,-84.473,-76.660,-102.051,0.000
1679759065.426,-12.695,1.953,27.344,41.504,0.000
1679759065.430,-0.977,66.895,73.730,91.797,0.000
1679759065.434,-11.230,0.977,9.277,-15.137,0.000
1679759065.438,-24.902,-100.098,-88.867,-130.859,0.000
1679759065.442,-14.648,-86.426,-83.496,-92.285,0.000
1679759065.446,1.953,-0.977,10.742,36.621,0.000
1679759065.450,-7.812,43.457,69.336,81.055,0.000
1679759065.453,-27.832,-0.977,15.625,-13.672,0.000
1679759065.457,-39.062,-74.707,-83.984,-135.742,0.000
1679759065.461,-20.508,-82.520,-88.867,-110.352,0.000
1679759065.465,3.906,-7.812,9.766,38.086,0.000
1679759065.469,-5.859,55.176,81.543,104.980,0.000
1679759065.473,-18.066,14.648,31.738,26.367,0.000
1679759065.477,-17.578,-56.641,-64.941,-92.773,0.000
1679759065.481,-20.020,-79.102,-88.867,-105.469,0.000
1679759065.485,8.301,-30.273,-5.859,22.949,0.000
1679759065.489,23.926,55.664,74.707,119.629,0.000
1679759065.493,3.418,48.340,40.039,56.641,0.000
1679759065.496,-20.020,-43.457,-54.688,-81.543,0.000
1679759065.500,-20.508,-85.938,-87.891,-116.699,0.000
1679759065.504,2.930,-21.484,-12.207,4.883,0.000
1679759065.508,24.414,59.570,83.008,118.652,0.000
1679759065.512,0.000,40.527,66.406,63.965,0.000
1679759065.516,-34.180,-42.480,-41.016,-88.867,0.000
1679759065.520,-38.086,-79.102,-101.562,-150.391,0.000
1679759065.524,-9.277,-18.066,-29.785,-31.738,0.000
1679759065.528,18.066,47.852,70.801,99.609,0.000
1679759065.532,2.441,40.039,67.871,64.941,0.000
1679759065.536,-25.879,-25.391,-23.926,-75.684,0.000
1679759065.539,-34.668,-86.914,-93.262,-148.438,0.000
1679759065.543,4.883,-43.457,-41.992,-44.922,0.000
1679759065.547,28.320,41.016,69.336,94.727,0.000
1679759065.551,-1.465,59.082,84.473,84.961,0.000
1679759065.555,-22.461,-11.719,-16.113,-43.457,0.000
1679759065.559,-16.113,-85.449,-91.309,-125.977,0.000
1679759065.563,-5.371,-43.457,-45.898,-51.758,0.000
1679759065.567,2.441,29.297,43.945,72.266,0.000
1679759065.571,-6.836,54.688,73.730,81.055,0.000
1679759065.575,-30.762,-1.465,6.836,-26.367,0.000
1679759065.579,-21.973,-88.379,-83.008,-115.234,0.000
1679759065.582,4.883,-69.824,-59.082,-54.199,0.000
1679759065.586,10.254,11.719,41.016,66.895,0.000
1679759065.590,-7.324,47.852,81.055,85.938,0.000
1679759065.594,-21.484,15.137,11.230,-19.531,0.000
1679759065.598,-39.062,-67.871,-94.238,-148.926,0.000
1679759065.602,-49.316,-87.402,-85.938,-125.977,0.000
1679759065.606,-26.367,-14.648,17.578,18.555,0.000
1679759065.610,-13.672,49.316,73.730,81.543,0.000
1679759065.614,-25.879,10.254,21.484,-10.254,0.000
1679759065.618,-25.879,-54.199,-68.848,-129.395,0.000
1679759065.622,-14.160,-62.988,-78.125,-116.699,0.000
1679759065.625,4.395,-11.719,6.348,11.230,0.000
1679759065.629,23.926,61.523,76.172,94.238,0.000
1679759065.633,-16.602,36.621,32.715,0.977,0.000
1679759065.637,-59.082,-75.684,-74.707,-139.648,0.000
1679759065.641,-32.715,-98.145,-91.309,-120.117,0.000
1679759065.645,11.719,-1.465,-2.441,23.438,0.000
1679759065.649,20.996,64.941,74.219,115.234,0.000
1679759065.653,-5.859,38.086,45.410,45.898,0.000
1679759065.657,-25.879,-33.203,-48.828,-87.891,0.000
1679759065.661,-15.625,-85.938,-90.820,-124.023,0.000
1679759065.665,-1.465,-23.438,-24.902,-18.555,0.000
1679759065.668,13.184,52.734,56.152,95.703,0.000
1679759065.672,12.207,37.109,43.945,63.477,0.000
1679759065.676,-2.930,-30.762,-46.387,-73.242,0.000
1679759065.680,-2.930,-83.008,-105.469,-125.977,0.000
1679759065.684,10.254,-36.621,-40.039,-28.809,0.000
1679759065.688,15.625,64.453,69.824,88.867,0.000
1679759065.692,-4.395,58.594,62.500,73.730,0.000
1679759065.696,-17.090,-35.156,-42.480,-60.059,0.000
1679759065.700,-15.137,-91.797,-107.910,-140.137,0.000
1679759065.704,9.277,-59.570,-55.664,-44.434,0.000
1679759065.708,20.996,28.809,47.363,89.844,0.000
1679759065.711,13.672,60.059,65.430,85.449,0.000
1679759065.715,-6.348,-28.320,-29.785,-47.852,0.000
1679759065.719,-17.090,-95.703,-108.887,-135.254,0.000
1679759065.723,6.836,-44.922,-59.570,-54.199,0.000
1679759065.727,28.320,30.762,47.363,83.496,0.000
1679759065.731,10.254,45.898,74.707,94.238,0.000
1679759065.735,-20.020,-7.812,-6.348,-26.367,0.000
1679759065.739,-12.207,-78.613,-95.703,-114.746,0.000
1679759065.743,11.230,-61.523,-70.312,-51.270,0.000
1679759065.747,9.766,14.648,27.832,63.477,0.000
1679759065.750,8.301,63.965,71.777,93.750,0.000
1679759065.754,-4.395,10.254,3.418,-9.277,0.000
1679759065.758,-30.762,-85.449,-95.703,-138.184,0.000
1679759065.762,-14.160,-71.289,-85.449,-99.121,0.000
1679759065.766,13.672,11.230,15.625,60.059,0.000
1679759065.770,15.625,48.340,74.707,120.605,0.000
1679759065.774,-7.812,0.977,17.578,13.184,0.000
1679759065.778,-33.691,-84.473,-90.332,-128.418,0.000
1679759065.782,-34.180,-89.844,-100.098,-126.953,0.000
1679759065.786,-9.277,5.859,-1.953,8.301,0.000
1679759065.790,10.742,65.430,73.242,104.492,0.000
1679759065.794,-20.020,5.859,18.555,14.160,0.000
1679759065.797,-50.293,-73.730,-87.891,-132.324,0.000
1679759065.801,-34.668,-66.895,-104.492,-127.930,0.000
1679759065.805,-4.395,-7.324,-18.066,5.859,0.000
1679759065.809,13.184,35.156,61.523,108.887,0.000
1679759065.813,5.371,7.812,33.691,50.781,0.000
1679759065.817,-13.184,-63.965,-64.453,-90.332,0.000
1679759065.821,-8.301,-99.121,-108.887,-118.652,0.000
1679759065.825,16.113,-37.598,-35.645,2.441,0.000
1679759065.829,19.531,60.547,66.895,110.840,0.000
1679759065.833,-10.254,54.688,53.711,57.617,0.000
1679759065.837,-42.480,-40.039,-53.711,-84.961,0.000
1679759065.840,-32.715,-96.680,-106.934,-129.395,0.000
1679759065.844,10.742,-21.973,-37.598,-16.602,0.000
1679759065.848,25.879,55.664,52.246,103.516,0.000
1679759065.852,-0.488,40.527,51.270,72.266,0.000
1679759065.856,-31.738,-26.367,-42.969,-66.406,0.000
1679759065.860,-23.438,-86.426,-108.887,-133.789,0.000
1679759065.864,-0.488,-53.711,-58.105,-43.457,0.000
1679759065.868,3.418,41.016,36.133,82.520,0.000
1679759065.872,-9.766,50.781,55.176,79.102,0.000
1679759065.876,-44.922,-15.625,-21.484,-59.570,0.000
1679759065.880,-39.062,-73.730,-97.656,-146.484,0.000
1679759065.883,-8.301,-54.199,-60.547,-57.617,0.000
1679759065.887,2.930,24.414,41.504,68.359,0.000
1679759065.891,4.395,54.688,77.148,86.426,0.000
1679759065.895,-21.484,-3.418,-0.488,-32.227,0.000
1679759065.899,-36.621,-71.289,-90.820,-140.137,0.000
1679759065.903,-35.645,-83.496,-69.824,-93.262,0.000
1679759065.907,-7.324,-14.160,25.391,41.992,0.000
1679759065.911,10.254,40.527,64.941,88.867,0.000
1679759065.915,-23.926,3.906,-7.324,-28.320,0.000
1679759065.919,-45.898,-95.215,-109.863,-152.344,0.000
1679759065.922,-29.297,-94.727,-97.656,-110.840,0.000
1679759065.926,-5.859,0.000,9.277,36.621,0.000
1679759065.930,5.371,38.086,65.918,110.840,0.000
1679759065.934,-15.137,-2.441,10.742,8.789,0.000
1679759065.938,-38.086,-59.082,-79.590,-127.930,0.000
1679759065.942,-25.879,-76.660,-92.773,-105.469,0.000
1679759065.946,-3.906,-6.348,-5.371,29.297,0.000
1679759065.950,-7.324,48.340,67.383,94.238,0.000
1679759065.954,-39.551,-3.906,23.926,0.977,0.000
1679759065.958,-40.527,-80.566,-77.148,-117.676,0.000
1679759065.962,-29.297,-87.891,-98.633,-120.605,0.000
1679759065.965,-15.137,-25.879,-16.602,-10.254,0.000
1679759065.969,-3.906,59.570,62.500,86.426,0.000
1679759065.973,-42.480,29.785,22.949,6.836,0.000
1679759065.977,-69.336,-80.078,-77.148,-145.996,0.000
1679759065.981,-42.969,-112.305,-104.492,-156.738,0.000
1679759065.985,-16.602,-41.016,-27.832,-26.855,0.000
1679759065.989,-13.672,44.922,63.965,75.195,0.000
1679759065.993,-21.973,44.922,52.246,24.414,0.000
1679759065.997,-30.273,-41.504,-49.316,-107.910,0.000
1679759066.001,-43.457,-107.422,-105.469,-153.809,0.000
1679759066.005,-22.461,-55.664,-37.109,-39.551,0.000
1679759066.008,3.906,31.250,57.617,91.309,0.000
1679759066.012,-7.324,31.250,57.129,67.871,0.000
1679759066.016,-25.879,-49.316,-39.062,-65.918,0.000
1679759066.020,-23.926,-105.469,-108.887,-128.906,0.000
1679759066.024,6.348,-49.805,-48.828,-32.715,0.000
1679759066.028,18.066,45.898,50.781,88.379,0.000
1679759066.032,-6.836,55.176,60.547,71.289,0.000
1679759066.036,-34.668,-34.668,-31.738,-58.105,0.000
1679759066.040,-36.133,-91.797,-110.840,-147.949,0.000
1679759066.044,-26.367,-76.660,-73.730,-88.379,0.000
1679759066.048,-0.488,-9.277,26.367,52.734,0.000
1679759066.051,10.254,41.016,60.059,75.195,0.000
1679759066.055,-25.879,-19.043,-24.414,-51.758,0.000
1679759066.059,-40.039,-95.703,-112.305,-155.762,0.000
1679759066.063,-28.320,-67.871,-85.449,-104.980,0.000
1679759066.067,-4.395,15.625,14.648,37.598,0.000
1679759066.071,-4.883,50.781,63.477,71.777,0.000
1679759066.075,-38.086,-3.906,-4.395,-50.781,0.000
1679759066.079,-29.785,-80.566,-104.004,-153.809,0.000
1679759066.083,-12.695,-65.430,-92.773,-107.422,0.000
1679759066.087,-6.836,15.625,4.395,25.391,0.000
1679759066.090,-8.789,43.457,54.199,75.684,0.000
1679759066.094,-28.320,-7.324,4.395,-23.438,0.000
1679759066.098,-27.832,-88.867,-94.238,-136.719,0.000
1679759066.102,-6.348,-88.867,-101.562,-111.328,0.000
1679759066.106,2.441,-18.555,-8.789,14.648,0.000
1679759066.110,-11.719,31.738,56.641,92.285,0.000
1679759066.114,-15.625,8.789,16.602,23.926,0.000
1679759066.118,-8.789,-69.824,-86.426,-109.863,0.000
1679759066.122,-6.348,-86.914,-109.863,-119.629,0.000
1679759066.126,-3.418,-5.371,-24.414,-0.488,0.000
1679759066.130,3.906,51.758,55.176,88.867,0.000
1679759066.133,-11.230,47.363,35.645,37.598,0.000
1679759066.137,-39.062,-47.363,-77.637,-111.816,0.000
1679759066.141,-22.949,-112.305,-125.488,-145.020,0.000
1679759066.145,7.812,-41.016,-44.434,-18.066,0.000
1679759066.149,16.113,37.598,43.457,94.238,0.000
1679759066.153,-2.930,14.160,26.855,45.898,0.000
1679759066.157,-24.414,-55.176,-69.336,-90.332,0.000
1679759066.161,-44.922,-99.609,-117.676,-148.438,0.000
1679759066.165,-36.621,-51.758,-47.363,-51.758,0.000
1679759066.169,-8.301,22.461,50.293,80.566,0.000
1679759066.173,-18.066,23.926,51.758,54.688,0.000
1679759066.176,-35.156,-44.434,-43.457,-90.332,0.000
1679759066.180,-33.203,-87.891,-112.793,-150.391,0.000
1679759066.184,-7.812,-55.176,-60.547,-43.945,0.000
1679759066.188,5.859,11.230,38.574,78.613,0.000
1679759066.192,-16.113,29.297,53.223,59.570,0.000
1679759066.196,-27.832,-34.668,-34.180,-66.895,0.000
1679759066.200,-24.902,-124.512,-116.211,-135.742,0.000
1679759066.204,-3.418,-93.750,-75.195,-59.082,0.000
1679759066.208,5.371,17.578,19.531,55.664,0.000
1679759066.212,-0.977,43.945,47.363,76.660,0.000
1679759066.216,-15.137,-24.902,-30.273,-33.691,0.000
1679759066.220,-37.109,-84.961,-122.070,-149.414,0.000
1679759066.223,-39.551,-73.242,-94.727,-99.609,0.000
1679759066.227,-13.184,6.348,12.207,54.199,0.000
1679759066.231,1.953,35.156,54.199,104.004,0.000
1679759066.235,-15.625,-20.020,-15.137,-16.113,0.000
1679759066.239,-33.203,-91.797,-116.211,-149.414,0.000
1679759066.243,-25.391,-99.609,-111.816,-112.793,0.000
1679759066.247,-5.371,-29.785,-5.859,29.297,0.000
1679759066.251,-8.301,41.504,54.199,74.219,0.000
1679759066.255,-26.367,16.602,-4.395,-20.996,0.000
1679759066.259,-40.527,-72.754,-109.375,-145.020,0.000
1679759066.263,-35.645,-89.355,-113.770,-129.395,0.000
1679759066.266,-9.766,-12.695,-14.160,11.230,0.000
1679759066.270,0.000,53.223,62.500,93.750,0.000
1679759066.274,-26.855,23.438,15.625,1.465,0.000
1679759066.278,-55.176,-83.496,-103.516,-147.461,0.000
1679759066.282,-39.551,-113.281,-124.512,-145.508,0.000
1679759066.286,-4.395,-36.621,-33.691,-6.836,0.000
1679759066.290,7.812,30.762,51.758,92.285,0.000
1679759066.294,-13.672,11.230,24.902,31.738,0.000
1679759066.298,-34.180,-73.242,-82.520,-100.098,0.000
1679759066.302,-31.738,-95.215,-122.070,-128.906,0.000
1679759066.306,-17.578,-32.227,-43.457,-5.371,0.000
1679759066.309,2.441,38.086,56.641,112.305,0.000
1679759066.313,-14.648,30.762,40.039,50.781,0.000
1679759066.317,-35.645,-58.105,-69.336,-94.727,0.000
1679759066.321,-26.367,-97.168,-119.141,-136.230,0.000
1679759066.325,-16.113,-48.340,-57.129,-41.016,0.000
1679759066.329,-11.719,4.883,30.273,71.289,0.000
1679759066.333,-22.949,8.301,38.086,52.734,0.000
1679759066.337,-36.133,-45.410,-41.016,-80.078,0.000
1679759066.341,-44.434,-103.027,-113.281,-158.691,0.000
1679759066.345,-22.949,-62.500,-66.895,-66.895,0.000
1679759066.349,0.488,30.762,35.645,69.336,0.000
1679759066.352,-2.441,53.223,45.410,64.941,0.000
1679759066.356,-19.531,-26.855,-43.457,-64.453,0.000
1679759066.360,-44.434,-96.680,-114.258,-155.762,0.000
1679759066.364,-21.973,-52.734,-71.289,-68.359,0.000
1679759066.368,22.949,31.250,33.203,83.496,0.000
1679759066.372,4.395,40.527,56.641,89.844,0.000
1679759066.376,-30.762,-40.039,-28.809,-44.922,0.000
1679759066.380,-29.785,-93.262,-115.234,-140.625,0.000
1679759066.384,-12.207,-73.730,-97.656,-79.590,0.000
1679759066.387,4.883,-10.742,4.883,59.082,0.000
1679759066.391,9.277,30.273,67.383,106.934,0.000
1679759066.395,-5.859,-23.438,0.488,1.953,0.000
1679759066.399,-45.410,-101.074,-115.234,-153.809,0.000
1679759066.403,-41.016,-92.285,-109.375,-126.465,0.000
1679759066.407,-4.395,7.812,-4.395,20.508,0.000
1679759066.411,-3.418,50.781,46.875,77.148,0.000
1679759066.415,-40.527,1.465,-8.789,-14.160,0.000
1679759066.419,-51.758,-76.660,-108.398,-140.137,0.000
1679759066.423,-26.855,-113.770,-120.605,-121.582,0.000
1679759066.427,-15.625,-41.504,-27.832,6.836,0.000
1679759066.430,-24.902,35.645,47.363,80.078,0.000
1679759066.434,-28.320,-2.930,10.254,10.742,0.000
1679759066.438,-36.133,-83.496,-86.914,-124.023,0.000
1679759066.442,-17.578,-97.168,-105.957,-121.582,0.000
1679759066.446,10.254,-24.902,-21.484,18.555,0.000
1679759066.450,12.695,34.180,59.570,105.957,0.000
1679759066.454,3.906,10.254,33.203,41.016,0.000
1679759066.458,-11.230,-62.988,-60.547,-94.238,0.000
1679759066.462,-11.719,-74.219,-95.215,-122.559,0.000
1679759066.466,0.488,-26.367,-30.273,-4.883,0.000
1679759066.470,16.602,33.691,55.664,102.539,0.000
1679759066.473,10.742,44.922,46.875,57.129,0.000
1679759066.477,-20.020,-38.086,-54.199,-83.984,0.000
1679759066.481,-23.438,-114.258,-118.164,-129.883,0.000
1679759066.485,1.465,-48.828,-42.969,-16.602,0.000
1679759066.489,16.113,51.758,53.711,105.957,0.000
1679759066.493,-0.488,42.969,41.016,70.312,0.000
1679759066.497,-26.855,-36.621,-46.875,-69.336,0.000
1679759066.501,-47.363,-95.215,-106.934,-146.484,0.000
1679759066.505,-35.645,-66.406,-57.129,-54.688,0.000
1679759066.509,0.488,27.344,42.480,85.938,0.000
1679759066.513,-1.465,37.109,53.711,73.730,0.000
1679759066.516,-30.762,-39.551,-30.273,-63.965,0.000
1679759066.520,-33.691,-92.773,-107.910,-145.020,0.000
1679759066.524,-2.930,-55.664,-70.312,-62.988,0.000
1679759066.528,9.766,12.207,32.715,60.547,0.000
1679759066.532,-11.719,44.434,69.336,70.312,0.000
1679759066.536,-31.738,-15.137,-5.371,-46.875,0.000
1679759066.540,-32.715,-100.098,-97.656,-143.066,0.000
1679759066.544,-10.742,-80.566,-71.289,-75.684,0.000
1679759066.548,10.742,2.930,24.414,58.105,0.000
1679759066.552,11.230,48.340,66.406,98.633,0.000
1679759066.556,-13.672,4.395,0.000,-10.254,0.000
1679759066.559,-29.785,-92.773,-98.633,-131.836,0.000
1679759066.563,-10.742,-93.262,-87.891,-83.008,0.000
1679759066.567,13.184,-6.348,4.883,54.199,0.000
1679759066.571,7.324,44.922,48.340,92.285,0.000
1679759066.575,-19.531,2.930,-13.184,-13.184,0.000
1679759066.579,-39.062,-87.402,-103.027,-147.461,0.000
1679759066.583,-37.109,-101.074,-104.004,-132.812,0.000
1679759066.587,-9.277,-11.719,-8.789,4.883,0.000
1679759066.591,11.719,59.082,70.312,93.750,0.000
1679759066.595,-23.926,20.996,25.391,9.277,0.000
1679759066.599,-62.500,-78.125,-91.797,-144.043,0.000
1679759066.602,-46.875,-87.402,-107.910,-131.836,0.000
1679759066.606,-20.508,-19.043,-21.973,4.395,0.000
1679759066.610,-17.578,23.926,43.457,77.637,0.000
1679759066.614,-28.320,8.789,13.184,4.883,0.000
1679759066.618,-49.316,-73.730,-84.473,-136.719,0.000
1679759066.622,-36.133,-110.840,-123.535,-153.320,0.000
1679759066.626,1.465,-40.039,-42.480,-5.371,0.000
1679759066.630,5.859,31.738,49.805,110.840,0.000
1679759066.634,-17.578,16.602,33.691,47.852,0.000
1679759066.638,-46.387,-71.289,-68.359,-97.656,0.000
1679759066.642,-39.551,-107.422,-120.605,-140.625,0.000
1679759066.645,0.000,-39.062,-56.641,-25.879,0.000
1679759066.649,19.531,30.273,34.668,91.797,0.000
1679759066.653,0.000,20.508,35.645,60.059,0.000
1679759066.657,-33.203,-59.082,-56.152,-82.031,0.000
1679759066.661,-40.527,-120.605,-129.395,-161.133,0.000
1679759066.665,-16.113,-71.777,-72.754,-66.895,0.000
1679759066.669,3.906,16.113,39.062,67.383,0.000
1679759066.673,0.000,41.016,57.617,67.383,0.000
1679759066.677,-20.508,-31.250,-34.180,-55.664,0.000
1679759066.681,-52.246,-110.840,-113.281,-158.203,0.000
1679759066.685,-39.062,-73.730,-70.312,-86.426,0.000
1679759066.688,-11.719,27.344,33.691,50.781,0.000
1679759066.692,-30.762,47.363,63.477,56.641,0.000
1679759066.696,-49.316,-18.066,-17.090,-69.824,0.000
1679759066.700,-45.410,-93.750,-106.934,-161.133,0.000
1679759066.704,-28.809,-88.867,-87.402,-99.609,0.000
1679759066.708,0.488,-6.348,9.277,37.109,0.000
1679759066.712,9.277,45.410,52.734,79.102,0.000
1679759066.716,-22.461,-17.090,-21.973,-38.086,0.000
1679759066.720,-47.852,-102.539,-112.793,-161.133,0.000
1679759066.724,-33.203,-91.309,-97.168,-115.723,0.000
1679759066.728,2.930,-18.066,-2.930,36.621,0.000
1679759066.731,10.254,29.297,55.176,101.074,0.000
1679759066.735,-14.648,-2.930,6.836,8.301,0.000
1679759066.739,-32.227,-81.543,-90.332,-130.371,0.000
1679759066.743,-36.621,-88.379,-104.004,-124.023,0.000
1679759066.747,-18.066,-17.090,-20.996,16.602,0.000
1679759066.751,-2.441,33.203,48.340,93.262,0.000
1679759066.755,-37.109,3.418,10.254,-4.883,0.000
1679759066.759,-52.246,-64.453,-93.262,-148.926,0.000
1679759066.763,-40.039,-103.516,-118.164,-145.020,0.000
1679759066.767,-23.438,-43.945,-30.762,-6.348,0.000
1679759066.771,-12.695,29.297,54.199,86.914,0.000
1679759066.774,-45.898,4.395,30.762,7.324,0.000
1679759066.778,-77.637,-80.566,-73.730,-141.113,0.000
1679759066.782,-56.641,-112.305,-116.699,-156.250,0.000
1679759066.786,-16.113,-55.176,-38.086,-16.602,0.000
1679759066.790,-15.137,27.344,52.246,89.844,0.000
1679759066.794,-37.109,16.113,33.203,29.297,0.000
1679759066.798,-51.270,-75.195,-72.754,-114.746,0.000
1679759066.802,-49.805,-108.887,-123.047,-160.645,0.000
1679759066.806,-34.668,-56.641,-48.340,-54.199,0.000
1679759066.810,-16.602,7.324,48.828,77.148,0.000
1679759066.813,-25.391,23.926,46.387,59.082,0.000
1679759066.817,-39.062,-44.922,-54.688,-75.195,0.000
1679759066.821,-29.297,-112.305,-119.629,-133.789,0.000
1679759066.825,-12.695,-78.125,-63.477,-40.527,0.000
1679759066.829,18.066,12.695,38.086,94.727,0.000
1679759066.833,1.953,38.086,53.223,85.938,0.000
1679759066.837,-37.598,-20.020,-36.133,-65.918,0.000
1679759066.841,-57.129,-101.074,-123.535,-164.551,0.000
1679759066.845,-45.410,-84.961,-88.867,-94.238,0.000
1679759066.849,-8.789,6.836,21.484,49.805,0.000
1679759066.853,-2.441,31.250,55.176,76.660,0.000
1679759066.856,-38.086,-37.109,-21.484,-55.664,0.000
1679759066.860,-48.340,-88.867,-105.469,-153.320,0.000
1679759066.864,-35.156,-72.754,-84.961,-100.098,0.000
1679759066.868,-20.996,3.906,15.625,32.227,0.000
1679759066.872,-15.137,50.293,54.688,79.102,0.000
1679759066.876,-48.340,-6.348,-21.484,-47.363,0.000
1679759066.880,-68.359,-93.262,-113.281,-175.293,0.000
1679759066.884,-53.711,-76.660,-93.750,-127.441,0.000
1679759066.888,-18.555,-8.789,1.465,23.438,0.000
1679759066.892,3.906,22.461,52.734,99.609,0.000
1679759066.896,-16.113,-17.090,-6.348,4.883,0.000
1679759066.899,-55.176,-92.773,-109.863,-142.578,0.000
1679759066.903,-50.781,-92.285,-112.793,-131.348,0.000
1679759066.907,-8.789,-11.719,-12.695,20.508,0.000
1679759066.911,0.977,46.875,57.617,103.027,0.000
1679759066.915,-9.277,3.418,16.113,31.738,0.000
1679759066.919,-20.996,-84.473,-87.402,-94.238,0.000
1679759066.923,-23.438,-83.984,-118.652,-116.699,0.000
1679759066.927,0.000,-2.930,-36.133,10.742,0.000
1679759066.931,8.301,55.664,45.898,106.934,0.000
1679759066.935,-39.062,13.184,17.578,7.324,0.000
1679759066.939,-62.500,-79.590,-82.031,-134.766,0.000
1679759066.942,-54.688,-102.051,-111.328,-153.320,0.000
1679759066.946,-38.574,-49.316,-38.574,-39.551,0.000
1679759066.950,-3.906,10.742,46.387,82.031,0.000
1679759066.954,-11.719,14.648,35.645,39.551,0.000
1679759066.958,-53.223,-55.664,-67.871,-113.281,0.000
1679759066.962,-64.453,-109.863,-112.305,-166.992,0.000
1679759066.966,-41.504,-58.105,-37.598,-46.387,0.000
1679759066.970,-7.324,37.109,55.176,79.590,0.000
1679759066.974,-4.883,44.922,55.176,50.781,0.000
1679759066.978,-23.926,-25.879,-36.621,-79.102,0.000
1679759066.982,-41.016,-87.402,-109.863,-164.551,0.000
1679759066.985,-27.344,-69.824,-65.918,-80.078,0.000
1679759066.989,-5.371,3.418,30.762,61.523,0.000
1679759066.993,-15.137,20.508,48.828,68.848,0.000
1679759066.997,-37.598,-42.480,-30.273,-55.176,0.000
1679759067.001,-43.945,-102.539,-102.539,-143.066,0.000
1679759067.005,-14.160,-76.660,-65.430,-65.918,0.000
1679759067.009,6.836,6.348,30.273,67.383,0.000
1679759067.013,-9.766,34.180,56.152,76.660,0.000
1679759067.017,-36.133,-17.578,-17.578,-45.898,0.000
1679759067.021,-42.969,-83.496,-99.121,-145.508,0.000
1679759067.025,-17.578,-61.035,-76.172,-81.055,0.000
1679759067.028,-2.930,13.184,19.043,49.805,0.000
1679759067.032,-21.484,26.367,54.688,67.383,0.000
1679759067.036,-54.688,-35.156,-18.555,-54.688,0.000
1679759067.040,-58.105,-99.121,-101.562,-157.715,0.000
1679759067.044,-33.203,-98.633,-86.426,-110.840,0.000
1679759067.048,-8.789,-24.414,6.836,24.902,0.000
1679759067.052,-12.695,39.062,65.430,83.984,0.000
1679759067.056,-30.273,1.953,7.812,-14.160,0.000
1679759067.060,-38.574,-88.867,-101.562,-156.738,0.000
1679759067.064,-25.879,-84.473,-98.633,-130.859,0.000
1679759067.068,0.977,-11.230,-4.883,16.113,0.000
1679759067.071,12.695,49.805,55.176,85.938,0.000
1679759067.075,6.836,8.789,9.277,10.254,0.000
1679759067.079,-20.508,-90.820,-90.820,-127.930,0.000
1679759067.083,-31.738,-104.492,-111.328,-136.230,0.000
1679759067.087,-0.977,-36.133,-25.391,0.488,0.000
1679759067.091,9.766,31.250,55.664,96.191,0.000
1679759067.095,-9.277,23.926,31.250,31.250,0.000
1679759067.099,-33.203,-68.848,-62.012,-102.539,0.000
1679759067.103,-16.602,-107.910,-98.633,-117.188,0.000
1679759067.107,7.812,-40.527,-33.203,-0.488,0.000
1679759067.111,20.508,41.016,53.223,103.516,0.000
1679759067.114,8.789,39.062,45.898,59.082,0.000
1679759067.118,-53.223,-26.855,-52.246,-112.793,0.000
1679759067.122,-63.477,-95.215,-113.281,-171.875,0.000
1679759067.126,-17.578,-76.172,-54.688,-43.945,0.000
1679759067.130,0.000,21.973,41.504,84.473,0.000
1679759067.134,-14.160,43.457,44.922,56.641,0.000
1679759067.138,-23.438,-33.691,-55.664,-78.613,0.000
1679759067.142,-35.156,-86.426,-120.117,-156.250,0.000
1679759067.146,-43.945,-50.781,-62.012,-78.125,0.000
1679759067.150,-22.949,27.832,34.668,59.082,0.000
1679759067.154,-2.441,42.480,52.246,74.219,0.000
1679759067.157,-25.879,-26.367,-36.133,-61.035,0.000
1679759067.161,-61.523,-99.609,-120.605,-164.062,0.000
1679759067.165,-38.574,-62.012,-74.219,-84.473,0.000
1679759067.169,-5.859,7.812,26.855,61.035,0.000
1679759067.173,1.953,17.578,47.852,86.914,0.000
1679759067.177,-13.184,-22.949,-27.344,-31.738,0.000
1679759067.181,-36.621,-99.121,-114.746,-147.949,0.000
1679759067.185,-25.391,-101.562,-91.309,-94.727,0.000
1679759067.189,1.953,-15.625,7.324,51.758,0.000
1679759067.193,-3.418,35.156,55.176,98.633,0.000
1679759067.197,-38.574,-14.648,-13.672,-23.438,0.000
1679759067.200,-45.898,-94.727,-109.375,-149.902,0.000
1679759067.204,-25.879,-83.984,-90.332,-103.027,0.000
1679759067.208,5.859,0.000,12.695,39.551,0.000
1679759067.212,11.719,51.758,69.336,97.656,0.000
1679759067.216,-28.320,-14.160,2.930,-5.371,0.000
1679759067.220,-42.480,-106.934,-96.680,-135.254,0.000
1679759067.224,-9.277,-86.914,-95.215,-115.723,0.000
1679759067.228,4.883,-11.719,-7.324,20.996,0.000
1679759067.232,-8.301,36.621,50.781,90.820,0.000
1679759067.235,-37.598,11.230,5.859,-7.324,0.000
1679759067.239,-51.270,-79.590,-90.332,-136.230,0.000
1679759067.243,-44.434,-105.469,-109.375,-122.559,0.000
1679759067.247,-16.602,-32.715,-20.508,7.324,0.000
1679759067.251,5.859,51.270,59.570,99.609,0.000
1679759067.255,-17.090,21.484,19.531,26.367,0.000
1679759067.259,-33.203,-62.012,-83.984,-115.234,0.000
1679759067.263,-33.203,-100.586,-110.352,-145.508,0.000
1679759067.267,-25.879,-55.664,-34.668,-33.691,0.000
1679759067.271,1.953,28.320,50.293,89.355,0.000
1679759067.275,3.418,25.879,36.133,57.129,0.000
1679759067.278,-26.367,-64.941,-68.359,-84.961,0.000
1679759067.282,-19.531,-112.305,-121.582,-120.117,0.000
1679759067.286,0.977,-45.410,-47.363,-8.789,0.000
1679759067.290,-5.371,31.738,50.781,94.238,0.000
1679759067.294,-13.184,21.973,47.363,66.406,0.000
1679759067.298,-38.574,-50.293,-45.410,-79.102,0.000
1679759067.302,-33.203,-96.680,-108.887,-149.414,0.000
1679759067.306,-21.973,-48.828,-62.012,-56.641,0.000
1679759067.310,-12.207,28.320,36.621,70.801,0.000
1679759067.314,-14.160,31.738,52.246,68.359,0.000
1679759067.318,-54.688,-37.109,-36.621,-72.266,0.000
1679759067.321,-58.105,-97.168,-116.211,-161.133,0.000
1679759067.325,-24.414,-82.520,-84.473,-77.148,0.000
1679759067.329,-6.348,9.277,20.020,61.035,0.000
1679759067.333,-15.137,40.527,52.246,62.012,0.000
1679759067.337,-47.363,-28.320,-29.297,-77.148,0.000
1679759067.341,-58.105,-106.934,-115.723,-183.594,0.000
1679759067.345,-35.645,-89.355,-89.844,-112.793,0.000
1679759067.349,-15.137,-12.695,10.254,34.668,0.000
1679759067.353,-14.160,37.598,50.781,69.824,0.000
1679759067.357,-29.297,1.953,-17.090,-34.180,0.000
1679759067.361,-41.504,-93.750,-108.398,-146.484,0.000
1679759067.365,-26.367,-104.492,-102.051,-100.098,0.000
1679759067.368,-0.488,-37.598,-10.742,44.434,0.000
1679759067.372,3.906,13.184,50.781,105.957,0.000
1679759067.376,-11.719,-0.488,3.906,13.184,0.000
1679759067.380,-27.832,-66.895,-104.004,-121.094,0.000
1679759067.384,-10.254,-79.590,-114.258,-95.703,0.000
1679759067.388,18.555,-20.508,-11.230,50.293,0.000
1679759067.392,3.418,35.645,61.035,114.746,0.000
1679759067.396,-41.504,13.672,12.207,0.977,0.000
1679759067.400,-70.801,-62.988,-84.473,-147.949,0.000
1679759067.404,-55.664,-98.145,-107.910,-137.695,0.000
1679759067.408,-8.301,-39.062,-28.809,10.742,0.000
1679759067.411,3.418,31.250,49.316,99.609,0.000
1679759067.415,-34.180,12.207,19.531,9.766,0.000
1679759067.419,-60.059,-79.590,-82.520,-141.602,0.000
1679759067.423,-49.316,-104.980,-113.770,-160.156,0.000
1679759067.427,-22.461,-31.250,-38.574,-30.762,0.000
1679759067.431,-12.695,40.039,41.016,76.660,0.000
1679759067.435,-25.391,31.250,25.879,34.180,0.000
1679759067.439,-42.969,-57.617,-72.266,-108.398,0.000
1679759067.443,-37.109,-108.887,-125.977,-152.344,0.000
1679759067.447,-5.859,-41.016,-48.828,-19.531,0.000
1679759067.451,14.648,34.668,45.410,94.238,0.000
1679759067.454,2.930,17.578,33.691,59.082,0.000
1679759067.458,-24.902,-64.453,-61.523,-62.988,0.000
1679759067.462,-25.391,-107.422,-122.559,-122.559,0.000
1679759067.466,-8.301,-73.242,-67.871,-36.133,0.000
1679759067.470,8.301,4.395,30.762,79.102,0.000
1679759067.474,-9.766,27.344,49.316,75.195,0.000
1679759067.478,-30.762,-28.320,-26.367,-46.387,0.000
1679759067.482,-29.297,-100.586,-107.910,-135.254,0.000
1679759067.486,-14.160,-73.730,-74.707,-62.988,0.000
1679759067.490,2.930,21.973,31.250,68.359,0.000
1679759067.494,-3.906,37.598,53.711,74.707,0.000
1679759067.497,-37.109,-29.785,-26.367,-52.246,0.000
1679759067.501,-45.898,-97.656,-115.723,-147.461,0.000
1679759067.505,-6.836,-82.031,-92.773,-75.684,0.000
1679759067.509,9.277,-5.859,15.625,55.664,0.000
1679759067.513,-14.648,41.016,52.734,73.730,0.000
1679759067.517,-26.855,3.906,-18.066,-36.133,0.000
1679759067.521,-55.664,-88.867,-104.980,-169.922,0.000
1679759067.525,-66.895,-105.469,-92.285,-144.531,0.000
1679759067.529,-17.578,-19.043,6.348,19.043,0.000
1679759067.533,-4.883,62.500,55.176,78.125,0.000
1679759067.536,-41.504,4.395,-12.207,-41.504,0.000
1679759067.540,-38.086,-85.938,-109.863,-153.320,0.000
1679759067.544,-51.270,-84.473,-116.211,-137.695,0.000
1679759067.548,-52.246,-41.504,-31.250,-16.113,0.000
1679759067.552,-6.836,5.859,44.434,91.797,0.000
1679759067.556,-10.254,-12.695,8.789,33.691,0.000
1679759067.560,-39.551,-91.797,-100.098,-122.559,0.000
1679759067.564,-45.410,-106.445,-121.094,-139.160,0.000
1679759067.568,-27.344,-33.203,-24.414,1.953,0.000
1679759067.572,-5.859,24.902,56.641,99.609,0.000
1679759067.576,-19.043,-4.395,21.484,33.691,0.000
1679759067.579,-37.109,-74.707,-73.242,-104.004,0.000
1679759067.583,-35.645,-113.281,-110.352,-136.230,0.000
1679759067.587,-20.508,-39.062,-35.156,-12.695,0.000
1679759067.591,1.465,33.691,41.504,94.238,0.000
1679759067.595,-15.137,9.277,16.602,35.156,0.000
1679759067.599,-46.875,-54.688,-67.871,-106.445,0.000
1679759067.603,-44.434,-87.402,-110.840,-153.809,0.000
1679759067.607,-33.691,-53.711,-49.316,-52.734,0.000
1679759067.611,-15.137,18.555,44.922,66.406,0.000
1679759067.615,-27.344,25.391,41.992,38.086,0.000
1679759067.619,-49.316,-47.363,-52.734,-97.168,0.000
1679759067.622,-43.945,-108.398,-120.605,-164.551,0.000
1679759067.626,-23.438,-53.223,-62.988,-69.336,0.000
1679759067.630,5.859,24.902,41.016,82.031,0.000
1679759067.634,3.418,27.344,56.152,97.168,0.000
1679759067.638,-30.273,-27.344,-34.180,-46.875,0.000
1679759067.642,-37.109,-94.238,-113.770,-147.949,0.000
1679759067.646,-20.996,-69.824,-71.289,-66.406,0.000
1679759067.650,-13.672,1.465,26.855,69.336,0.000
1679759067.654,-13.184,26.367,48.340,81.055,0.000
1679759067.658,-39.551,-7.324,-26.855,-44.434,0.000
1679759067.662,-60.059,-91.797,-112.793,-153.320,0.000
1679759067.665,-21.973,-98.633,-84.473,-78.613,0.000
1679759067.669,0.000,-20.020,9.766,59.570,0.000
1679759067.673,-15.625,28.320,46.875,73.242,0.000
1679759067.677,-35.156,-0.977,-17.578,-44.434,0.000
1679759067.681,-48.340,-60.547,-108.398,-158.691,0.000
1679759067.685,-31.250,-87.402,-91.797,-108.398,0.000
1679759067.689,-7.812,-25.391,2.930,34.668,0.000
1679759067.693,-22.461,28.809,49.805,69.336,0.000
1679759067.697,-58.105,-14.160,-4.395,-38.574,0.000
1679759067.701,-72.266,-90.820,-101.562,-159.668,0.000
1679759067.704,-57.617,-90.332,-105.469,-133.789,0.000
1679759067.708,-20.020,-15.625,-14.648,15.625,0.000
1679759067.712,-5.859,35.645,57.129,95.215,0.000
1679759067.716,-29.785,23.438,19.043,1.465,0.000
1679759067.720,-50.293,-68.359,-92.773,-142.578,0.000
1679759067.724,-41.016,-108.887,-116.699,-144.531,0.000
1679759067.728,-22.949,-32.715,-25.879,-5.859,0.000
1679759067.732,5.859,20.020,46.875,100.098,0.000
1679759067.736,-2.441,-0.977,12.695,41.504,0.000
1679759067.740,-38.086,-74.707,-87.891,-107.910,0.000
1679759067.744,-34.180,-111.816,-124.023,-135.742,0.000
1679759067.747,-5.371,-53.711,-44.434,-4.883,0.000
1679759067.751,-0.977,39.551,43.945,103.027,0.000
1679759067.755,-27.832,29.297,21.973,39.551,0.000
1679759067.759,-40.039,-72.754,-82.031,-97.656,0.000
1679759067.763,-10.254,-109.863,-130.859,-123.535,0.000
1679759067.767,-11.719,-45.898,-50.293,-31.738,0.000
1679759067.771,-27.344,38.574,47.363,64.453,0.000
1679759067.775,-26.855,44.922,36.621,44.434,0.000
1679759067.779,-29.785,-41.504,-58.594,-83.984,0.000
1679759067.783,-35.156,-112.793,-112.793,-161.133,0.000
1679759067.787,-36.621,-71.289,-57.617,-86.914,0.000
1679759067.790,-10.742,22.461,35.645,53.223,0.000
1679759067.794,-3.906,26.367,43.945,57.617,0.000
1679759067.798,-41.016,-47.363,-46.387,-86.426,0.000
1679759067.802,-49.316,-98.145,-121.094,-169.434,0.000
1679759067.806,-30.762,-72.266,-83.984,-84.473,0.000
1679759067.810,-22.949,1.953,14.648,48.340,0.000
1679759067.814,-13.184,43.945,46.387,75.684,0.000
1679759067.818,-31.250,-18.066,-38.574,-51.270,0.000
1679759067.822,-48.828,-93.262,-124.512,-163.574,0.000
1679759067.826,-18.555,-77.148,-94.238,-83.496,0.000
1679759067.830,6.348,-5.859,1.465,60.059,0.000
1679759067.833,-4.395,24.902,41.016,86.914,0.000
1679759067.837,-28.320,-26.855,-24.414,-26.367,0.000
1679759067.841,-45.410,-110.840,-119.141,-138.184,0.000
1679759067.845,-29.297,-100.586,-108.887,-90.332,0.000
1679759067.849,4.395,-8.789,-4.883,55.664,0.000
1679759067.853,6.348,41.016,57.129,110.352,0.000
1679759067.857,-29.785,-13.184,-4.395,-0.977,0.000
1679759067.861,-55.176,-100.586,-106.445,-145.020,0.000
1679759067.865,-41.992,-104.980,-111.816,-122.559,0.000
1679759067.869,-18.555,-15.625,-19.043,19.531,0.000
1679759067.873,-6.348,47.852,50.781,89.844,0.000
1679759067.876,-33.691,-11.230,1.465,-12.695,0.000
1679759067.880,-66.895,-91.309,-99.121,-163.086,0.000
1679759067.884,-46.387,-92.773,-109.863,-153.809,0.000
1679759067.888,-15.137,-35.156,-26.855,-9.766,0.000
1679759067.892,-7.812,28.809,51.758,87.402,0.000
1679759067.896,-21.973,7.324,22.461,23.926,0.000
1679759067.900,-45.898,-74.219,-84.961,-116.211,0.000
1679759067.904,-44.922,-110.840,-123.047,-145.996,0.000
1679759067.908,-14.160,-39.062,-40.527,-18.066,0.000
1679759067.912,8.789,29.785,49.805,101.074,0.000
1679759067.916,-4.395,28.320,34.668,62.012,0.000
1679759067.919,-37.598,-47.363,-61.523,-82.520,0.000
1679759067.923,-40.039,-123.047,-113.770,-138.184,0.000
1679759067.927,-4.883,-65.918,-41.992,-17.578,0.000
1679759067.931,18.066,28.320,57.617,109.375,0.000
1679759067.935,0.977,20.996,49.316,76.172,0.000
1679759067.939,-35.645,-45.898,-54.199,-72.266,0.000
1679759067.943,-33.691,-101.074,-120.117,-135.254,0.000
1679759067.947,-9.277,-74.219,-59.082,-34.180,0.000
1679759067.951,-7.812,10.254,36.133,83.496,0.000
1679759067.955,-11.719,41.504,47.852,76.660,0.000
1679759067.959,-46.387,-31.738,-43.945,-78.125,0.000
1679759067.962,-54.688,-98.633,-125.488,-172.852,0.000
1679759067.966,-29.297,-73.242,-84.473,-79.590,0.000
1679759067.970,-22.949,-2.930,17.578,54.688,0.000
1679759067.974,-14.648,27.344,53.223,84.473,0.000
1679759067.978,-44.434,-32.715,-19.043,-33.203,0.000
1679759067.982,-70.312,-117.676,-111.816,-153.809,0.000
1679759067.986,-35.645,-98.145,-86.426,-89.844,0.000
1679759067.990,-0.488,0.977,14.648,63.965,0.000
1679759067.994,4.883,47.363,59.570,109.375,0.000
1679759067.998,-14.160,-29.785,-12.695,-8.789,0.000
1679759068.001,-31.738,-100.098,-102.539,-125.000,0.000
1679759068.005,-8.789,-74.707,-83.008,-73.242,0.000
1679759068.009,22.949,8.301,11.719,66.406,0.000
1679759068.013,23.926,36.621,60.547,115.723,0.000
1679759068.017,0.488,-20.996,1.953,9.277,0.000
1679759068.021,-23.926,-86.914,-98.633,-127.441,0.000
1679759068.025,-12.207,-91.309,-106.934,-105.957,0.000
1679759068.029,8.301,-17.578,-10.254,37.598,0.000
1679759068.033,6.348,38.574,58.105,109.375,0.000
1679759068.037,-8.301,2.930,8.789,24.414,0.000
1679759068.041,-22.461,-83.496,-94.727,-114.746,0.000
1679759068.045,-25.879,-108.398,-110.840,-116.699,0.000
1679759068.048,-21.484,-29.297,-21.973,5.859,0.000
1679759068.052,-9.766,52.246,56.152,97.168,0.000
1679759068.056,-24.414,30.762,24.414,30.762,0.000
1679759068.060,-55.664,-80.566,-82.520,-123.047,0.000
1679759068.064,-45.898,-122.070,-120.605,-148.438,0.000
1679759068.068,-14.160,-41.992,-34.180,-16.602,0.000
1679759068.072,2.441,38.086,55.176,101.562,0.000
1679759068.076,-11.230,19.531,31.250,55.176,0.000
1679759068.080,-33.691,-53.223,-66.406,-82.520,0.000
1679759068.084,-30.273,-98.145,-115.234,-128.906,0.000
1679759068.088,-5.371,-52.246,-46.875,-20.020,0.000
1679759068.091,23.438,40.039,53.711,113.770,0.000
1679759068.095,12.207,53.223,54.199,88.379,0.000
1679759068.099,-28.809,-45.898,-50.293,-64.941,0.000
1679759068.103,-29.297,-91.309,-107.910,-124.023,0.000
1679759068.107,-11.719,-45.410,-55.176,-35.645,0.000
1679759068.111,6.836,18.555,36.133,90.332,0.000
1679759068.115,2.930,33.691,54.199,89.355,0.000
1679759068.119,-23.926,-27.832,-35.645,-57.617,0.000
1679759068.123,-33.203,-94.238,-117.188,-158.691,0.000
1679759068.127,-20.020,-59.082,-72.266,-77.637,0.000
1679759068.131,3.418,33.203,37.109,65.918,0.000
1679759068.134,3.906,46.387,67.383,86.914,0.000
1679759068.138,-27.344,-28.320,-15.625,-40.039,0.000
1679759068.142,-33.691,-95.215,-104.980,-150.879,0.000
1679759068.146,-23.438,-77.148,-82.520,-97.168,0.000
1679759068.150,-18.066,17.090,19.043,38.574,0.000
1679759068.154,-20.020,39.062,62.988,72.754,0.000
1679759068.158,-39.551,-28.809,-12.695,-43.945,0.000
1679759068.162,-42.480,-95.215,-109.375,-155.762,0.000
1679759068.166,-28.320,-84.473,-92.285,-104.980,0.000
1679759068.170,-5.371,-24.414,10.742,47.852,0.000
1679759068.173,21.973,34.180,69.336,125.000,0.000
1679759068.177,-5.859,13.672,2.441,3.906,0.000
1679759068.181,-24.902,-73.242,-99.609,-131.836,0.000
1679759068.185,-6.348,-87.402,-100.098,-96.191,0.000
1679759068.189,-16.113,-11.230,0.977,23.438,0.000
1679759068.193,-11.719,37.109,70.312,97.656,0.000
1679759068.197,-8.789,15.625,24.414,35.645,0.000
1679759068.201,-31.250,-53.711,-82.031,-116.699,0.000
1679759068.205,-27.344,-92.285,-113.281,-128.906,0.000
1679759068.209,-8.789,-41.016,-23.926,9.277,0.000
1679759068.213,1.953,19.043,59.082,108.398,0.000
1679759068.216,-26.855,1.953,30.762,27.832,0.000
1679759068.220,-65.918,-60.547,-68.848,-131.348,0.000
1679759068.224,-49.316,-100.586,-112.793,-152.344,0.000
1679759068.228,-13.184,-47.363,-37.109,-13.672,0.000
1679759068.232,-20.020,24.414,53.223,80.566,0.000
1679759068.236,-54.688,12.207,39.062,2.930,0.000
1679759068.240,-79.102,-54.688,-54.688,-138.184,0.000
1679759068.244,-67.871,-88.867,-101.562,-168.945,0.000
1679759068.248,-41.504,-40.039,-37.598,-55.176,0.000
1679759068.252,-25.879,14.160,48.340,66.895,0.000
1679759068.256,-35.156,3.906,46.387,38.574,0.000
1679759068.259,-57.129,-59.082,-49.805,-105.957,0.000
1679759068.263,-60.547,-115.723,-119.629,-166.016,0.000
1679759068.267,-32.715,-73.242,-61.035,-64.453,0.000
1679759068.271,-22.461,16.602,46.875,55.664,0.000
1679759068.275,-41.992,15.625,59.082,40.527,0.000
1679759068.279,-69.824,-51.758,-25.879,-90.820,0.000
1679759068.283,-73.730,-94.238,-94.727,-168.457,0.000
1679759068.287,-47.363,-68.359,-59.082,-87.891,0.000
1679759068.291,-18.066,12.695,38.574,57.129,0.000
1679759068.295,-17.578,31.250,63.477,76.660,0.000
1679759068.298,-74.219,-44.922,-18.066,-73.730,0.000
1679759068.302,-94.727,-102.539,-100.586,-186.523,0.000
1679759068.306,-53.711,-89.844,-81.543,-116.211,0.000
1679759068.310,-33.203,-20.996,15.625,25.391,0.000
1679759068.314,-31.738,30.273,64.941,64.941,0.000
1679759068.318,-50.781,-13.184,-5.371,-53.223,0.000
1679759068.322,-65.430,-87.891,-98.145,-170.898,0.000
1679759068.326,-56.641,-94.727,-90.820,-126.953,0.000
1679759068.330,-37.109,-20.996,0.000,10.254,0.000
1679759068.334,-36.133,47.363,57.617,68.848,0.000
1679759068.338,-65.918,5.859,9.766,-36.133,0.000
1679759068.341,-70.801,-105.957,-93.262,-160.156,0.000
1679759068.345,-34.668,-115.723,-100.098,-123.047,0.000
1679759068.349,6.348,-28.320,-0.977,23.926,0.000
1679759068.353,17.578,28.809,61.523,96.680,0.000
1679759068.357,-18.066,0.977,8.789,4.883,0.000
1679759068.361,-43.945,-64.453,-89.844,-132.324,0.000
1679759068.365,-32.227,-90.332,-105.957,-131.836,0.000
1679759068.369,-13.672,-36.621,-17.090,-0.977,0.000
1679759068.373,-12.695,29.297,62.500,91.309,0.000
1679759068.377,-39.551,12.695,30.273,18.555,0.000
1679759068.381,-60.059,-74.707,-69.336,-128.418,0.000
1679759068.384,-38.574,-91.309,-102.051,-133.789,0.000
1679759068.388,-5.371,-27.832,-34.180,-4.883,0.000
1679759068.392,-8.789,20.508,39.551,72.754,0.000
1679759068.396,-42.480,-0.488,23.438,3.418,0.000
1679759068.400,-65.430,-73.730,-65.918,-136.719,0.000
1679759068.404,-37.109,-121.094,-121.094,-157.227,0.000
1679759068.408,-10.254,-64.453,-55.664,-33.203,0.000
1679759068.412,-12.695,20.020,46.387,78.125,0.000
1679759068.416,-32.227,17.578,39.551,42.480,0.000
1679759068.420,-65.430,-59.082,-62.500,-111.816,0.000
1679759068.424,-78.125,-113.281,-119.629,-181.641,0.000
1679759068.427,-40.527,-62.012,-51.758,-65.430,0.000
1679759068.431,20.020,50.781,63.965,101.562,0.000
1679759068.435,1.465,36.621,48.828,84.961,0.000
1679759068.439,-41.504,-51.758,-41.016,-54.199,0.000
1679759068.443,-45.410,-102.051,-96.680,-132.812,0.000
1679759068.447,-15.137,-62.012,-55.176,-50.293,0.000
1679759068.451,18.066,20.020,43.457,91.309,0.000
1679759068.455,17.578,39.062,63.477,105.469,0.000
1679759068.459,-8.301,-25.879,-18.066,-22.461,0.000
1679759068.463,-20.508,-98.145,-101.074,-132.324,0.000
1679759068.467,3.418,-75.195,-65.918,-62.988,0.000
1679759068.470,20.508,15.137,37.109,88.379,0.000
1679759068.474,21.484,46.387,71.777,118.652,0.000
1679759068.478,10.254,1.953,4.395,1.953,0.000
1679759068.482,-18.066,-72.754,-92.773,-130.859,0.000
1679759068.486,-15.625,-73.730,-77.637,-100.586,0.000
1679759068.490,-0.488,9.277,20.996,45.410,0.000
1679759068.494,-8.789,43.945,65.430,100.098,0.000
1679759068.498,-24.414,-11.719,1.953,-4.883,0.000
1679759068.502,-39.551,-77.637,-90.332,-133.301,0.000
1679759068.506,-40.527,-89.355,-91.309,-113.770,0.000
1679759068.510,-30.762,-34.180,-3.418,16.602,0.000
1679759068.513,-15.625,26.367,64.941,95.703,0.000
1679759068.517,-4.883,9.277,24.414,30.762,0.000
1679759068.521,-21.484,-66.406,-82.520,-106.445,0.000
1679759068.525,-36.621,-78.613,-104.004,-124.512,0.000
1679759068.529,-20.508,-12.695,-6.348,-0.488,0.000
1679759068.533,4.395,25.391,70.312,105.469,0.000
1679759068.537,10.742,5.859,34.180,57.129,0.000
1679759068.541,-4.395,-55.664,-68.848,-84.961,0.000
1679759068.545,-0.488,-94.727,-114.746,-111.816,0.000
1679759068.549,12.695,-35.645,-36.621,12.695,0.000
1679759068.553,4.883,42.480,60.059,107.422,0.000
1679759068.556,-10.254,31.738,41.016,48.340,0.000
1679759068.560,-25.879,-45.410,-62.500,-87.891,0.000
1679759068.564,-21.484,-83.984,-112.793,-133.789,0.000
1679759068.568,6.836,-41.992,-49.805,-21.484,0.000
1679759068.572,23.438,37.109,49.316,102.051,0.000
1679759068.576,-1.465,37.109,45.898,63.965,0.000
1679759068.580,-49.805,-60.059,-57.617,-89.844,0.000
1679759068.584,-60.059,-113.770,-120.117,-164.551,0.000
1679759068.588,-33.203,-68.359,-61.523,-61.035,0.000
1679759068.592,-11.230,4.883,38.086,73.730,0.000
1679759068.595,-4.883,25.391,46.387,70.312,0.000
1679759068.599,-28.320,-42.480,-41.992,-62.988,0.000
1679759068.603,-55.664,-111.816,-113.770,-161.621,0.000
1679759068.607,-39.551,-76.660,-74.219,-78.125,0.000
1679759068.611,-13.184,13.184,34.180,64.941,0.000
1679759068.615,-11.719,54.199,69.824,79.102,0.000
1679759068.619,-23.438,-2.441,-7.812,-31.738,0.000
1679759068.623,-39.062,-89.844,-95.703,-139.648,0.000
1679759068.627,-32.227,-78.125,-73.730,-85.938,0.000
1679759068.631,-0.488,8.301,27.344,66.406,0.000
1679759068.635,2.930,36.621,70.801,110.840,0.000
1679759068.638,-20.508,-22.461,1.953,1.465,0.000
1679759068.642,-27.344,-84.473,-92.773,-118.164,0.000
1679759068.646,-13.184,-74.707,-91.797,-83.008,0.000
1679759068.650,-2.441,-3.418,0.488,38.574,0.000
1679759068.654,-1.953,50.293,53.223,83.008,0.000
1679759068.658,-23.926,7.324,-7.324,-17.090,0.000
1679759068.662,-51.758,-85.938,-106.934,-147.949,0.000
1679759068.666,-38.574,-79.102,-104.004,-118.652,0.000
1679759068.670,-15.625,-1.465,-10.254,21.973,0.000
1679759068.674,-23.438,27.832,50.781,83.984,0.000
1679759068.678,-42.969,2.441,13.672,-6.348,0.000
1679759068.681,-45.898,-73.242,-84.473,-142.578,0.000
1679759068.685,-35.156,-104.004,-107.910,-136.230,0.000
1679759068.689,-6.836,-21.973,-21.973,5.371,0.000
1679759068.693,0.000,44.434,60.059,91.797,0.000
1679759068.697,-36.133,14.648,26.855,7.812,0.000
1679759068.701,-58.594,-64.453,-73.730,-127.930,0.000
1679759068.705,-31.738,-96.680,-98.633,-132.812,0.000
1679759068.709,5.371,-38.086,-19.531,6.348,0.000
1679759068.713,23.438,44.922,70.801,119.629,0.000
1679759068.717,-8.789,20.020,42.480,49.805,0.000
1679759068.721,-34.180,-65.430,-63.477,-103.027,0.000
1679759068.724,-8.789,-88.379,-105.957,-137.207,0.000
1679759068.728,26.367,-29.297,-38.574,-18.066,0.000
1679759068.732,33.691,27.344,47.363,99.609,0.000
1679759068.736,16.602,26.855,35.645,67.383,0.000
1679759068.740,-19.043,-30.273,-50.781,-79.102,0.000
1679759068.744,-44.922,-93.262,-107.910,-161.621,0.000
1679759068.748,-27.344,-65.918,-56.152,-62.988,0.000
1679759068.752,4.395,29.785,38.574,78.613,0.000
1679759068.756,7.812,46.387,42.480,82.031,0.000
1679759068.760,-31.250,-19.531,-42.969,-58.594,0.000
1679759068.763,-61.035,-96.191,-119.629,-169.434,0.000
1679759068.767,-32.715,-72.266,-77.637,-89.355,0.000
1679759068.771,-9.766,11.230,29.785,58.105,0.000
1679759068.775,-30.273,28.809,54.688,62.012,0.000
1679759068.779,-56.641,-30.762,-27.832,-68.359,0.000
1679759068.783,-61.035,-104.492,-106.445,-159.180,0.000
1679759068.787,-27.344,-84.473,-72.266,-84.961,0.000
1679759068.791,6.348,-2.441,18.066,58.105,0.000
1679759068.795,-13.184,36.621,56.152,80.566,0.000
1679759068.799,-53.223,-8.789,-12.207,-45.898,0.000
1679759068.803,-59.082,-88.379,-108.398,-157.715,0.000
1679759068.807,-20.020,-72.754,-90.820,-89.844,0.000
1679759068.810,15.137,-5.371,2.441,68.359,0.000
1679759068.814,-3.418,26.367,57.617,107.910,0.000
1679759068.818,-35.645,1.465,15.137,-5.371,0.000
1679759068.822,-54.199,-87.402,-89.844,-139.160,0.000
1679759068.826,-34.180,-115.723,-103.027,-113.281,0.000
1679759068.830,-9.766,-31.738,-11.719,27.832,0.000
1679759068.834,-13.672,33.691,57.129,101.074,0.000
1679759068.838,-35.645,-9.277,14.648,10.254,0.000
1679759068.842,-54.199,-91.309,-89.844,-139.648,0.000
1679759068.846,-43.945,-92.773,-105.957,-135.254,0.000
1679759068.850,-13.672,-21.973,-17.090,7.812,0.000
1679759068.853,4.883,49.805,63.477,104.980,0.000
1679759068.857,-14.648,28.809,29.297,29.297,0.000
1679759068.861,-52.246,-72.754,-72.754,-124.023,0.000
1679759068.865,-52.734,-104.492,-109.375,-150.391,0.000
1679759068.869,-20.996,-39.062,-38.086,-26.855,0.000
1679759068.873,8.301,33.691,48.340,91.797,0.000
1679759068.877,-3.906,21.484,34.668,53.711,0.000
1679759068.881,-30.762,-49.316,-56.641,-95.703,0.000
1679759068.885,-32.715,-84.961,-105.469,-145.508,0.000
1679759068.889,-14.648,-57.129,-42.969,-31.250,0.000
1679759068.893,21.484,20.508,51.270,107.910,0.000
1679759068.896,16.602,40.039,45.898,82.031,0.000
1679759068.900,-18.555,-36.621,-48.828,-74.219,0.000
1679759068.904,-29.297,-96.191,-110.352,-141.602,0.000
1679759068.908,-6.836,-53.711,-56.641,-43.945,0.000
1679759068.912,13.672,25.391,35.156,87.402,0.000
1679759068.916,9.766,35.645,41.992,83.008,0.000
1679759068.920,-34.668,-29.785,-37.109,-68.359,0.000
1679759068.924,-58.594,-91.797,-111.328,-163.086,0.000
1679759068.928,-24.902,-66.895,-78.613,-73.730,0.000
1679759068.932,2.930,16.113,25.879,65.918,0.000
1679759068.936,-10.742,37.598,45.898,76.660,0.000
1679759068.939,-46.875,-10.742,-34.180,-56.152,0.000
1679759068.943,-55.176,-86.914,-117.188,-157.227,0.000
1679759068.947,-26.855,-59.570,-81.543,-69.824,0.000
1679759068.951,-3.418,18.066,15.137,62.500,0.000
1679759068.955,-13.672,34.668,53.711,77.637,0.000
1679759068.959,-42.969,-13.184,-12.207,-36.621,0.000
1679759068.963,-54.688,-81.543,-100.586,-154.297,0.000
1679759068.967,-41.016,-98.145,-90.820,-112.305,0.000
1679759068.971,0.488,-19.043,6.836,43.945,0.000
1679759068.975,10.742,47.852,66.895,111.816,0.000
1679759068.979,-24.902,0.000,8.789,5.371,0.000
1679759068.982,-47.363,-77.148,-85.938,-130.371,0.000
1679759068.986,-37.598,-84.473,-90.332,-109.863,0.000
1679759068.990,-2.441,-13.672,-1.465,39.062,0.000
1679759068.994,22.461,49.805,66.895,137.207,0.000
1679759068.998,21.484,15.137,22.949,56.641,0.000
1679759069.002,-19.531,-73.730,-87.402,-114.746,0.000
1679759069.006,-30.273,-91.309,-108.887,-129.883,0.000
1679759069.010,11.719,-4.395,-19.043,22.461,0.000
1679759069.014,17.090,47.852,49.316,109.375,0.000
1679759069.017,-32.227,11.719,24.414,17.578,0.000
1679759069.021,-55.664,-62.012,-65.430,-117.676,0.000
1679759069.025,-29.297,-94.238,-105.957,-125.977,0.000
1679759069.029,-2.930,-26.855,-33.203,-3.906,0.000
1679759069.033,-6.348,50.781,47.363,85.449,0.000
1679759069.037,-45.898,18.066,23.438,6.348,0.000
1679759069.041,-68.848,-60.547,-64.941,-132.324,0.000
1679759069.045,-48.340,-108.398,-111.328,-154.297,0.000
1679759069.049,-17.090,-68.848,-48.828,-31.738,0.000
1679759069.053,-23.438,17.090,47.363,75.195,0.000
1679759069.057,-41.992,14.160,39.551,37.109,0.000
1679759069.060,-44.922,-47.363,-56.641,-79.590,0.000
1679759069.064,-45.410,-94.238,-111.816,-131.836,0.000
1679759069.068,-39.551,-63.477,-56.152,-55.176,0.000
1679759069.072,-27.344,2.441,39.062,55.664,0.000
1679759069.076,-15.137,10.254,51.758,61.035,0.000
1679759069.080,-17.090,-43.945,-30.762,-47.363,0.000
1679759069.084,-20.020,-98.633,-103.027,-122.559,0.000
1679759069.088,-11.230,-59.570,-66.895,-51.270,0.000
1679759069.092,7.812,9.766,26.855,76.660,0.000
1679759069.096,7.324,23.438,53.223,86.426,0.000
1679759069.100,-16.113,-20.508,-23.926,-35.156,0.000
1679759069.103,-30.273,-76.660,-105.957,-140.137,0.000
1679759069.107,-12.695,-68.848,-82.031,-81.055,0.000
1679759069.111,7.812,-3.418,14.648,55.176,0.000
1679759069.115,-13.672,37.109,61.035,71.777,0.000
1679759069.119,-43.945,-14.648,-6.348,-41.992,0.000
1679759069.123,-44.922,-90.332,-100.586,-151.367,0.000
1679759069.127,-22.461,-79.102,-85.938,-103.516,0.000
1679759069.131,-6.348,-8.789,7.812,35.645,0.000
1679759069.135,-15.625,45.410,62.500,81.055,0.000
1679759069.139,-35.156,5.859,4.883,-24.902,0.000
1679759069.143,-55.176,-96.191,-96.680,-158.691,0.000
1679759069.146,-54.199,-105.469,-96.191,-127.930,0.000
1679759069.150,-23.926,-31.738,-4.883,14.648,0.000
1679759069.154,-11.230,27.344,57.617,86.426,0.000
1679759069.158,-36.133,12.207,17.090,-2.930,0.000
1679759069.162,-54.199,-60.547,-81.055,-137.695,0.000
1679759069.166,-31.738,-81.543,-101.074,-123.535,0.000
1679759069.170,8.301,-27.344,-14.160,19.531,0.000
1679759069.174,20.020,43.457,60.547,115.723,0.000
1679759069.178,-10.254,39.062,29.785,45.898,0.000
1679759069.182,-33.691,-49.805,-64.453,-101.562,0.000
1679759069.186,-20.020,-92.773,-97.656,-121.094,0.000
1679759069.189,9.277,-37.598,-25.391,9.766,0.000
1679759069.193,24.902,38.086,52.734,112.305,0.000
1679759069.197,12.207,35.645,30.273,59.082,0.000
1679759069.201,-22.949,-49.805,-65.430,-91.797,0.000
1679759069.205,-42.969,-95.215,-112.305,-153.809,0.000
1679759069.209,-24.414,-45.898,-51.270,-42.969,0.000
1679759069.213,-3.418,25.391,42.480,88.867,0.000
1679759069.217,-17.578,22.949,42.480,48.340,0.000
1679759069.221,-42.969,-38.574,-48.828,-100.098,0.000
1679759069.225,-46.875,-83.984,-117.188,-161.133,0.000
1679759069.229,-37.109,-56.641,-63.477,-78.613,0.000
1679759069.232,-28.320,9.277,34.668,54.199,0.000
1679759069.236,-25.391,24.902,40.527,60.547,0.000
1679759069.240,-49.316,-41.016,-47.852,-76.660,0.000
1679759069.244,-73.242,-109.863,-119.629,-168.457,0.000
1679759069.248,-35.645,-82.031,-68.848,-79.590,0.000
1679759069.252,7.324,8.789,33.203,70.312,0.000
1679759069.256,7.812,47.363,53.223,92.285,0.000
1679759069.260,-20.020,-5.859,-33.203,-41.016,0.000
1679759069.264,-41.504,-86.914,-115.723,-149.902,0.000
1679759069.268,-13.672,-81.055,-83.496,-71.777,0.000
1679759069.272,25.391,6.836,20.020,82.031,0.000
1679759069.275,20.996,53.711,56.641,114.746,0.000
1679759069.279,-22.949,-7.812,-16.113,-25.391,0.000
1679759069.283,-38.086,-89.355,-110.352,-149.902,0.000
1679759069.287,-21.484,-88.379,-95.215,-97.656,0.000
1679759069.291,-1.465,-7.812,6.348,36.621,0.000
1679759069.295,-1.953,32.227,56.152,88.379,0.000
1679759069.299,-28.809,-11.230,-1.465,-16.113,0.000
1679759069.303,-43.945,-83.496,-95.215,-145.020,0.000
1679759069.307,-25.879,-92.773,-96.191,-114.258,0.000
1679759069.311,-1.953,-14.648,-4.395,22.461,0.000
1679759069.315,6.348,53.223,62.012,90.332,0.000
1679759069.318,-17.578,13.672,15.625,5.859,0.000
1679759069.322,-55.664,-64.941,-80.078,-131.348,0.000
1679759069.326,-56.152,-94.238,-97.168,-139.160,0.000
1679759069.330,-29.297,-51.270,-10.742,1.953,0.000
1679759069.334,-2.441,16.113,64.941,105.957,0.000
1679759069.338,-12.695,8.789,20.996,32.715,0.000
1679759069.342,-28.809,-68.359,-85.938,-116.699,0.000
1679759069.346,-36.621,-81.543,-110.352,-145.996,0.000
1679759069.350,-41.992,-28.809,-27.344,-32.715,0.000
1679759069.354,-29.785,20.996,57.617,72.266,0.000
1679759069.358,-31.738,3.906,39.551,35.156,0.000
1679759069.361,-38.574,-62.012,-58.594,-87.402,0.000
1679759069.365,-30.273,-84.961,-104.004,-127.441,0.000
1679759069.369,-13.672,-25.391,-33.203,-26.855,0.000
1679759069.373,12.207,37.598,53.711,89.355,0.000
1679759069.377,8.789,27.344,41.992,63.965,0.000
1679759069.381,-17.090,-41.016,-48.828,-75.195,0.000
1679759069.385,-33.203,-90.820,-97.656,-152.832,0.000
1679759069.389,-28.320,-53.711,-42.969,-63.477,0.000
1679759069.393,-5.371,18.066,49.316,82.031,0.000
1679759069.397,4.395,31.738,59.082,84.961,0.000
1679759069.401,-14.648,-30.762,-36.621,-59.570,0.000
1679759069.404,-25.391,-72.754,-115.234,-152.832,0.000
1679759069.408,-4.883,-40.527,-66.895,-69.824,0.000
1679759069.412,-10.742,6.348,30.762,49.316,0.000
1679759069.416,-24.902,39.062,54.688,53.711,0.000
1679759069.420,-36.621,-18.555,-27.344,-63.965,0.000
1679759069.424,-41.504,-99.609,-116.211,-158.203,0.000
1679759069.428,-12.695,-67.871,-79.590,-77.637,0.000
1679759069.432,9.766,14.648,22.949,62.012,0.000
1679759069.436,5.371,41.992,62.012,89.355,0.000
1679759069.440,-22.461,-8.789,-5.371,-26.855,0.000
1679759069.443,-41.016,-85.938,-95.703,-143.066,0.000
1679759069.447,-15.625,-84.961,-78.613,-85.938,0.000
1679759069.451,21.484,-10.254,24.414,67.383,0.000
1679759069.455,28.320,39.062,78.613,121.094,0.000
1679759069.459,2.930,18.066,20.996,13.184,0.000
1679759069.463,-24.414,-47.852,-83.008,-132.324,0.000
1679759069.467,-14.648,-74.219,-97.168,-112.793,0.000
1679759069.471,7.324,-22.949,-0.977,31.250,0.000
1679759069.475,-10.742,34.668,71.289,94.238,0.000
1679759069.479,-41.016,8.789,25.879,-3.906,0.000
1679759069.482,-41.016,-71.777,-75.684,-132.324,0.000
1679759069.486,-19.043,-83.496,-88.867,-107.422,0.000
1679759069.490,-3.418,-16.602,-1.465,22.461,0.000
1679759069.494,0.000,34.668,65.430,99.121,0.000
1679759069.498,-20.508,10.254,30.762,33.203,0.000
1679759069.502,-48.340,-58.594,-63.965,-111.816,0.000
1679759069.506,-42.969,-100.098,-94.238,-132.812,0.000
1679759069.510,-19.531,-38.086,-17.578,-3.418,0.000
1679759069.514,-3.418,62.500,60.547,102.539,0.000
1679759069.518,-17.090,39.062,30.273,43.945,0.000
1679759069.522,-47.363,-65.430,-70.801,-109.375,0.000
1679759069.525,-46.387,-108.887,-115.234,-149.414,0.000
1679759069.529,-19.043,-63.477,-47.852,-36.621,0.000
1679759069.533,0.488,19.531,46.875,82.031,0.000
1679759069.537,-9.277,33.691,43.457,59.570,0.000
1679759069.541,-33.203,-40.527,-46.387,-75.195,0.000
1679759069.545,-32.715,-105.957,-103.027,-137.207,0.000
1679759069.549,1.465,-64.453,-41.016,-28.809,0.000
1679759069.553,13.184,17.090,44.922,91.309,0.000
1679759069.557,1.465,44.922,33.691,72.266,0.000
1679759069.561,-17.578,-11.719,-50.293,-61.035,0.000
1679759069.565,-51.758,-97.656,-110.840,-164.062,0.000
1679759069.568,-43.945,-73.242,-62.988,-94.238,0.000
1679759069.572,-22.461,11.230,30.273,47.363,0.000
1679759069.576,-23.438,22.461,55.664,67.871,0.000
1679759069.580,-22.949,-27.344,-17.090,-43.945,0.000
1679759069.584,-36.133,-76.660,-103.516,-154.297,0.000
1679759069.588,-39.062,-68.848,-78.125,-105.957,0.000
1679759069.592,-22.461,9.766,22.949,32.227,0.000
1679759069.596,-24.902,62.988,63.965,62.012,0.000
1679759069.600,-45.898,-11.230,-8.301,-44.434,0.000
1679759069.604,-51.270,-82.520,-97.656,-149.414,0.000
1679759069.608,-22.949,-70.801,-83.984,-89.844,0.000
1679759069.611,-4.883,-13.672,4.395,56.152,0.000
1679759069.615,-3.418,37.109,53.711,107.910,0.000
1679759069.619,-32.227,-2.930,-2.441,0.977,0.000
1679759069.623,-56.152,-87.891,-96.191,-132.324,0.000
1679759069.627,-22.461,-79.590,-89.844,-99.121,0.000
1679759069.631,9.277,-2.441,-4.883,42.969,0.000
1679759069.635,10.742,42.480,54.199,111.328,0.000
1679759069.639,-2.441,12.695,14.160,22.949,0.000
1679759069.643,-25.391,-62.500,-82.520,-112.793,0.000
1679759069.647,-18.555,-80.566,-95.703,-108.398,0.000
1679759069.651,5.371,-7.324,-12.207,18.066,0.000
1679759069.654,6.348,52.734,63.965,104.004,0.000
1679759069.658,-28.809,16.113,28.809,20.508,0.000
1679759069.662,-62.012,-71.777,-72.266,-126.953,0.000
1679759069.666,-43.945,-108.398,-99.121,-139.648,0.000
1679759069.670,-6.836,-32.715,-23.438,-14.648,0.000
1679759069.674,-11.719,53.223,53.711,78.125,0.000
1679759069.678,-38.086,22.461,36.621,14.648,0.000
1679759069.682,-61.035,-59.082,-55.664,-122.559,0.000
1679759069.686,-56.152,-100.098,-110.840,-166.992,0.000
1679759069.690,-19.531,-51.270,-43.945,-47.852,0.000
1679759069.694,-13.672,32.715,45.898,75.684,0.000
1679759069.697,-38.086,37.109,39.062,40.527,0.000
1679759069.701,-48.340,-45.410,-46.387,-92.285,0.000
1679759069.705,-35.645,-98.633,-105.957,-150.391,0.000
1679759069.709,-6.348,-59.082,-59.570,-40.527,0.000
1679759069.713,18.066,15.137,36.621,99.121,0.000
1679759069.717,0.000,39.551,50.781,79.102,0.000
1679759069.721,-21.973,-28.809,-33.203,-62.988,0.000
1679759069.725,-23.438,-93.750,-105.469,-142.090,0.000
1679759069.729,-3.906,-73.242,-68.359,-53.223,0.000
1679759069.733,6.836,1.465,26.855,74.219,0.000
1679759069.737,-0.977,39.551,45.898,78.613,0.000
1679759069.740,-19.531,-7.812,-30.273,-46.875,0.000
1679759069.744,-35.156,-83.008,-106.934,-155.273,0.000
1679759069.748,-17.090,-77.148,-77.148,-85.449,0.000
1679759069.752,2.930,-4.395,14.160,54.199,0.000
1679759069.756,-10.742,35.645,49.316,72.266,0.000
1679759069.760,-46.387,-13.672,-24.414,-55.176,0.000
1679759069.764,-61.035,-90.332,-114.746,-169.434,0.000
1679759069.768,-37.109,-83.496,-93.262,-113.770,0.000
1679759069.772,-1.953,-5.859,2.441,25.879,0.000
1679759069.776,-6.348,45.898,61.523,77.637,0.000
1679759069.780,-41.016,-4.395,4.883,-24.902,0.000
1679759069.783,-58.105,-80.566,-91.309,-146.973,0.000
1679759069.787,-45.898,-75.684,-88.867,-117.676,0.000
1679759069.791,-17.578,-1.465,-0.977,24.902,0.000
1679759069.795,5.371,41.992,58.594,105.957,0.000
1679759069.799,-13.672,-7.324,11.719,17.578,0.000
1679759069.803,-48.340,-82.031,-83.496,-121.582,0.000
1679759069.807,-32.715,-99.121,-94.238,-116.211,0.000
1679759069.811,4.883,-41.504,-9.766,19.531,0.000
1679759069.815,17.578,32.715,64.453,112.305,0.000
1679759069.819,12.695,18.066,38.086,50.781,0.000
1679759069.823,-9.277,-72.266,-64.941,-87.891,0.000
1679759069.826,-10.254,-105.469,-101.074,-114.258,0.000
1679759069.830,16.602,-30.762,-26.367,8.789,0.000
1679759069.834,29.785,53.711,54.688,114.746,0.000
1679759069.838,5.859,43.945,39.551,44.922,0.000
1679759069.842,-36.133,-52.246,-62.012,-109.863,0.000
1679759069.846,-40.039,-104.492,-111.328,-148.438,0.000
1679759069.850,-15.625,-49.316,-40.039,-34.668,0.000
1679759069.854,-4.395,30.273,43.945,72.754,0.000
1679759069.858,-18.066,14.648,25.879,30.762,0.000
1679759069.862,-37.598,-59.570,-63.965,-102.051,0.000
1679759069.866,-43.457,-99.609,-114.258,-151.367,0.000
1679759069.869,-25.879,-63.965,-56.152,-44.434,0.000
1679759069.873,-8.789,20.020,37.109,81.543,0.000
1679759069.877,-15.137,56.152,52.246,67.383,0.000
1679759069.881,-40.039,-24.414,-37.598,-67.383,0.000
1679759069.885,-48.340,-98.633,-117.188,-149.414,0.000
1679759069.889,-23.926,-76.660,-71.777,-67.871,0.000
1679759069.893,11.230,-5.371,33.203,77.148,0.000
1679759069.897,8.789,26.367,54.688,91.797,0.000
1679759069.901,-11.230,-27.832,-29.785,-35.645,0.000
1679759069.905,-13.672,-101.562,-105.469,-127.930,0.000
1679759069.908,-4.395,-59.082,-62.988,-58.105,0.000
1679759069.912,17.090,18.555,30.273,82.031,0.000
1679759069.916,27.832,33.203,60.547,115.723,0.000
1679759069.920,-0.488,-12.695,-14.648,-16.113,0.000
1679759069.924,-35.156,-81.055,-108.887,-153.809,0.000
1679759069.928,-32.715,-67.871,-96.191,-117.188,0.000
1679759069.932,-10.254,16.113,-0.977,24.902,0.000
1679759069.936,-8.301,45.898,54.688,82.031,0.000
1679759069.940,-41.504,-15.625,-1.953,-35.156,0.000
1679759069.944,-46.387,-88.867,-93.262,-159.180,0.000
1679759069.948,-33.203,-103.516,-94.238,-125.977,0.000
1679759069.951,-20.020,-41.016,-17.578,1.465,0.000
1679759069.955,-9.277,37.598,44.922,71.289,0.000
1679759069.959,-28.809,19.531,3.418,-9.766,0.000
1679759069.963,-49.805,-73.730,-94.238,-138.672,0.000
1679759069.967,-47.852,-91.309,-105.469,-134.766,0.000
1679759069.971,-34.668,-21.973,-12.207,-8.789,0.000
1679759069.975,-14.648,31.250,59.082,90.820,0.000
1679759069.979,-16.602,3.418,16.113,34.180,0.000
1679759069.983,-31.250,-65.430,-79.590,-96.191,0.000
1679759069.987,-33.691,-88.867,-112.793,-126.953,0.000
1679759069.991,-20.020,-52.246,-37.109,-17.578,0.000
1679759069.994,1.465,11.230,57.617,104.492,0.000
1679759069.998,2.441,8.789,37.598,67.871,0.000
1679759070.002,-22.949,-65.918,-72.266,-83.496,0.000
1679759070.006,-33.203,-99.121,-125.977,-134.277,0.000
1679759070.010,-18.555,-42.480,-59.570,-36.133,0.000
1679759070.014,-5.859,23.926,30.273,71.289,0.000
1679759070.018,-8.301,25.879,25.391,48.828,0.000
1679759070.022,-34.668,-33.203,-51.270,-85.938,0.000
1679759070.026,-50.293,-83.984,-101.074,-155.762,0.000
1679759070.030,-38.086,-57.129,-54.199,-66.406,0.000
1679759070.034,-14.160,9.277,37.598,74.219,0.000
1679759070.037,-6.348,24.902,55.664,84.473,0.000
1679759070.041,-27.344,-37.598,-33.203,-56.641,0.000
1679759070.045,-60.547,-93.750,-111.328,-166.992,0.000
1679759070.049,-51.270,-57.129,-75.684,-93.750,0.000
1679759070.053,-7.324,23.926,23.438,60.059,0.000
1679759070.057,-17.578,35.645,50.293,72.266,0.000
1679759070.061,-65.918,-27.832,-27.832,-69.336,0.000
1679759070.065,-72.266,-82.031,-105.957,-166.016,0.000
1679759070.069,-30.273,-83.496,-76.172,-82.520,0.000
1679759070.073,-1.953,-2.930,15.137,64.453,0.000
1679759070.077,2.930,36.621,44.434,97.168,0.000
1679759070.080,-10.254,-26.367,-20.020,-15.625,0.000
1679759070.084,-25.391,-92.773,-102.051,-125.977,0.000
1679759070.088,-3.906,-80.078,-84.961,-78.125,0.000
1679759070.092,25.391,-12.695,-0.488,54.688,0.000
1679759070.096,11.719,25.879,48.828,92.773,0.000
1679759070.100,-22.461,-3.906,0.977,-18.066,0.000
1679759070.104,-33.691,-64.941,-90.332,-144.531,0.000
1679759070.108,-13.184,-86.426,-96.680,-116.211,0.000
1679759070.112,0.000,-28.320,-9.277,15.137,0.000
1679759070.116,-3.906,30.273,52.734,81.543,0.000
1679759070.120,-29.297,5.859,3.906,-7.812,0.000
1679759070.123,-52.246,-73.242,-88.867,-140.625,0.000
1679759070.127,-42.969,-101.562,-104.980,-128.418,0.000
1679759070.131,-11.719,-27.832,-20.996,10.742,0.000
1679759070.135,-0.488,40.039,54.688,97.168,0.000
1679759070.139,-24.902,6.348,21.973,14.648,0.000
1679759070.143,-43.945,-62.988,-75.684,-128.418,0.000
1679759070.147,-37.598,-92.285,-111.816,-148.926,0.000
1679759070.151,-19.043,-52.246,-36.133,-18.555,0.000
1679759070.155,-4.395,20.020,50.293,93.750,0.000
1679759070.159,-16.602,30.273,37.598,38.086,0.000
1679759070.163,-38.086,-46.875,-57.617,-97.168,0.000
1679759070.166,-32.227,-82.520,-105.957,-130.371,0.000
1679759070.170,-8.301,-40.527,-41.992,-18.555,0.000
1679759070.174,13.672,25.391,50.293,104.492,0.000
1679759070.178,4.395,27.832,49.316,67.383,0.000
1679759070.182,-27.344,-52.246,-47.852,-78.125,0.000
1679759070.186,-29.785,-97.168,-104.980,-132.812,0.000
1679759070.190,-4.883,-41.016,-47.363,-32.715,0.000
1679759070.194,24.902,43.945,40.527,95.215,0.000
1679759070.198,20.508,44.434,44.922,79.590,0.000
1679759070.202,-18.066,-41.992,-41.992,-62.988,0.000
1679759070.205,-45.898,-104.492,-115.234,-164.551,0.000
1679759070.209,-27.832,-66.895,-71.289,-79.102,0.000
1679759070.213,-1.465,13.672,31.738,64.941,0.000
1679759070.217,-10.742,23.926,47.852,64.453,0.000
1679759070.221,-54.199,-37.598,-36.133,-72.266,0.000
1679759070.225,-59.082,-95.215,-111.816,-165.527,0.000
1679759070.229,-30.273,-69.336,-79.590,-97.168,0.000
1679759070.233,-6.348,0.000,20.020,44.434,0.000
1679759070.237,-4.395,38.086,59.082,81.055,0.000
1679759070.241,-37.598,-8.301,-14.160,-42.969,0.000
1679759070.245,-54.199,-87.402,-107.910,-163.086,0.000
1679759070.248,-25.879,-75.195,-89.844,-101.562,0.000
1679759070.252,0.977,13.184,11.719,43.945,0.000
1679759070.256,5.371,51.758,64.941,96.680,0.000
1679759070.260,-16.602,6.836,6.836,-2.441,0.000
1679759070.264,-41.504,-86.914,-94.727,-135.742,0.000
1679759070.268,-14.160,-93.750,-99.121,-102.051,0.000
1679759070.272,29.297,-0.488,-2.930,46.875,0.000
1679759070.276,15.137,47.852,65.430,109.863,0.000
1679759070.280,-26.367,1.465,20.508,1.953,0.000
1679759070.284,-46.875,-62.988,-67.871,-139.648,0.000
1679759070.288,-25.391,-73.730,-82.031,-125.977,0.000
1679759070.291,3.418,-11.719,-8.789,16.113,0.000
1679759070.295,6.348,48.828,64.453,102.539,0.000
1679759070.299,-24.902,15.625,35.645,10.742,0.000
1679759070.303,-55.176,-52.246,-57.129,-132.324,0.000
1679759070.307,-46.387,-75.195,-86.426,-135.742,0.000
1679759070.311,-21.973,-52.734,-21.484,-10.742,0.000
1679759070.315,-13.184,19.043,61.035,89.844,0.000
1679759070.319,-34.668,28.320,42.480,33.203,0.000
1679759070.323,-66.406,-59.570,-65.430,-116.699,0.000
1679759070.327,-47.852,-107.422,-112.793,-151.367,0.000
1679759070.330,-5.371,-46.387,-43.457,-23.438,0.000
1679759070.334,0.977,32.715,47.363,91.797,0.000
1679759070.338,-26.855,26.367,42.969,40.527,0.000
1679759070.342,-42.969,-43.457,-42.969,-96.191,0.000
1679759070.346,-37.109,-83.496,-97.168,-145.996,0.000
1679759070.350,-14.648,-52.734,-48.340,-42.480,0.000
1679759070.354,6.836,24.414,45.410,89.355,0.000
1679759070.358,0.977,41.504,54.688,83.008,0.000
1679759070.362,-19.043,-31.738,-25.391,-42.480,0.000
1679759070.366,-16.113,-97.168,-94.727,-120.117,0.000
1679759070.370,6.348,-76.660,-66.895,-52.734,0.000
1679759070.373,24.414,0.977,20.508,70.801,0.000
1679759070.377,1.465,29.297,50.781,79.590,0.000
1679759070.381,-42.969,-28.320,-20.996,-60.547,0.000
1679759070.385,-59.082,-97.168,-103.027,-170.898,0.000
1679759070.389,-39.062,-85.449,-78.613,-96.191,0.000
1679759070.393,-14.648,-6.836,17.578,44.434,0.000
1679759070.397,-20.996,32.227,53.223,71.777,0.000
1679759070.401,-45.898,-9.766,-15.137,-48.828,0.000
1679759070.405,-52.246,-71.777,-109.863,-171.387,0.000
1679759070.409,-20.996,-76.172,-97.656,-108.398,0.000
1679759070.413,-17.090,-17.090,4.883,28.809,0.000
1679759070.416,-27.344,41.992,60.059,65.918,0.000
1679759070.420,-34.668,-8.789,1.953,-30.273,0.000
1679759070.424,-43.945,-95.703,-94.238,-151.855,0.000
1679759070.428,-30.273,-85.938,-97.168,-121.582,0.000
1679759070.432,-8.301,-17.090,-10.742,18.555,0.000
1679759070.436,2.930,25.391,50.781,97.168,0.000
1679759070.440,-18.555,-1.465,6.348,12.695,0.000
1679759070.444,-42.969,-75.684,-93.262,-136.230,0.000
1679759070.448,-31.250,-89.355,-98.145,-129.883,0.000
1679759070.452,-1.465,-24.414,-4.883,13.672,0.000
1679759070.456,10.254,33.691,56.641,101.074,0.000
1679759070.459,-21.973,9.766,14.648,15.625,0.000
1679759070.463,-39.551,-73.730,-84.961,-134.766,0.000
1679759070.467,-32.227,-99.121,-110.840,-154.297,0.000
1679759070.471,-29.297,-23.926,-22.949,-31.250,0.000
1679759070.475,-12.207,43.457,55.664,76.660,0.000
1679759070.479,-16.113,21.973,35.156,29.297,0.000
1679759070.483,-52.734,-63.477,-56.152,-119.141,0.000
1679759070.487,-54.688,-98.633,-102.539,-160.156,0.000
1679759070.491,-29.785,-43.945,-40.527,-46.875,0.000
1679759070.495,-19.043,30.273,48.340,62.012,0.000
1679759070.499,-39.551,25.879,44.434,23.438,0.000
1679759070.502,-62.012,-61.035,-52.246,-109.863,0.000
1679759070.506,-52.246,-104.980,-109.375,-160.645,0.000
1679759070.510,-20.996,-51.270,-51.758,-51.270,0.000
1679759070.514,0.488,21.484,38.574,84.473,0.000
1679759070.518,-3.418,41.992,51.758,74.219,0.000
1679759070.522,-25.879,-19.531,-33.203,-63.965,0.000
1679759070.526,-39.062,-89.844,-111.816,-149.902,0.000
1679759070.530,-13.672,-58.594,-74.219,-62.500,0.000
1679759070.534,6.836,1.465,21.973,78.613,0.000
1679759070.538,7.812,15.625,48.828,94.238,0.000
1679759070.542,-22.461,-16.113,-24.902,-39.551,0.000
1679759070.545,-62.500,-99.121,-110.840,-151.855,0.000
1679759070.549,-41.504,-94.727,-84.961,-77.637,0.000
1679759070.553,4.395,-0.977,21.484,82.520,0.000
1679759070.557,2.441,23.926,61.035,111.816,0.000
1679759070.561,-32.715,-31.250,-18.555,-35.645,0.000
1679759070.565,-55.176,-87.402,-109.863,-166.504,0.000
1679759070.569,-48.828,-76.660,-89.355,-125.488,0.000
1679759070.573,-28.320,-5.859,7.324,3.418,0.000
1679759070.577,-17.578,30.762,59.082,64.453,0.000
1679759070.581,-35.645,-12.695,0.000,-28.320,0.000
1679759070.585,-56.641,-75.684,-98.145,-155.762,0.000
1679759070.588,-46.875,-56.152,-94.238,-133.789,0.000
1679759070.592,-32.715,-15.137,-5.859,-6.836,0.000
1679759070.596,-28.809,13.672,51.270,65.430,0.000
1679759070.600,-28.809,-0.488,15.625,-7.324,0.000
1679759070.604,-44.434,-70.312,-79.590,-142.090,0.000
1679759070.608,-34.668,-82.031,-96.680,-127.441,0.000
1679759070.612,3.418,-19.043,-10.254,21.484,0.000
1679759070.616,9.277,33.691,59.570,104.492,0.000
1679759070.620,-14.160,0.977,24.902,28.809,0.000
1679759070.624,-38.086,-78.613,-70.312,-114.258,0.000
1679759070.627,-38.574,-83.984,-92.773,-132.812,0.000
1679759070.631,-10.254,-38.574,-18.066,-8.301,0.000
1679759070.635,14.160,34.668,54.199,100.098,0.000
1679759070.639,-3.906,40.039,34.668,49.805,0.000
1679759070.643,-36.621,-57.129,-64.941,-108.887,0.000
1679759070.647,-58.594,-113.281,-116.211,-170.898,0.000
1679759070.651,-46.875,-65.430,-48.340,-56.641,0.000
1679759070.655,-18.555,4.395,43.457,74.219,0.000
1679759070.659,-20.996,3.906,37.109,49.805,0.000
1679759070.663,-39.062,-59.082,-53.223,-81.543,0.000
1679759070.667,-42.480,-98.633,-112.305,-145.508,0.000
1679759070.670,-46.387,-67.383,-54.199,-69.336,0.000
1679759070.674,-47.852,4.883,46.387,39.062,0.000
1679759070.678,-56.152,20.996,49.805,29.785,0.000
1679759070.682,-61.035,-32.227,-33.203,-86.914,0.000
1679759070.686,-52.246,-94.238,-104.980,-152.344,0.000
1679759070.690,-17.090,-79.590,-69.824,-55.664,0.000
1679759070.694,19.043,6.836,26.367,83.984,0.000
1679759070.698,-2.930,41.016,41.504,78.613,0.000
1679759070.702,-52.246,-30.762,-30.762,-70.312,0.000
1679759070.706,-66.895,-90.332,-97.168,-171.387,0.000
1679759070.710,-32.227,-64.941,-74.219,-93.262,0.000
1679759070.713,7.324,-1.953,10.254,55.664,0.000
1679759070.717,0.000,24.414,48.828,89.844,0.000
1679759070.721,-47.852,-23.438,-22.949,-44.922,0.000
1679759070.725,-65.918,-107.422,-116.211,-165.527,0.000
1679759070.729,-36.621,-90.820,-97.168,-110.352,0.000
1679759070.733,-4.883,-16.113,-4.883,34.668,0.000
1679759070.737,2.441,19.043,36.621,87.402,0.000
1679759070.741,-29.785,-12.695,-26.367,-20.996,0.000
1679759070.745,-57.129,-104.492,-121.582,-154.785,0.000
1679759070.749,-36.621,-113.770,-110.840,-115.723,0.000
1679759070.752,-3.418,-18.066,-13.672,27.344,0.000
1679759070.756,-15.137,39.062,47.363,70.312,0.000
1679759070.760,-56.641,-11.719,0.977,-31.250,0.000
1679759070.764,-80.566,-98.145,-99.121,-158.691,0.000
1679759070.768,-63.965,-104.004,-119.141,-146.973,0.000
1679759070.772,-23.438,-28.809,-33.203,3.906,0.000
1679759070.776,-0.488,48.340,46.875,103.516,0.000
1679759070.780,-36.133,17.578,9.277,12.207,0.000
1679759070.784,-82.031,-92.285,-93.262,-152.832,0.000
1679759070.788,-85.449,-126.465,-124.512,-177.734,0.000
1679759070.792,-46.875,-60.547,-49.316,-40.039,0.000
1679759070.795,-3.418,5.371,31.738,83.008,0.000
1679759070.799,-18.555,11.719,9.766,38.574,0.000
1679759070.803,-44.922,-55.176,-75.684,-101.562,0.000
1679759070.807,-45.410,-103.516,-115.234,-152.344,0.000
1679759070.811,-38.086,-48.340,-54.199,-45.898,0.000
1679759070.815,-16.602,23.926,36.133,80.078,0.000
1679759070.819,-20.508,6.836,32.227,52.246,0.000
1679759070.823,-39.062,-64.941,-65.918,-86.426,0.000
1679759070.827,-35.156,-110.352,-123.535,-143.066,0.000
1679759070.831,-18.066,-75.195,-71.289,-52.246,0.000
1679759070.835,-9.766,-1.953,20.020,72.266,0.000
1679759070.838,-14.160,18.066,33.203,78.125,0.000
1679759070.842,-35.156,-48.828,-55.176,-60.547,0.000
1679759070.846,-50.781,-102.539,-126.953,-159.668,0.000
1679759070.850,-29.785,-75.195,-88.867,-81.543,0.000
1679759070.854,-8.789,3.418,9.277,53.711,0.000
1679759070.858,-24.414,22.949,41.016,60.547,0.000
1679759070.862,-56.641,-47.363,-37.598,-70.801,0.000
1679759070.866,-65.430,-82.031,-112.305,-164.551,0.000
1679759070.870,-39.062,-44.922,-78.613,-93.262,0.000
1679759070.874,-19.531,2.441,3.906,38.086,0.000
1679759070.878,-16.113,20.020,37.598,68.359,0.000
1679759070.881,-30.273,-9.766,-20.508,-45.898,0.000
1679759070.885,-50.293,-89.355,-108.398,-166.016,0.000
1679759070.889,-30.762,-99.121,-89.355,-110.840,0.000
1679759070.893,-7.812,-10.254,5.859,34.668,0.000
1679759070.897,-2.930,46.387,54.688,90.820,0.000
1679759070.901,-20.020,-11.719,-4.395,-3.418,0.000
1679759070.905,-40.527,-87.402,-97.168,-133.301,0.000
1679759070.909,-16.113,-70.801,-89.844,-99.609,0.000
1679759070.913,5.371,-14.160,0.977,36.621,0.000
1679759070.917,1.953,37.598,63.965,97.656,0.000
1679759070.921,-21.484,10.254,15.137,5.371,0.000
1679759070.924,-53.711,-83.008,-97.168,-141.602,0.000
1679759070.928,-36.621,-95.703,-109.863,-129.883,0.000
1679759070.932,-4.883,-34.180,-17.578,12.207,0.000
1679759070.936,3.906,19.531,51.270,99.121,0.000
1679759070.940,-13.672,8.301,15.625,23.926,0.000
1679759070.944,-31.250,-61.035,-83.008,-115.723,0.000
1679759070.948,-25.391,-84.961,-112.793,-133.789,0.000
1679759070.952,-39.551,-39.062,-39.062,-34.180,0.000
1679759070.956,-52.246,24.902,44.922,56.152,0.000
1679759070.960,-46.387,18.555,30.273,22.461,0.000
1679759070.964,-45.898,-46.875,-66.406,-104.492,0.000
1679759070.967,-48.340,-101.562,-119.141,-153.809,0.000
1679759070.971,-22.461,-50.293,-52.246,-41.504,0.000
1679759070.975,3.906,42.480,39.062,85.449,0.000
1679759070.979,-9.277,30.273,27.832,58.105,0.000
1679759070.983,-32.715,-59.082,-61.523,-88.867,0.000
1679759070.987,-44.434,-108.887,-110.352,-166.992,0.000
1679759070.991,-21.973,-64.453,-53.223,-69.824,0.000
1679759070.995,7.812,13.672,35.645,73.242,0.000
1679759070.999,0.977,27.344,41.992,73.242,0.000
1679759071.003,-10.254,-27.832,-38.574,-59.570,0.000
1679759071.006,-14.160,-87.891,-109.375,-151.855,0.000
1679759071.010,-22.461,-57.617,-62.012,-84.473,0.000
1679759071.014,-23.438,11.230,30.762,43.945,0.000
1679759071.018,-28.320,4.883,40.527,52.734,0.000
1679759071.022,-42.480,-57.617,-39.062,-69.824,0.000
1679759071.026,-45.898,-102.539,-113.770,-159.180,0.000
1679759071.030,-17.578,-78.125,-75.684,-73.730,0.000
1679759071.034,4.883,2.930,21.484,69.824,0.000
1679759071.038,-8.789,51.758,57.129,86.426,0.000
1679759071.042,-32.227,-9.277,-13.184,-40.039,0.000
1679759071.046,-48.340,-98.633,-102.539,-154.297,0.000
1679759071.050,-43.457,-97.168,-90.820,-118.652,0.000
1679759071.053,-29.297,-22.461,1.465,16.113,0.000
1679759071.057,-30.273,30.273,50.781,71.289,0.000
1679759071.061,-40.527,-15.625,-6.836,-21.973,0.000
1679759071.065,-48.828,-107.910,-110.352,-138.184,0.000
1679759071.069,-44.922,-108.887,-112.305,-124.023,0.000
1679759071.073,-35.156,-35.156,-18.555,2.441,0.000
1679759071.077,-7.812,15.137,45.898,81.055,0.000
1679759071.081,-4.883,-0.488,1.953,-1.465,0.000
1679759071.085,-38.086,-76.172,-95.703,-142.578,0.000
1679759071.089,-49.805,-97.168,-105.469,-144.043,0.000
1679759071.093,-30.273,-32.715,-22.949,-10.742,0.000
1679759071.096,-10.254,30.273,47.852,83.496,0.000
1679759071.100,-33.203,0.000,10.254,0.977,0.000
1679759071.104,-59.570,-75.195,-90.820,-145.996,0.000
1679759071.108,-46.875,-96.680,-113.281,-149.414,0.000
1679759071.112,-25.879,-56.641,-35.156,-25.391,0.000
1679759071.116,-29.785,1.953,39.551,66.406,0.000
1679759071.120,-52.246,-1.953,15.625,15.625,0.000
1679759071.124,-62.012,-71.289,-74.707,-120.117,0.000
1679759071.128,-67.383,-108.887,-114.746,-167.969,0.000
1679759071.132,-48.340,-54.199,-50.781,-53.223,0.000
1679759071.136,-12.207,20.020,41.016,81.543,0.000
1679759071.139,-25.391,15.137,39.551,47.852,0.000
1679759071.143,-62.988,-50.781,-46.387,-104.004,0.000
1679759071.147,-70.801,-95.215,-101.562,-167.480,0.000
1679759071.151,-44.922,-58.594,-55.664,-61.523,0.000
1679759071.155,-13.672,0.000,30.762,79.590,0.000
1679759071.159,-28.320,-3.906,38.574,62.500,0.000
1679759071.163,-58.105,-57.617,-45.898,-90.820,0.000
1679759071.167,-59.570,-103.027,-107.422,-165.039,0.000
1679759071.171,-34.180,-74.219,-62.500,-60.059,0.000
1679759071.175,3.906,8.301,32.227,81.543,0.000
1679759071.179,-4.395,23.926,51.270,82.520,0.000
1679759071.182,-44.922,-40.527,-34.668,-49.805,0.000
1679759071.186,-53.711,-93.750,-115.723,-152.832,0.000
1679759071.190,-36.133,-67.383,-77.637,-93.750,0.000
1679759071.194,-9.766,-1.465,17.578,50.293,0.000
1679759071.198,-9.766,33.203,56.152,87.891,0.000
1679759071.202,-30.273,-23.926,-10.742,-30.273,0.000
1679759071.206,-35.156,-105.957,-104.980,-152.832,0.000
1679759071.210,-28.320,-87.402,-89.844,-107.910,0.000
1679759071.214,-12.207,1.465,7.324,32.227,0.000
1679759071.218,-10.254,33.691,54.688,81.055,0.000
1679759071.221,-46.387,-33.203,-10.254,-36.133,0.000
1679759071.225,-65.918,-108.887,-104.980,-161.621,0.000
1679759071.229,-39.062,-91.309,-98.145,-120.605,0.000
1679759071.233,-10.254,-22.461,-11.719,17.090,0.000
1679759071.237,-19.043,25.879,45.898,78.613,0.000
1679759071.241,-47.852,6.836,2.930,-14.160,0.000
1679759071.245,-71.777,-70.312,-95.215,-154.297,0.000
1679759071.249,-72.266,-102.539,-113.281,-155.762,0.000
1679759071.253,-38.086,-47.363,-35.645,-19.043,0.000
1679759071.257,-10.742,26.367,40.039,91.309,0.000
1679759071.260,-30.762,17.090,15.625,20.508,0.000
1679759071.264,-59.082,-76.660,-82.520,-141.113,0.000
1679759071.268,-54.688,-116.699,-113.770,-161.621,0.000
1679759071.272,-24.414,-37.109,-33.203,-26.367,0.000
1679759071.276,-4.395,39.551,52.246,82.031,0.000
1679759071.280,-23.926,6.836,31.738,27.832,0.000
1679759071.284,-50.781,-64.941,-61.035,-110.840,0.000
1679759071.288,-40.527,-95.215,-111.328,-146.484,0.000
1679759071.292,-16.113,-20.996,-43.945,-29.785,0.000
1679759071.296,-16.113,27.344,47.363,76.660,0.000
1679759071.300,-40.039,-8.301,30.273,26.855,0.000
1679759071.303,-64.453,-65.918,-57.129,-114.258,0.000
1679759071.307,-53.711,-104.980,-110.840,-169.434,0.000
1679759071.311,-29.297,-62.988,-58.594,-70.312,0.000
1679759071.315,-20.020,15.625,38.086,60.547,0.000
1679759071.319,-36.133,26.367,43.457,47.363,0.000
1679759071.323,-67.383,-46.875,-48.340,-84.473,0.000
1679759071.327,-65.918,-123.047,-121.094,-158.203,0.000
1679759071.331,-26.855,-86.426,-85.449,-70.801,0.000
1679759071.335,-13.184,7.812,7.812,61.523,0.000
1679759071.339,-40.527,28.809,42.969,60.547,0.000
1679759071.343,-76.660,-29.297,-30.273,-78.125,0.000
1679759071.346,-72.754,-91.309,-109.863,-164.551,0.000
1679759071.350,-18.555,-80.078,-78.613,-73.730,0.000
1679759071.354,18.555,-7.324,14.648,67.871,0.000
1679759071.358,4.395,21.484,53.223,91.309,0.000
1679759071.362,-37.598,-40.039,-20.996,-38.086,0.000
1679759071.366,-58.594,-101.562,-108.398,-157.227,0.000
1679759071.370,-35.645,-86.914,-88.379,-105.469,0.000
1679759071.374,-7.812,-18.555,8.301,41.504,0.000
1679759071.378,-6.348,34.668,58.105,98.633,0.000
1679759071.382,-28.320,-9.766,-2.441,2.441,0.000
1679759071.386,-52.734,-83.496,-98.633,-136.230,0.000
1679759071.389,-46.875,-98.633,-105.957,-130.371,0.000
1679759071.393,-13.184,-37.598,-16.602,16.113,0.000
1679759071.397,-8.301,22.461,44.922,89.844,0.000
1679759071.401,-41.504,-20.020,-6.836,-11.719,0.000
1679759071.405,-54.688,-103.516,-106.934,-145.508,0.000
1679759071.409,-28.320,-93.750,-107.422,-120.117,0.000
1679759071.413,0.977,-3.906,-19.043,15.625,0.000
1679759071.417,-6.348,39.062,40.527,84.473,0.000
1679759071.421,-53.711,4.395,14.648,-0.488,0.000
1679759071.425,-82.520,-76.172,-78.125,-153.809,0.000
1679759071.429,-65.430,-97.656,-108.887,-165.527,0.000
1679759071.432,-32.715,-30.273,-28.320,-18.555,0.000
1679759071.436,-13.672,23.926,48.828,87.891,0.000
1679759071.440,-27.344,17.090,22.461,28.320,0.000
1679759071.444,-39.062,-51.270,-69.336,-103.516,0.000
1679759071.448,-35.156,-108.398,-113.770,-140.137,0.000
1679759071.452,-25.879,-71.777,-50.781,-42.969,0.000
1679759071.456,0.000,10.254,42.480,79.590,0.000
1679759071.460,-3.418,18.066,42.480,57.617,0.000
1679759071.464,-42.480,-53.223,-48.340,-87.891,0.000
1679759071.468,-52.246,-102.051,-109.375,-155.273,0.000
1679759071.472,-25.879,-60.059,-51.270,-53.223,0.000
1679759071.475,-6.836,1.465,36.621,73.730,0.000
1679759071.479,-7.324,32.715,45.898,68.359,0.000
1679759071.483,-30.273,-35.156,-41.504,-68.359,0.000
1679759071.487,-50.781,-111.816,-118.652,-161.133,0.000
1679759071.491,-37.598,-76.172,-67.871,-79.590,0.000
1679759071.495,-17.578,-5.859,29.785,59.082,0.000
1679759071.499,-22.461,14.648,49.316,71.289,0.000
1679759071.503,-43.945,-22.949,-21.973,-60.059,0.000
1679759071.507,-53.711,-81.543,-104.492,-160.156,0.000
1679759071.511,-31.250,-78.613,-83.496,-94.727,0.000
1679759071.515,-3.418,-10.254,10.742,54.199,0.000
1679759071.518,-8.301,31.250,49.805,90.332,0.000
1679759071.522,-34.668,-17.578,-13.184,-36.621,0.000
1679759071.526,-56.152,-79.590,-93.750,-159.668,0.000
1679759071.530,-57.129,-86.426,-85.938,-123.535,0.000
1679759071.534,-29.785,-27.344,-0.488,17.090,0.000
1679759071.538,-11.719,26.367,52.246,74.707,0.000
1679759071.542,-24.902,-7.324,-2.930,-20.020,0.000
1679759071.546,-40.527,-102.539,-99.609,-144.531,0.000
1679759071.550,-31.250,-115.234,-103.516,-121.582,0.000
1679759071.554,-5.859,-21.484,-7.324,20.996,0.000
1679759071.558,1.465,36.621,59.082,94.727,0.000
1679759071.561,-14.648,-9.277,7.324,6.348,0.000
1679759071.565,-27.832,-76.660,-93.262,-124.512,0.000
1679759071.569,-23.926,-87.402,-109.863,-121.094,0.000
1679759071.573,-12.207,-28.320,-20.996,-0.488,0.000
1679759071.577,-9.277,20.996,53.223,81.055,0.000
1679759071.581,-26.367,-16.602,11.719,10.254,0.000
1679759071.585,-58.594,-100.098,-88.379,-138.184,0.000
1679759071.589,-57.129,-130.371,-114.746,-162.109,0.000
1679759071.593,-28.809,-69.336,-37.598,-29.297,0.000
1679759071.597,-13.184,23.926,50.293,83.984,0.000
1679759071.601,-30.273,13.672,30.273,16.602,0.000
1679759071.604,-51.270,-77.148,-68.359,-132.812,0.000
1679759071.608,-53.711,-114.746,-106.445,-168.457,0.000
1679759071.612,-38.086,-66.406,-37.598,-50.293,0.000
1679759071.616,-22.949,0.000,44.922,73.242,0.000
1679759071.620,-33.203,6.348,39.551,44.922,0.000
1679759071.624,-49.805,-71.777,-51.270,-94.238,0.000
1679759071.628,-51.758,-136.230,-111.328,-154.297,0.000
1679759071.632,-32.227,-98.145,-52.246,-52.246,0.000
1679759071.636,-14.160,-29.785,38.086,73.730,0.000
1679759071.640,-18.066,-17.090,48.340,64.453,0.000
1679759071.643,-43.457,-73.242,-36.133,-69.336,0.000
1679759071.647,-47.852,-140.625,-112.305,-152.344,0.000
1679759071.651,-20.020,-103.516,-61.523,-65.918,0.000
1679759071.655,-3.418,-21.973,34.668,70.801,0.000
1679759071.659,-13.672,7.324,59.082,75.195,0.000
1679759071.663,-40.527,-54.199,-19.531,-58.105,0.000
1679759071.667,-51.758,-115.234,-102.051,-157.227,0.000
1679759071.671,-33.203,-82.520,-75.684,-87.891,0.000
1679759071.675,3.906,-20.020,17.578,58.594,0.000
1679759071.679,7.812,10.254,50.293,89.844,0.000
1679759071.682,-31.738,-30.273,-24.902,-40.527,0.000
1679759071.686,-57.129,-103.516,-105.957,-157.227,0.000
1679759071.690,-46.387,-92.285,-87.402,-116.211,0.000
1679759071.694,-14.648,-9.277,2.930,20.508,0.000
1679759071.698,-6.836,34.180,49.805,73.730,0.000
1679759071.702,-38.086,-18.066,-9.766,-27.832,0.000
1679759071.706,-61.523,-86.426,-93.750,-146.973,0.000
1679759071.710,-49.805,-73.730,-88.379,-120.605,0.000
1679759071.714,-20.508,-0.977,-3.418,21.484,0.000
1679759071.718,-9.277,31.250,49.316,95.215,0.000
1679759071.722,-39.551,-19.531,-1.953,-2.441,0.000
1679759071.725,-64.941,-83.496,-97.168,-142.090,0.000
1679759071.729,-38.086,-94.727,-107.422,-129.883,0.000
1679759071.733,5.859,-30.273,-21.973,16.113,0.000
1679759071.737,21.484,46.387,45.898,109.863,0.000
1679759071.741,-9.277,22.949,12.695,28.320,0.000
1679759071.745,-45.410,-70.801,-82.520,-125.977,0.000
1679759071.749,-48.340,-99.121,-114.258,-150.879,0.000
1679759071.753,-28.809,-27.832,-36.133,-25.391,0.000
1679759071.757,-6.348,32.227,49.805,86.914,0.000
1679759071.761,-10.742,15.137,30.273,44.922,0.000
1679759071.765,-36.133,-65.430,-73.242,-95.703,0.000
1679759071.768,-43.457,-108.398,-120.117,-148.438,0.000
1679759071.772,-27.832,-62.500,-49.805,-40.039,0.000
1679759071.776,-11.719,11.719,39.062,83.496,0.000
1679759071.780,-21.973,5.859,29.297,45.410,0.000
1679759071.784,-44.922,-55.176,-62.500,-88.867,0.000
1679759071.788,-51.758,-95.703,-122.559,-151.855,0.000
1679759071.792,-37.598,-72.266,-65.918,-64.941,0.000
1679759071.796,-17.578,6.836,36.133,69.336,0.000
1679759071.800,-10.742,29.785,45.898,68.848,0.000
1679759071.804,-30.762,-36.133,-43.945,-70.312,0.000
1679759071.808,-51.758,-87.402,-114.258,-156.250,0.000
1679759071.811,-40.039,-65.430,-66.406,-76.172,0.000
1679759071.815,-20.996,0.977,27.344,54.199,0.000
1679759071.819,-18.066,24.414,43.457,72.266,0.000
1679759071.823,-30.762,-34.668,-38.086,-53.223,0.000
1679759071.827,-50.293,-101.074,-115.723,-156.738,0.000
1679759071.831,-42.969,-84.473,-83.496,-92.773,0.000
1679759071.835,-8.301,-16.113,8.301,53.223,0.000
1679759071.839,-1.953,29.297,43.945,94.238,0.000
1679759071.843,-29.785,-7.324,-17.578,-25.391,0.000
1679759071.847,-42.480,-74.707,-104.492,-145.508,0.000
1679759071.851,-37.109,-78.125,-96.680,-106.934,0.000
1679759071.854,-21.973,2.441,-7.324,29.785,0.000
1679759071.858,-8.789,38.086,42.480,84.961,0.000
1679759071.862,-30.273,-14.160,-11.719,-20.508,0.000
1679759071.866,-53.711,-82.520,-105.469,-153.809,0.000
1679759071.870,-33.691,-83.008,-100.586,-125.488,0.000
1679759071.874,-14.160,-6.348,-8.301,14.648,0.000
1679759071.878,-24.414,49.805,50.781,73.242,0.000
1679759071.882,-43.457,2.441,3.906,-17.090,0.000
1679759071.886,-55.664,-88.867,-93.750,-146.973,0.000
1679759071.890,-40.039,-110.352,-110.352,-137.207,0.000
1679759071.894,-13.672,-37.598,-26.855,-3.418,0.000
1679759071.897,-10.254,38.574,50.781,85.938,0.000
1679759071.901,-35.645,16.602,16.113,13.672,0.000
1679759071.905,-61.523,-82.520,-89.355,-137.695,0.000
1679759071.909,-49.805,-117.188,-115.234,-151.367,0.000
1679759071.913,-26.367,-48.340,-29.297,-15.137,0.000
1679759071.917,-23.926,18.066,51.758,85.449,0.000
1679759071.921,-31.738,6.836,20.996,32.227,0.000
1679759071.925,-43.457,-62.012,-72.754,-94.727,0.000
1679759071.929,-40.039,-99.121,-112.793,-134.766,0.000
1679759071.933,-9.277,-47.852,-51.758,-24.902,0.000
1679759071.937,0.000,17.090,34.668,85.449,0.000
1679759071.940,-20.020,30.273,36.621,44.922,0.000
1679759071.944,-47.852,-48.828,-56.641,-99.121,0.000
1679759071.948,-57.617,-99.121,-115.234,-161.621,0.000
1679759071.952,-28.809,-43.945,-57.129,-53.711,0.000
1679759071.956,0.977,13.672,33.203,78.125,0.000
1679759071.960,-10.254,19.043,31.738,58.105,0.000
1679759071.964,-41.504,-46.387,-59.570,-82.031,0.000
1679759071.968,-53.223,-113.281,-125.488,-161.621,0.000
1679759071.972,-45.410,-81.543,-79.590,-90.332,0.000
1679759071.976,-25.879,8.301,15.625,36.621,0.000
1679759071.980,-17.578,38.086,40.039,54.199,0.000
1679759071.983,-44.434,-34.180,-40.039,-69.824,0.000
1679759071.987,-59.570,-101.074,-118.652,-169.922,0.000
1679759071.991,-38.574,-67.871,-88.379,-101.562,0.000
1679759071.995,-3.418,12.207,8.301,49.316,0.000
1679759071.999,-14.160,23.926,44.434,72.754,0.000
1679759072.003,-48.340,-43.457,-17.090,-48.828,0.000
1679759072.007,-56.641,-114.746,-100.586,-158.691,0.000
1679759072.011,-31.738,-85.938,-84.473,-106.445,0.000
1679759072.015,8.789,-3.906,5.371,48.828,0.000
1679759072.019,9.277,31.738,54.199,101.074,0.000
1679759072.023,-28.809,-10.254,-4.395,-14.160,0.000
1679759072.026,-44.434,-89.844,-101.562,-144.531,0.000
1679759072.030,-28.809,-88.379,-97.656,-120.605,0.000
1679759072.034,-1.465,-8.301,-10.742,17.578,0.000
1679759072.038,0.000,25.391,46.875,82.520,0.000
1679759072.042,-31.738,3.418,7.812,-10.742,0.000
1679759072.046,-52.734,-75.195,-88.379,-142.578,0.000
1679759072.050,-33.691,-113.770,-110.352,-135.254,0.000
1679759072.054,-4.395,-39.551,-32.227,-1.465,0.000
1679759072.058,-10.254,21.973,36.621,76.660,0.000
1679759072.062,-30.762,-6.348,4.395,-2.441,0.000
1679759072.065,-60.547,-77.637,-83.008,-141.602,0.000
1679759072.069,-62.012,-97.656,-104.004,-154.785,0.000
1679759072.073,-23.438,-34.180,-31.250,-17.090,0.000
1679759072.077,-1.953,25.879,49.316,96.191,0.000
1679759072.081,-18.066,10.254,28.809,41.016,0.000
1679759072.085,-39.062,-55.664,-62.988,-101.562,0.000
1679759072.089,-44.434,-83.984,-107.910,-144.043,0.000
1679759072.093,-36.133,-49.805,-52.246,-30.762,0.000
1679759072.097,-13.672,-0.488,29.785,91.309,0.000
1679759072.101,-15.625,14.160,31.738,60.547,0.000
1679759072.104,-41.992,-37.109,-47.852,-84.473,0.000
1679759072.108,-57.129,-110.840,-105.957,-158.691,0.000
1679759072.112,-18.555,-71.777,-47.852,-48.828,0.000
1679759072.116,15.137,32.227,46.387,96.191,0.000
1679759072.120,-6.836,36.133,49.805,81.543,0.000
1679759072.124,-45.410,-41.504,-31.738,-67.383,0.000
1679759072.128,-42.480,-88.867,-100.586,-143.066,0.000
1679759072.132,-7.812,-76.660,-65.430,-44.434,0.000
1679759072.136,15.625,7.324,32.715,100.586,0.000
1679759072.140,-0.977,28.809,46.875,100.586,0.000
1679759072.144,-42.969,-42.480,-36.133,-48.340,0.000
1679759072.147,-59.082,-96.191,-110.840,-154.785,0.000
1679759072.151,-37.598,-80.078,-83.496,-92.773,0.000
1679759072.155,-12.207,-7.324,9.766,45.898,0.000
1679759072.159,-12.207,50.293,46.875,79.102,0.000
1679759072.163,-32.715,7.812,-12.695,-40.527,0.000
1679759072.167,-50.293,-82.520,-96.191,-159.668,0.000
1679759072.171,-26.367,-88.867,-82.031,-102.051,0.000
1679759072.175,14.648,-7.324,11.230,46.875,0.000
1679759072.179,0.977,50.781,59.082,96.191,0.000
1679759072.183,-41.016,11.719,0.000,-13.672,0.000
1679759072.187,-50.781,-77.148,-98.633,-149.414,0.000
1679759072.190,-22.461,-98.145,-97.656,-110.352,0.000
1679759072.194,9.766,-18.066,-7.324,41.016,0.000
1679759072.198,8.789,40.527,46.387,103.516,0.000
1679759072.202,-26.855,0.977,-2.930,1.953,0.000
1679759072.206,-56.152,-77.637,-90.820,-136.719,0.000
1679759072.210,-41.992,-92.285,-100.586,-131.348,0.000
1679759072.214,-12.207,-28.809,-14.160,0.488,0.000
1679759072.218,-6.836,37.598,60.547,94.727,0.000
1679759072.222,-11.230,18.555,19.531,34.668,0.000
1679759072.226,-25.879,-65.430,-81.055,-104.980,0.000
1679759072.230,-34.180,-77.148,-104.980,-140.137,0.000
1679759072.233,-30.273,-31.738,-29.785,-31.738,0.000
1679759072.237,-14.648,9.277,45.898,81.055,0.000
1679759072.241,-16.602,13.672,25.391,40.039,0.000
1679759072.245,-33.203,-44.434,-71.777,-103.516,0.000
1679759072.249,-30.762,-87.402,-123.535,-147.949,0.000
1679759072.253,-10.742,-41.016,-49.316,-38.086,0.000
1679759072.257,5.859,35.156,47.363,79.590,0.000
1679759072.261,-11.230,32.227,40.039,48.340,0.000
1679759072.265,-36.621,-51.270,-57.129,-94.238,0.000
1679759072.269,-29.297,-103.027,-123.047,-154.297,0.000
1679759072.273,-8.301,-45.898,-60.059,-49.316,0.000
1679759072.276,-4.883,25.391,39.062,72.266,0.000
1679759072.280,-29.297,19.531,41.016,49.316,0.000
1679759072.284,-47.363,-55.176,-49.805,-78.125,0.000
1679759072.288,-37.109,-104.980,-115.234,-147.949,0.000
1679759072.292,-21.973,-73.242,-68.359,-70.312,0.000
1679759072.296,-7.812,-2.441,25.391,57.617,0.000
1679759072.300,-9.277,28.809,51.270,74.219,0.000
1679759072.304,-36.621,-29.297,-26.367,-54.688,0.000
1679759072.308,-62.500,-99.121,-108.398,-169.434,0.000
1679759072.312,-50.781,-78.125,-79.590,-101.562,0.000
1679759072.316,-17.090,5.859,15.625,50.781,0.000
1679759072.319,-12.695,31.250,48.828,79.590,0.000
1679759072.323,-49.316,-7.812,-26.367,-58.594,0.000
1679759072.327,-66.406,-74.219,-104.492,-166.992,0.000
1679759072.331,-32.227,-70.801,-87.402,-96.680,0.000
1679759072.335,-6.348,-7.324,-1.465,44.434,0.000
1679759072.339,-32.715,28.809,51.270,71.777,0.000
1679759072.343,-68.359,-10.742,-9.277,-44.434,0.000
1679759072.347,-64.941,-86.914,-104.004,-158.691,0.000
1679759072.351,-37.598,-88.379,-97.656,-117.676,0.000
1679759072.355,-20.996,-20.996,-5.371,21.973,0.000
1679759072.359,-18.066,34.180,58.105,92.773,0.000
1679759072.362,-38.086,3.418,12.207,3.906,0.000
1679759072.366,-54.199,-77.148,-84.961,-134.766,0.000
1679759072.370,-41.504,-81.543,-103.516,-134.766,0.000
1679759072.374,-9.766,-22.461,-27.832,6.348,0.000
1679759072.378,0.977,11.230,43.457,97.656,0.000
1679759072.382,-29.297,-14.160,14.648,12.695,0.000
1679759072.386,-47.363,-70.801,-84.473,-128.418,0.000
1679759072.390,-30.273,-108.398,-116.699,-141.113,0.000
1679759072.394,-8.789,-55.176,-35.645,-18.555,0.000
1679759072.398,3.418,20.020,47.363,83.984,0.000
1679759072.402,-18.555,15.137,26.855,22.949,0.000
1679759072.405,-54.199,-54.199,-69.336,-123.047,0.000
1679759072.409,-41.016,-88.379,-110.840,-146.973,0.000
1679759072.413,-5.371,-50.781,-50.293,-22.949,0.000
1679759072.417,14.648,28.320,31.250,93.750,0.000
1679759072.421,-4.883,29.297,26.855,50.781,0.000
1679759072.425,-61.523,-60.547,-63.965,-106.445,0.000
1679759072.429,-71.777,-107.422,-117.188,-175.781,0.000
1679759072.433,-29.297,-63.965,-58.105,-65.430,0.000
1679759072.437,14.648,-3.418,28.320,79.590,0.000
1679759072.441,7.812,24.902,34.668,70.801,0.000
1679759072.444,-33.203,-29.785,-40.527,-68.848,0.000
1679759072.448,-42.480,-95.215,-102.051,-151.855,0.000
1679759072.452,-20.996,-73.730,-67.383,-69.336,0.000
1679759072.456,-1.465,0.977,19.043,67.871,0.000
1679759072.460,0.977,33.691,47.363,84.961,0.000
1679759072.464,-35.645,-15.137,-32.715,-47.852,0.000
1679759072.468,-55.176,-88.379,-116.211,-148.926,0.000
1679759072.472,-28.320,-89.355,-85.938,-80.566,0.000
1679759072.476,1.953,-1.465,10.742,61.035,0.000
1679759072.480,0.977,40.039,49.316,90.332,0.000
1679759072.483,-29.297,-21.484,-19.043,-37.109,0.000
1679759072.487,-49.805,-92.285,-104.492,-161.133,0.000
1679759072.491,-39.062,-83.008,-85.938,-109.375,0.000
1679759072.495,-16.113,-9.277,8.301,36.621,0.000
1679759072.499,-10.742,27.344,57.617,86.426,0.000
1679759072.503,-34.668,-10.254,-6.348,-20.020,0.000
1679759072.507,-43.457,-88.379,-107.422,-144.531,0.000
1679759072.511,-28.809,-89.844,-99.609,-114.746,0.000
1679759072.515,-19.043,-17.578,-10.742,12.695,0.000
1679759072.519,-17.090,20.996,47.852,75.684,0.000
1679759072.523,-35.645,-15.137,9.766,-15.625,0.000
1679759072.526,-58.594,-89.355,-85.938,-149.902,0.000
1679759072.530,-40.039,-103.516,-104.980,-134.277,0.000
1679759072.534,-12.207,-33.691,-22.461,5.371,0.000
1679759072.538,-9.766,16.113,49.805,91.309,0.000
1679759072.542,-30.273,-15.137,10.254,16.602,0.000
1679759072.546,-50.781,-91.797,-86.914,-123.535,0.000
1679759072.550,-38.574,-109.375,-112.305,-132.324,0.000
1679759072.554,4.883,-29.297,-27.344,11.719,0.000
1679759072.558,21.973,45.410,53.223,117.188,0.000
1679759072.562,-20.996,15.625,26.367,33.203,0.000
