TP9,AF7,AF8,TP10
0.028370234456447752,0.015388647758503002,0.12911214219555892,0.10127968451121133
1.810958901066786,1.5503744491915192,0.9772962716889402,5.9969928429723325
4.1252235117903115,2.2760038805482474,0.875568968988143,7.410950656858189
6.82444755523315,1.8564112168679703,-0.37813862667967435,2.7102168754603744
8.780871259881165,0.5585108720784994,-2.1167477668631016,-6.014340911883662
8.320305520006483,-1.012948284492951,-3.3715673792311165,-14.512458140733953
4.291935778628505,-2.354003797026606,-3.642944927955206,-19.14693031959423
-2.7899335968383534,-3.3175528052098042,-3.2210423501558356,-18.889746616196827
-10.39640460248826,-3.9950296815905295,-2.808500139833589,-15.317118769049465
-15.031656902749502,-4.3718515144045496,-2.812661064851756,-10.946588023784928
-14.341715136438316,-4.121490380499716,-2.9537660031315642,-7.371414058270878
-8.870047637842509,-2.7793340491950627,-2.527312256451506,-4.520182790904488
-1.8699869168742937,-0.17138149136459221,-1.0531350146852614,-1.2865775610368453
3.100133079149165,3.285259559111432,1.291420899426309,3.265696937641468
5.052791941842598,6.682588248761862,3.814738621661997,9.117081426392831
6.305976042422958,9.025530695579553,5.824682158093975,15.313777153556368
9.99213619017719,9.593371182191591,6.9811325845139445,20.468570678956247
16.233772667355193,8.035346391502449,7.185169736523364,23.215561580812928
20.604598936579166,4.317300816583463,6.237400662166444,22.43638699291134
16.968577805511423,-1.2032201029557008,3.7746250310064324,17.4690512677701
2.927244252224453,-7.519939015268839,-0.29252767958660447,8.509765897079053
-16.695626315540192,-12.861707239091421,-5.199923427150384,-2.94992217985634
-31.820691738736723,-15.125557086918835,-9.256637629333612,-14.121708075653125
-33.636472273665355,-12.876365774284551,-10.590979864486615,-21.705083345584793
-20.82145868299608,-6.362197662040424,-8.321965136385053,-23.275770062860353
-0.604351942709819,2.2239149505415434,-3.3030946498464524,-18.553672380386853
16.151703672116383,9.607932135182944,2.1987555878842087,-9.721289968340432
22.02079188272643,13.037485427048441,5.774099158004534,-0.44386127246274787
17.051495111824092,11.682210974508056,6.2682189987692185,5.957562903771278
7.334348162099394,6.963623167747357,4.361727430335289,8.1263184696345
-0.07734247037491974,1.6087620870114387,1.9476717593063648,7.071805534645747
-1.806705248903192,-1.9707678308386325,0.7504415578937454,5.092626820743451
0.646364614499234,-2.950169189964154,1.1556955055061136,3.9826813414631363
3.1906796704569342,-2.2302974797325312,2.072551505157751,3.8390693243930785
2.6628636163165367,-1.4289503486727637,1.9169853490898259,3.371608774996623
-0.9637501132590308,-1.5128263890439664,-0.0198286466145325,1.420343344304609
-4.909453023814489,-2.1250634701956437,-2.877739027599231,-1.6666899249791032
-5.957451204762371,-2.1324887816797786,-4.799431086285758,-4.104138227568657
-3.1489041186573132,-0.9151012425395071,-4.381723514941992,-4.253934600863517
1.1405601784218977,0.768623457334735,-1.8675119552504835,-2.340884958614205
2.747202609725055,1.2304639083477091,0.9362332264129499,-0.6069140180400868
-0.9390355501371038,-0.6260358509324037,2.0347642395185774,-1.4870474953753976
-8.296639653151713,-4.010783835428812,0.8392076018903175,-5.2356355647936965
-13.88782771433587,-6.458784979402479,-1.3529688913185123,-9.160340459577565
-12.22407346459828,-5.605464916331981,-2.4400569709206668,-9.418274937653512
-2.2676500404805235,-1.1604382191976204,-1.2913799182518566,-4.115268304761141
11.010539355407964,4.606524583101634,1.2753071933630222,4.8334342143539475
19.663358432834467,8.387415734745884,3.157325182002525,12.751544347682193
18.335879033629862,8.199493156596416,2.728998235892759,15.463373348600351
8.096630447665989,4.7047525737080615,0.22821199193029018,12.22336230492491
-4.441849516402236,0.490779327498341,-2.3840654164650363,6.026080093682886
-11.914040191383888,-1.9816364652156189,-2.9627046249780538,1.1422610315344022
-11.100918162736011,-2.0477802590017817,-0.8549818942903322,-0.08509770648450753
-4.376840570012823,-0.9021736169650537,2.6011160732895204,1.3040254806147584
2.840020326759726,-0.26984010598410874,5.078512816185115,2.135921608883793
6.162797262725645,-0.9583591611885254,4.922787209159346,-0.1334816421217786
4.750596229501352,-2.416495925179213,2.2262234076596346,-5.3639062614516115
0.9593997718359626,-3.410383401717667,-1.3753631189919562,-10.861067351598345
-1.9334825170663303,-3.0608568563161223,-3.8992528402726774,-13.413026107582528
-2.06085322086843,-1.4288301064360815,-4.289949739959744,-11.594970198583571
-0.012171842026693276,0.6086860995044564,-2.9306865445500967,-6.658115815718029
1.7366115828278887,1.9309889213039766,-1.1558515442010977,-1.4582077498735966
0.5986571633213161,1.8153473587964517,-0.19435952019982017,1.6926499527804022
-4.0562767061293545,0.38690620565743694,-0.301309151865581,2.6318729305522557
-9.828561375673994,-1.3179586703983879,-0.6695043511488692,3.2132489770402755
-12.302881959983628,-1.833127447965641,-0.1693812171093968,5.523636022104402
-8.011311528950328,-0.20265420074287738,1.6267598542881077,9.80721862404982
2.525460869526331,3.1509977425575992,3.924341203103368,13.771755890470875
14.216691846713223,6.372939376933151,5.150931729318069,13.987679176406573
20.313583813765963,7.241127352080204,4.103249152979847,8.475781092213976
17.01988082337528,4.746354992084899,0.9446216380752284,-1.4553682355780668
6.287289751519429,-0.018525625389406733,-2.7533816171523644,-11.620004557019879
-5.53320242831018,-4.484646871161533,-5.023181384617672,-17.442448601650167
-12.198958269412305,-6.387924899303568,-4.83330393028613,-16.74919132229738
-11.674891613823341,-5.3447372044825805,-2.736928545538549,-10.868234824616431
-6.726509609983814,-2.972399072457717,-0.3671234171103139,-3.3760921636429355
-1.9752464615514482,-1.4869511570388738,0.7884537107420427,2.38387095129122
-0.2341424141849015,-1.9533650227344568,0.3732514097636771,5.118311140821973
-1.0959002165900564,-3.589562165041745,-0.7925575374544792,5.621023900334752
-2.356137988930265,-4.575857478693437,-1.5198954581915491,5.441120839147272
-2.3715168568262346,-3.570773182179177,-1.1853997387029307,5.523008522374542
-1.112553963751424,-0.6624410051105105,-0.06804830738579623,5.826865414792987
0.5845441256259796,2.890117483678142,1.0691334724318673,5.859984654092597
2.242984690038677,5.7043324863820475,1.6950257356058906,5.308255835742093
3.9909877311830786,7.134768061381319,1.8962970794368428,4.145411564636578
5.762705810533103,7.323912484684093,2.1563129429866312,2.3428686402825742
6.647398889441759,6.637949454964124,2.784374302365725,-0.24329392918598908
5.398671131825344,5.18359009376228,3.5288789933998377,-3.513078699643802
1.7897186200243291,2.885126637162502,3.724862535694318,-6.656554010303484
-2.548353952057405,-0.047535125802895734,2.852736217177154,-8.245006566211218
-4.874323250242241,-2.857725905021566,1.0172126545170386,-7.108241395551334
-3.3514910372563036,-4.58832385583698,-1.0897843753873349,-3.423788206971948
1.2380140661219547,-4.8067256047671,-2.72659228830938,0.9611163242800677
5.639302645422921,-4.025900764359293,-3.6558946784308484,3.4958253550718514
6.327961118067611,-3.3285842164838324,-4.186533594177273,2.6664825690188123
2.2451946815509296,-3.417405628772877,-4.644759249810095,-0.7720241649269038
-4.144261421715713,-3.91620339418849,-4.801382679393832,-4.138561913847273
-8.579859250059123,-3.631212776615038,-3.9023088460133466,-4.660619995333464
-8.382563247353058,-1.659621387434719,-1.411299483386718,-1.502955996666772
-4.737508800962896,1.5933572759725325,2.1727898443820135,3.570140212803547
-1.7380141932009239,4.464471410974197,5.278760570436262,7.456249999609189
-2.69629824953387,5.241662199540562,6.239979844232535,7.940717149538329
-6.801563801871539,3.5600995718522865,4.563319589457971,5.14923294719486
-9.280157877433414,0.7544535654131946,1.3816783983156744,1.135902943582828
-5.360317562768203,-1.2054463020139716,-1.3884014626774848,-1.933737776107948
5.129915647405777,-1.3158493754258662,-2.5218326797902,-3.4124587053499478
16.627397020388667,-0.2859053757633283,-2.3234012397377795,-4.27537525836301
21.539999784078347,0.2314318498098715,-2.0928337516544664,-5.748256860623686
16.024746336754266,-0.7562056424540553,-2.7114433302728838,-7.789518972146893
3.1459465814872734,-2.5721272360042713,-3.65879579077434,-8.81818588012936
-9.201927118408424,-3.3704592026393962,-3.400615726515671,-6.934672083661002
-13.926724185849503,-1.73418360049463,-0.8525697120622897,-1.5883860580912603
-9.459934166386892,1.992441180171368,3.371542599007407,5.684975651028615
-0.11554118785988739,5.769853282019407,7.07903507998485,12.01782079920825
7.658881408263749,7.2869814329612455,7.984935400743528,14.852679380646425
9.80086378833104,5.613325561853294,5.4094359488545445,13.317394418217331
6.558490812383624,1.8233272160677716,0.8473559036281859,8.536819976781844
1.0511457438060177,-1.811836890300309,-3.0252772141608846,2.873548722878768
-3.6375428392821174,-3.396454530861144,-4.1401528983869404,-1.342171337283485
-6.330842106852321,-2.6026533818290964,-2.3156318310569244,-2.9334054770988978
-7.55976853428442,-0.7160208511958006,0.8071230322430594,-2.3745757299028702
-8.138700554050804,0.3886521650883098,2.9850542974927885,-1.447551757359631
-8.073720529149353,-0.4242847710188688,2.808346852636488,-2.1525490797155293
-6.667823341427396,-2.8103040740182017,0.40757550091017275,-5.377496591577698
-3.489284184039414,-5.23786642838303,-2.875331307720259,-10.123450294668265
0.8115148822533844,-6.065906209418445,-5.439620104794464,-13.909571287643557
4.629332024859949,-4.646842554944356,-6.288994948473505,-14.257445099571845
6.44125638600641,-1.7022672693940737,-5.332365594347326,-10.332881547334049
5.929594075395127,1.2533088714662743,-3.14112843006535,-3.5912608612355275
4.212672316369754,2.9773001394769616,-0.5140366608154082,3.0814029525360445
2.8851687623994984,3.2530089233413686,1.8312835610880853,7.15887028201454
2.625260299361074,2.8135605026019013,3.381012567157625,7.947633100175918
2.6421161296132865,2.586163916651263,3.8869306387905724,6.747768989383608
1.5943058550493527,2.915759731965706,3.438494744771531,5.676395634775432
-0.7801726168835715,3.3724862925598242,2.4517198409577863,6.064862492152998
-2.9374663857424492,3.217945265353052,1.4575504238754462,7.573500873351824
-2.663156353706488,2.0763663145372533,0.7636510562528716,8.584660010888044
0.719625098776241,0.25327364265524943,0.2620270834852266,7.502762641705184
5.086370186436948,-1.5077520411972023,-0.4031952636855875,3.979032688927499
6.628762124132821,-2.57610821400756,-1.4106973658883617,-0.8049409389722022
2.766102987506493,-2.8314422569378475,-2.45677564091743,-4.933248895261994
-5.429439133001416,-2.6132393804417964,-2.8780767744799536,-6.98019065593783
-13.381694053044436,-2.30261755430024,-2.1323313474755032,-6.749300585467164
-15.850685717374706,-1.9083443496842967,-0.2379572318338226,-5.062458950528232
-10.470739339475296,-1.0324443721972443,2.1872837011750756,-2.918924403917022
0.5575258820497526,0.7035072413218082,4.286937028969032,-0.8123827254596739
11.789053373641593,3.083780145852563,5.398917436987513,1.2357585402320006
17.865998938470163,5.082119074670875,5.243276813056694,3.076383201254966
16.520322185298692,5.311264199443699,3.837900888062105,3.9660988693472254
9.321296580761713,2.9486293400381007,1.3680793866479446,2.8347404716787112
0.00635385528645665,-1.4827547606799776,-1.793549101426022,-0.7833052629781655
-8.022523407369096,-6.099054534163582,-4.9674340939511765,-5.893182959894348
-13.082897071317122,-8.549171507134355,-7.187242986808219,-10.089159331714963
-14.793526335835264,-7.33879259029784,-7.528344497500831,-10.73970904498965
-12.940734299947392,-2.7901530459623265,-5.6384056920448025,-6.670998661372834
-7.298264591164352,2.964231734421512,-2.122774050963492,0.7852885846341535
1.1961164416802268,7.008651380641289,1.5599109325567864,8.236534321549751
9.402127419992345,7.184492225801748,3.761365577105808,12.080315949057777
12.995809692718826,3.335829381660673,3.5513201573797457,10.660573866667912
9.582550743800367,-2.460746006420602,1.314674796726999,5.274193721438477
1.3842567840016071,-6.930813839127753,-1.4092222972202257,-0.746552931430849
-5.482990113776975,-7.4409847718122615,-2.8388291096255704,-4.299665723702464
-5.448841575268554,-3.592397667680438,-2.070423354674956,-4.500615158573302
1.7028611423844704,2.4927638583061946,0.35827362647516875,-2.906283060468057
10.036624763816057,7.494895632148439,2.889400127564755,-1.8460799326291892
11.975595226635035,9.005584368274146,4.067788125235343,-2.274821552212001
4.676791915378266,6.946570539092527,3.5303315410894283,-2.984000613205767
-7.196494779109122,3.2775830652156928,2.1140422314519394,-1.8613910512305365
-14.943601632996394,0.28291973529993936,1.03834789843092,1.90788628575799
-12.81351492711109,-1.145214280333435,0.8719833687459818,6.686437703137171
-2.6736955283277104,-1.8444824797293937,1.1542256995598767,9.400732580645613
7.521948058658236,-3.1692644575349926,0.9548552274109102,7.956912508071583
10.08643506230337,-5.40075270026735,-0.16622960030778375,3.0194199877170553
3.483187045802468,-7.250924113634656,-1.6757848724970381,-2.384657444205742
-6.849550002875696,-6.92079380301521,-2.4947077516057834,-5.136223187274883
-12.947296494059627,-3.770371333612425,-1.9531590360705964,-4.305604210447267
-10.176069994511694,0.8873571944572745,-0.42556499755877447,-1.6266784234393488
-0.09567134002275528,4.5874338069764296,0.9167041495658681,0.10063850748595808
11.201917657055018,5.462600367429374,1.032880849164131,-0.7291066399745294
17.37520034303922,3.5307287502477354,-0.1537220727848133,-3.4132643288393822
15.510047490779012,0.5480600262271501,-1.6997141442151509,-5.707185581761283
7.14844967943861,-1.3591236772351734,-2.401224656581687,-5.676897189615938
-3.250971281766517,-1.166102923496819,-1.7563037062172406,-3.1280383214890533
-10.975204978872423,0.5417339968439665,-0.3711869923058888,0.3770489945637397
-13.293603184293376,2.245634273036472,0.5061625994668539,2.739834254902749
-10.365082319336071,2.691037173919629,-0.02825859743263106,2.771946018702532
-4.670240157626032,1.67507415886827,-1.7772920432124635,0.8684663337952446
0.5659595587519336,-0.05545136489156787,-3.4974844836449335,-1.415677545319326
3.1027462034850535,-1.5458694905912036,-3.750909132713281,-2.456702640993845
2.670449985031245,-2.3327898713467006,-1.9430947820494724,-1.5462072359923362
0.7487330993017538,-2.5643953064470093,1.213066527896621,0.8190190681510595
-0.6242933776154387,-2.5548577199405162,4.149331371682096,3.4192660247616504
-0.21462207110728423,-2.2700589350881333,5.476340479722248,5.156414801759203
1.7231539125143482,-1.2695916706117267,4.8497291925393675,5.67045242035635
3.8141637601176055,0.8060007568335598,3.073806857058424,5.347703576167014
4.658254467569453,3.6311357076579553,1.4336764066909922,4.785562344914377
3.8338755875045196,6.050710871061606,0.7898958067067169,4.16007286114882
2.0596634365001414,6.621029038973566,1.0732671239882658,3.0069580074968196
0.41938252559775335,4.51243522778494,1.4643736175044215,0.6274261175804446
-0.634029057999637,0.1548117143460246,1.0534714838014039,-3.141615915616748
-1.528662183537931,-4.8225482126425145,-0.4974337590481909,-7.382625730094362
-2.7901591853017833,-8.34204356351875,-2.702454855194657,-10.300589081192587
-4.036014038406388,-8.89893810362665,-4.530558383383291,-10.211270438242197
-3.965326001759815,-6.307737447991037,-5.019653137771477,-6.726631308600989
-1.6535712803399383,-1.787339653692939,-3.8466534469984683,-1.2526115283903108
2.0281694020241923,2.674913770260336,-1.5062572178544227,3.720617069967353
4.539031276889842,5.3675361583318555,1.0046226731225378,6.1723883445301135
3.6952696511192875,5.725819843568184,2.770885363822187,5.834048815925038
-0.08441989107963822,4.477768001118514,3.399128864081959,4.162739052797947
-3.643182684127431,2.9402728934006404,3.0259604724171036,2.96442528551775
-3.65497919166375,1.9588247462081554,1.9721121967506643,2.7857079728803904
0.19121986515128583,1.3167604972225324,0.4166669109630381,2.4833463274675918
4.452915617624025,0.12176815180039578,-1.5865086492409275,0.4236484545151584
4.718059506800707,-2.1311966573724783,-3.7957107445965126,-3.6910550398476647
-0.3120891352961121,-4.7571034429352315,-5.54987157698909,-8.029713459748498
-7.1527621291241,-6.128110537053812,-5.955993407587603,-9.727225589257001
-10.0660111589298,-4.881583408285868,-4.438950827603779,-7.087057547194613
-5.847322297568669,-1.1288531314597,-1.225658406656811,-1.086547285383271
3.2174077897936746,3.367780860409523,2.6492898708266255,5.103501027213145
10.85128843264765,6.258439543254341,5.840774572716301,8.245242625387789
11.581278135907345,6.107725524905228,7.3284469866285145,7.1433048159852754
4.908025906458272,3.2119059901103664,6.786902104903264,3.173086240387801
-4.450978575611232,-0.7827088464910974,4.579320203339075,-0.9802792710681869
-10.243197873848196,-4.016239121114745,1.5467241062817962,-3.198003858087351
-9.218648031803669,-5.391034076104297,-1.231955814658153,-2.9774210873471767
-3.074398997055401,-4.8051092092741765,-2.7252897818245647,-1.129970394525436
3.3410721628781417,-2.7769564054792424,-2.364428201916947,1.241408702304156
5.840336331494026,-0.004735429364560264,-0.46667107546517517,3.459900397112869
3.7740621669460674,2.7818675634198002,1.7006412394649437,5.21640844445995
0.050452055133019404,4.784277800627941,2.4995275141920423,6.1050982161593375
-1.4160410396821834,5.2437849067766225,0.9459985727750874,5.454702743754487
1.195763004885822,3.8133830555618706,-2.5014388705315094,2.7631358801335737
6.199908136866701,0.9270935882222129,-6.051405106178533,-1.6257300604043323
9.623512194208725,-2.23005241223356,-7.63576604997079,-6.278469107378251
8.13993545623623,-4.277569937713271,-6.222162984496912,-9.238440027510972
1.5824214367355836,-4.409698981276268,-2.4586055487632525,-9.133623586542477
-6.797027354451401,-2.8490395461834046,1.78798601750852,-6.086107416863363
-12.509128835507848,-0.6461375556873374,4.623779848785498,-1.7513815340535515
-12.821981780602668,1.0440453261035756,5.185930779217566,1.6144315913594387
-8.369275077276699,1.6914478434142528,3.8918987792046176,2.4893312656128836
-2.3058690214009103,1.6056941412884065,1.8668369359395294,0.9594908613041254
2.1436566410573494,1.5103457947689007,0.1133255947519427,-1.4250568797830747
3.7651339984012075,1.843366974825161,-0.9475260302297516,-2.684494521808389
3.5820984827352453,2.351398473062122,-1.3619330666195368,-1.6345027840601616
3.3439705731283778,2.291785460204313,-1.2619233031958594,1.4564043588475672
3.7278670684315816,1.0623896232733903,-0.6729107874332741,5.100739974835017
3.7853395791116378,-1.2431789920025231,0.3304515301677969,7.475939830089063
2.0455712349341284,-3.763409714302468,1.384437596773027,7.406065682644069
-1.706882902291368,-5.304639774187487,1.8930047383468336,4.937475698398935
-5.5837082965548195,-4.978826052716688,1.4437152572504168,1.2642372222455376
-6.63794056240345,-2.680098152822082,0.21487033058817168,-1.9411944687680862
-3.238808876171856,0.8093434950566574,-1.070377691325836,-3.4621020773613806
3.1033293352176967,4.115587054564009,-1.6816227989949326,-3.215506611217582
8.268207740964389,5.874140026389465,-1.4450983788440295,-2.203631283071301
8.478991139689787,5.402192998680732,-0.7981511048153547,-1.685667546202848
3.52572099401975,3.0781935775219433,-0.2816890180994882,-2.123203473004697
-2.6023662176656868,0.11536867263641377,0.009120804291485738,-2.7532062344485504
-4.698495358003216,-2.2228062302715585,0.4340325313112713,-2.2422795893952925
-0.7944201206156783,-3.437129142636299,1.2492245326103204,0.029575512062553756
5.74156285816224,-3.967250965018666,2.0802143850523165,3.1555399336177468
8.64956730968431,-4.522476130435844,2.061653611593969,5.178215748462915
4.054198983177158,-5.132008504686043,0.6348943454802387,4.592141799837576
-5.872909834882091,-4.836037501616777,-1.7175093782919975,1.6472650856327211
-14.208260165422452,-2.449225831530596,-3.5728780759654435,-1.7038974241833498
-14.675321926409154,2.162461857387442,-3.562041833118301,-3.2599053346833027
-6.6809106222989625,7.4407698714779285,-1.4763532359307916,-2.26558639310163
4.217134861226485,10.850254130363165,1.45880652528732,0.035453802547619824
10.693475730192544,10.526839653860106,3.414943463778304,1.4204559805805412
9.120183811355798,6.586244967825538,3.2490774583278204,0.42095495523809145
1.719173729260112,1.0459305015326505,1.249876713032436,-2.6032978008911227
-5.8691781312292965,-3.559627501433259,-1.1769851094152406,-5.793323335836308
-9.036467309215611,-5.755363783584765,-2.5518918093238105,-7.122263980224426
-6.937354748589394,-5.721536454822098,-2.2684102425572608,-5.6576233358098476
-1.8773938550531464,-4.643219175199295,-0.8207494569957843,-1.937799249821449
3.2323559358396654,-3.5632298824812385,0.6974505365142897,2.5559970618310106
6.788369706725548,-2.7420036455494525,1.3495468359097547,6.253803736559483
8.537584453405984,-1.9038299568985624,0.8563372740998085,8.102547504933755
8.558649085172744,-0.9080849641944296,-0.3714705570581843,7.756108763401549
6.70327211509102,-0.08947875150900787,-1.5591130093124752,5.519336548631208
3.046878830491888,0.055003093563018475,-2.004437500616533,2.223820262235751
-1.4233602982888574,-0.5260493936286849,-1.4119462649475722,-0.973437999272705
-4.923188192792319,-1.183346621463292,-0.005514574749189425,-2.961501590788065
-5.9376570258270975,-0.981779621791621,1.6068411932844155,-3.1645002459839877
-4.371199829574175,0.5184680757996022,2.749347088705947,-1.8761181721789761
-1.75286982036626,2.7776799246871096,3.019181686839041,-0.13979557240358376
-0.22626413685259925,4.544683834456929,2.463201831874611,0.8576044162781732
-1.0167820457371821,4.729326088223992,1.4845459076584142,0.5277701374480842
-3.483333403867329,3.224403206755015,0.5450229112255202,-0.7620448975964234
-5.474392590246356,1.0288738850389747,-0.12338444491344633,-2.0011535437713457
-4.813936866932699,-0.44654688017493205,-0.5862179101346207,-2.301486181445163
-0.9318060526169917,-0.37544978473897306,-1.01585757658408,-1.538018068535025
4.519639168521239,0.9303812591332995,-1.428155353012347,-0.37756406193466363
8.575038310469926,2.2926420021259752,-1.6112516479336458,0.2952934111595197
8.835925531175828,2.507713602331368,-1.346700676264517,0.06602055085093934
5.049305133650984,1.1137593784647142,-0.7293473573003765,-0.7520450086489704
-0.6871303050897836,-1.4123108613575472,-0.24102793015291402,-1.4349816418009693
-5.202694269937494,-4.036153859048208,-0.41347548700937264,-1.411550568830896
-6.149226925566002,-5.755296323725482,-1.3149236074290123,-0.6085316992857075
-3.3432077219391214,-6.021789840399557,-2.3418293134921746,0.6170935715603998
1.1819627722018875,-4.868822076004962,-2.5980187759782263,1.789635683009467
4.401340060287486,-2.8061109596999625,-1.6134678170455934,2.574808540550155
4.149293215231653,-0.5671365696117333,0.2204748211569062,2.845881267850296
0.5839188602351403,1.2330408287523098,1.9329608151729034,2.614386803490186
-3.7110248109328117,2.3951049414447745,2.762073135105852,1.9352662311660898
-5.337863471291569,3.164782439687097,2.735179244747517,0.831817046467131
-2.607274058538615,3.8855809966820583,2.4862932261756807,-0.7397166977415163
2.8106777692449922,4.50337286754535,2.481435229785164,-2.8202458229612275
6.666833509503037,4.399777460873461,2.4310435603161715,-5.225228132367893
5.1997573125648575,2.84598480871473,1.533790248171252,-7.292578589497103
-1.6881246145727773,-0.1974032801111316,-0.6060251179935836,-7.900065226529323
-9.8186758157005,-3.647774509217096,-3.262177778924639,-5.966941486135926
-13.525880051576783,-5.764376214026602,-4.855090520060641,-1.2581051924622326
-9.839426663948935,-5.2929152938833175,-4.116712412813144,5.084617492924553
-0.7204894417769778,-2.415886481862127,-1.1979558682842515,10.825428136705357
8.478490847308768,1.294932701069462,2.2719344140158335,13.723186065194124
13.007161845290963,3.92765246508883,4.300951417598214,12.762468854613855
11.84761848287146,4.452311200830128,3.9461987626397987,8.678569296240198
7.601575477741678,3.1734814818592123,1.8898153291896007,3.4136628924958097
3.684024842264446,1.1720326073475222,-0.24066213181943827,-1.0828332320848102
1.5645630423764676,-0.6436819228415319,-1.188158787871638,-3.8622161957338634
0.34532917408524116,-2.0148750945227465,-0.9283108030613163,-5.1750055205032455
-1.460959478214526,-3.0293615194986403,-0.44381711689238795,-5.8923944916544135
-4.048049958782541,-3.514631494307412,-0.7110697650016344,-6.703153144963246
-6.160614865094159,-2.8713317213978002,-1.80680979333661,-7.665836678277218
-6.54711628836559,-0.616703130044652,-2.862092972119628,-8.315325636002514
-5.332437655545567,2.8395733883109098,-2.843518801203799,-8.103528185870612
-3.8864817231934494,5.981063212172143,-1.4739612463087566,-6.796046224842791
-3.38920644798159,6.9138889635470395,0.46857977172541176,-4.579285104249716
-3.575504856080565,4.626421512040541,1.7089350834120496,-1.8856914141153613
-2.919579015870494,-0.14614196463972212,1.4443194133788442,0.8695994586223703
-0.1444411965152334,-5.173051398116577,-0.030319449124119432,3.426579641375822
4.265138003828029,-8.025824123024877,-1.522182129804067,5.6151735472830175
7.912955280473092,-7.565037293114102,-1.8123131324995958,7.204612923432238
8.010150029676185,-4.575224737971318,-0.5373469100484023,7.881222418781885
3.558578155321165,-1.0969408013386506,1.5781071148278132,7.454929663820702
-3.419860536386094,1.0466367062836963,3.290701221027549,6.137903478750555
-8.701531662427763,1.4388920655325828,3.7465666234799944,4.580777637953996
-8.438156977606393,1.1186639242408751,3.024976501993038,3.500443675854498
-1.8614005146950976,1.5226540523411418,1.9289904070735928,3.1152810931283685
7.810191305674944,3.1997797205493956,1.2412056391909982,2.8712189169107782
15.06850741624889,5.3083176628240265,1.0712319773614185,1.7898207370261003
15.413590393378271,6.249735281696286,0.8188677789092808,-0.7340757366353908
8.104866861669276,4.907064801031563,-0.23303634633368248,-4.286931729486215
-3.3775714427710626,1.5397374463324955,-2.1869135432620843,-7.4992802853746845
-13.328169732150874,-2.2976738259711365,-4.266042641956083,-8.855298009314993
-16.932641009832988,-4.719441907314647,-5.271622288646731,-7.709162456969898
-12.726005004104778,-4.682571255531887,-4.459000231569794,-4.783762065089714
-3.2133674290992498,-2.610014889908021,-2.1747469662165035,-1.7684102226636207
6.532992325357656,-0.07897730929662054,0.28166747444982415,-0.243111941900958
11.608985520981356,1.231610843021064,1.5529120107251129,-0.6237204720631025
10.010698368622428,0.6685328605436437,1.2446774991030056,-1.8502595610255625
3.7852932450436065,-0.9616934551691101,0.25545125493568105,-2.098360427685757
-2.3730150222886106,-2.022026116308959,0.06412953947350965,-0.11779357548033367
-4.473317684244755,-1.3612818296185427,1.4582851443802853,3.695332921370488
-2.2455085343998893,0.6603003882036409,3.726605491743577,7.3209829268044775
0.6605113883628541,2.325297570657109,5.065030700284043,8.363169437123986
-0.18543793541195533,1.912173136656924,3.982065645806718,5.737765183776016
-5.848254437026205,-0.7699052339072654,0.6024153758572502,0.5748219472841247
-12.43866378402717,-3.974012342431014,-3.2438914891424036,-4.410641903370495
-13.807639814613918,-5.213012592082926,-5.304463533968485,-6.6953483846145465
-6.627604111124528,-3.1921366153729864,-4.564797185292527,-5.576204820050909
6.314997908609874,1.0914466223351247,-1.9423940409159646,-2.4398261320447387
17.550828081649716,5.025514785166767,0.5377221011005875,0.4730196474988364
20.164811896104567,6.3150318643018535,1.3714919362157734,1.7711280237354945
12.75391290987254,4.605954143367251,0.6458263453628654,1.7330918115767462
0.27024635489343335,1.5281900565846345,-0.28762057842544136,1.6944035266851936
-9.703364840521617,-0.7597840774383121,-0.15514365433183383,2.659663285037945
-12.149166489053774,-1.2258253419428775,1.0971155982026204,4.376794645516009
-7.3840767195832235,-0.47698753986443787,2.3319875850384,5.610743749434238
0.1859626868751364,0.12508083994580355,2.3248472808575116,5.2744472784339
5.728415651815682,-0.192251921156986,0.9204279065754344,3.372468554128632
7.023276927656041,-1.020700732847807,-0.7794510112111329,0.9519865315151169
4.944635622723848,-1.3520106104543692,-1.3457560268679365,-0.8389136535918622
1.755873333114965,-0.684712191124495,-0.25511574584203706,-1.724859564253517
-0.9096573869839609,0.39793064708293524,1.6293132287865306,-2.456557364391586
-2.776247487566479,0.6963455355562622,2.734544583557761,-4.016854866502266
-4.2028768088800765,-0.5199970960148418,2.0479912890500627,-6.5642569200792105
-5.12001665562484,-2.770979441028053,-0.06881677436617886,-9.031516790610272
-4.839519253526299,-4.624000869508387,-2.189619507496638,-9.770293103044988
-2.932948056441363,-4.75443406460189,-2.9929413714222477,-7.773078651373831
-0.18890154147022437,-2.931148331102517,-2.3163897001667357,-3.5058700662270064
1.5781892346422408,-0.11242107813841964,-1.2165885777916656,1.3307008726663838
1.0426189980899427,2.4011483477476037,-0.9933778205565417,4.93459206344272
-1.0972197927344767,3.9880450287047386,-2.0218270035674237,6.519983292461125
-2.283031678638534,4.975096680183976,-3.405873385262594,6.5377070555678705
-0.31870254936506576,5.917453900201725,-3.753007196624504,5.9090335516183
4.123783664059982,6.609824143008445,-2.378878672426885,5.054714323443635
7.291254668452673,5.887849023027936,0.13220822035400565,3.6553461905842513
5.286339051396317,2.6055390378677705,2.495761324620603,1.3478161800586048
-2.0168725532260656,-2.9708965548722093,3.868721876154789,-1.387650537422635
-9.738253151759663,-8.67303875199478,4.47697292324577,-3.1482903706316385
-11.228125580629493,-11.52857576771108,5.132429999329884,-2.6002256729218645
-3.607533092913691,-9.76981894437859,6.118174722959023,0.26369524964823987
9.059102145877793,-4.183107400956809,6.570575641355673,3.781250092041527
18.101324154052637,2.340157849228856,5.074332019506359,5.650043923025976
16.672983028079287,6.750459171864424,1.054526910989994,4.5780754125633
5.193518712239967,7.7675777422734065,-4.270869168534756,1.213945697560277
-8.717026022598251,6.328928489939013,-8.34959794392576,-2.4065022962396143
-15.884991839985707,4.361417510238897,-8.976405916212366,-4.419881566342281
-12.350098379202665,3.0347945023634737,-5.941437085430974,-4.41669543745236
-1.9824033964824235,1.9637356232861969,-1.3288812689657696,-3.4646051460157232
6.862534809342577,-0.09064151199905109,1.8454555773345407,-2.9882084560701374
7.773705621837924,-3.749989690494381,1.7066063537984926,-3.5273697004019597
0.80364784500986,-8.076628100316194,-1.1854411046881297,-4.383173985099732
-8.082627610293558,-10.938415127090732,-4.242403557433644,-4.337451777435631
-11.811624297281842,-10.38928166089906,-4.665686972117813,-2.757418643492348
-7.475952241165143,-6.0340021065422,-1.410878905549094,-0.16612472037788154
1.7124614450626228,0.5777470575071747,4.048243272158207,2.1395071293048145
9.005525384489383,6.767232376433988,8.670692013717234,3.0830136512090363
9.252873419479185,10.198991400855043,9.856327383179174,2.6368926504251142
2.85921287671674,10.081457947590597,7.125899305456366,1.8522083650583612
-4.380759243057417,7.3800772075753,2.3107473354037578,2.037532073836319
-5.648928762011337,3.9657247217732037,-1.8551641960369247,3.657597886305033
1.3997537515700675,1.308902302462863,-3.680703788345354,5.776972394959333
12.24179999405332,-0.3630081988994055,-3.531400147103438,6.555579512369207
18.397630810277025,-1.8512328708629622,-3.1607267228490548,4.5615195224702365
13.804651515143147,-3.913703008926364,-3.951234723994794,-0.005199153083015054
-0.19573995909829836,-6.2394422325723395,-5.561027529552444,-5.14236839089527
-15.367541422022684,-7.3950606937917405,-6.1524733153236175,-8.187540245631027
-22.452757746111118,-5.904838142844489,-4.049324803155128,-7.532613651139634
-17.881574113731176,-1.6441433240756218,0.5762581245926098,-3.674632184465797
-6.03225037532299,3.6398400630319347,5.466862327204738,1.171109061618446
4.590154272261461,7.239489317826562,7.787431045843944,4.577015129477761
7.904648794353575,7.237491327675837,6.211752321680531,5.375365439640588
4.174571688884131,3.7849594298625093,1.9281018222506614,4.054577841088605
-1.4706669698022579,-1.0648126227471335,-2.217311019660895,1.9664220109685397
-3.9723624634250476,-4.806682923105386,-3.7343361767246814,0.1572928076506567
-2.1992684095966837,-6.076544490017316,-2.104594290867969,-1.2077463483668318
1.24269819779371,-5.2160900201916975,1.129607967353774,-2.5161687636969305
3.2969179450958013,-3.540464501632767,3.6792567217728767,-3.9698899522366524
3.3581995925661414,-2.0785523970996245,4.096693518144233,-5.183333493004826
3.2372421965708287,-0.8739653610925814,2.494929400290795,-5.43307898165029
4.719272707490431,0.6679056783403042,0.08803154477403523,-4.252772965384681
7.410289143147794,2.8486680206487764,-1.8578724262854027,-1.8227848248390552
8.966681400748996,5.095459040867155,-2.7947222989797584,1.1291648423237721
7.347110249039085,6.2907745759121605,-2.9341115925988643,3.7558026191418694
2.851009834566544,5.718291862234023,-2.7577093106825057,5.473236403167537
-1.9787214272339848,3.7477209227038273,-2.531209405224612,6.062165254700977
-4.5014526543199125,1.5911132295910662,-2.1996299373664483,5.538353151548922
-4.247552504093703,0.29658791509811067,-1.6237632177206707,4.015047692277522
-3.2621746475982496,-0.1263923980996379,-0.8295386432564288,1.7224433588527723
-4.123745917946703,-0.6159778941731225,-0.004604161357689794,-0.857585642492522
-7.30198778397969,-2.0277189109319083,0.7142898604356732,-2.9593177135149094
-10.288618274031524,-4.111074578442381,1.3799729715830813,-3.8034582152426264
-9.61062259998813,-5.530283236622061,2.091359202836078,-3.119418727970842
-4.287774597962056,-5.041633968822495,2.689042414603887,-1.5474507599212879
2.3729650034756506,-2.786917731177068,2.6618960608087745,-0.45995251521598984
4.804348791657068,-0.40554459073735477,1.5072685107861532,-1.0898209201394207
-0.03732888431668709,0.32160847066915277,-0.6662482486525051,-3.470866551061303
-9.080549288002688,-0.8436419599084405,-2.860649629137963,-6.057997648840871
-14.384648667623823,-2.1961458952784367,-3.6508766751639246,-6.551326274861291
-9.052700548804864,-1.5210371691889737,-2.1837228209113633,-3.5204088953988557
6.669049751012393,1.798962748525764,1.0495262889963162,2.3528269486105104
24.40544396560385,5.921397866564947,4.367869610953463,8.467709111936061
33.19908588675875,7.8444337812372895,5.970228138845664,11.927055230778837
27.494049515299675,5.8590470889546635,5.131644082166084,11.413454520121448
11.170736459899265,1.048517738871387,2.59904109307311,7.892448929267252
-5.610896876197508,-3.48679974559148,-0.0907533728570943,3.6474399361323084
-14.056235905653756,-5.026411839624361,-1.7703502086530358,0.49661706951484463
-12.605863653322835,-3.21591601148657,-2.338076280777396,-1.3491523213464944
-6.622260291759578,-0.04853612470460073,-2.5168592138736914,-2.95743066011465
-2.9042505862382932,1.9593694970603979,-3.0169902413084886,-5.322432590784809
-4.127229364383366,1.7163069641956865,-3.878869561189347,-8.242656866684861
-7.679675782539663,0.047463450560153594,-4.499950676424234,-10.366568690632127
-9.07225481971155,-1.4079718970727217,-4.203076177391408,-10.27890200255213
-6.274635461927434,-1.6747986340808385,-2.7938949249781224,-7.65238010890119
-1.1921068739283442,-0.9880810231571863,-0.6855445241068155,-3.537625053242688
2.43227569423349,-0.17299372241848332,1.3911601448224504,0.3503824751755923
2.2997131639135424,0.2925136708623371,2.77796774963036,2.711046626178239
-0.8598792905885316,0.5795782933483287,3.12475921006784,3.304934693500283
-4.292771449670734,1.0324671706006645,2.4521511421022484,2.835789303026874
-5.4662621094280155,1.5790468450747301,1.1400501225031299,2.3309865486501575
-3.621289036572548,1.7123691064732258,-0.14189285404623725,2.530858043405201
0.21636557541912205,1.0448687906865315,-0.6478038708257405,3.612379809696561
4.253317653420306,-0.18913663267095387,0.0710954232710371,5.23826868529332
6.990308379044615,-1.2477307869306316,1.8207869105708514,6.755939792681831
7.775790716012591,-1.5333395649873647,3.7384394029361605,7.437955768657349
6.878516096666761,-1.1438449691344375,4.715479834896987,6.769747103036768
5.274374829068357,-0.7656823209249259,4.058957330216446,4.7544068159935335
4.190889098524374,-0.9890698298785123,1.947263090597738,2.044321705364571
4.4089946488877665,-1.6977163373859105,-0.6657956161366387,-0.33694497307743554
5.580407981621491,-2.1355142811886316,-2.6589813295952265,-1.6670608110396075
6.1109708162821486,-1.6160917397742245,-3.440076216093274,-2.159335016428518
4.025835655166908,-0.2163713263615852,-3.2319241494313484,-2.9575341919374725
-1.471083954813267,1.2154020707995696,-2.7579811631444517,-5.272782735421881
-8.831493970411971,1.7751002331039123,-2.5993423850739554,-9.187425694343721
-14.560186594293773,1.296465019371859,-2.743363136162466,-13.11320859738106
-15.311178205571613,0.4981470910874646,-2.6711038483502616,-14.541160138475746
-10.311545563224502,0.3616705337787196,-1.876120607875225,-11.713407890282532
-2.1322662740783027,1.318169618831392,-0.35536133870306097,-5.005509861297428
5.038661201203296,2.946295533799819,1.3356878440327316,3.0835771200202586
8.330613349715163,4.346868083983373,2.475562846488715,9.392156780498345
7.853978222600821,4.739832730923444,2.6564147835323855,11.946273690546747
5.6963801302592785,3.751760210770872,1.9708093524323596,10.890029180641083
3.379961211688612,1.3387908537994078,0.8397459703172825,7.9750513501095615
0.4422956080244866,-2.274414475682201,-0.2721892377217939,5.187684590847173
-4.325335747219338,-6.3864025267295155,-0.9970154642785118,3.5864552296698324
-10.281651799892797,-9.62147374496719,-1.0510291823763864,3.0283375498968566
-13.9668860900539,-10.28347666712817,-0.260729275801812,2.6789303384561425
-11.381279516359728,-7.3605603136274,1.266301774399098,1.7318950017448196
-1.8404383703448985,-1.5063405300867159,2.9800815930940985,-0.13809341550235676
10.240128705420728,4.943895547065435,4.006283452641099,-2.6916552641788587
17.792172087551645,9.200701273374495,3.606245997654002,-5.278259153409592
16.169387101848752,9.695278603720428,1.6917704026863793,-7.1044867100730285
6.704076011906274,6.929492177731126,-1.0237968702879003,-7.557493234217761
-4.265396616368065,2.8624949253282437,-3.4050805098649737,-6.482168079951489
-10.081854289334796,-0.5959457297658637,-4.548965876846302,-4.245308896442684
-8.314539067331987,-2.724582828187621,-4.24666564603516,-1.508954926856928
-1.7001100607657325,-3.936762863612868,-2.965493084710274,1.1307813744606778
4.733345268467078,-4.821475175023972,-1.4461442536145246,3.341808247745596
7.534258600878548,-5.311381150910764,-0.2550192409634339,4.943427843517035
6.5893083196342115,-4.746685889708368,0.43290479197884696,5.666608703788118
3.9794088846061797,-2.6719311972845454,0.7835057499878646,5.137073920855239
1.610802072367685,0.47774746379546845,1.1134611437290725,3.2162367659501965
-0.15185234733843186,3.478697532038505,1.6832071100469375,0.417357735087526
-2.038252884840495,5.118181081565264,2.524031065755583,-2.080491597563331
-4.5217309756524555,4.987846215305463,3.3436279511666767,-3.024660745660998
-6.999575244154012,3.633380823262472,3.5949365895280927,-1.9522348114002368
-8.157999084447324,2.018315586684993,2.755891289581446,0.33596046776102234
-7.07127346792553,0.8060338372125065,0.7095522059366283,2.1456429827434214
-4.079142610796166,0.02195567111458776,-2.0324760410128664,1.9536307861078108
-0.7555677128214859,-0.7293513892413391,-4.475846310624603,-0.5244567411652045
1.0523641356597346,-1.7625493921600388,-5.62076781636343,-4.0161302842007185
0.5129461323654038,-2.9529671384664264,-4.97642365352955,-6.400649446654555
-1.4573322545487437,-3.767489028343623,-2.7848565130489566,-6.030492451573813
-2.650250045457088,-3.617364603768105,0.1506355724900065,-2.814759334839328
-1.0897660339929789,-2.264205377953515,2.858499871721885,1.6633888670980428
3.346221972096706,-0.025123751546500574,4.542758738674188,5.099926314535244
8.450465217207837,2.316867185279876,4.746248882057159,5.881802032557406
10.928852148391169,3.8293381366458856,3.4048309616569705,4.032322164019035
8.681742618895203,3.830633058162854,0.9118971034697712,1.0871167851630632
2.5446438549771364,2.224041741552961,-1.839781690699885,-0.9716205151042925
-3.888609694412829,-0.3775849013174786,-3.638304108090131,-0.9830987040983152
-6.4778769579234865,-2.853118591012396,-3.490871195805983,0.7361900287785528
-3.419104589333258,-4.0941788720889685,-1.3223157625228181,2.704170495195443
3.2301210373479896,-3.6126412343029286,1.6940375902585,3.285884379889063
8.680201008071476,-1.8333653031075277,3.63758960495465,1.7574437901793596
8.686056641644148,0.20620324116393177,3.063131803266256,-1.2116896451897896
2.72989328432493,1.5924123406844606,0.13544017368334346,-3.9538296493082434
-5.408722686326232,2.1347225346450998,-3.295776001610048,-4.882806232098646
-10.46842242779573,2.2990335526439285,-4.9482588464239825,-3.6197360699542585
-9.934734118951837,2.525005032966366,-3.8316423886685804,-1.3743097878380177
-6.180856299423601,2.603813977409311,-1.0266595043016937,-0.15788900191280283
-4.369749925875227,1.8149340104105312,1.2479656732725162,-1.2198233822430908
-7.523624196302926,-0.19678054628290156,1.5893845711666568,-3.8332236632755596
-12.99672396637704,-2.6457671158855924,0.6871416353919748,-5.521153052777358
-13.890567091256726,-3.846269728267556,0.6863333958957003,-3.810287027147167
-4.843993127411701,-2.5010353786896973,3.0711272727883574,1.6987786500082416
12.486179450136948,1.0022625351632901,6.930838530665848,8.624124691871469
29.223079043592676,4.528534538597342,9.290235321363893,13.207337819390181
35.12784017959889,5.62720490839341,7.429245314822952,12.888987865486662
26.102413974851473,3.381778688125741,1.2982393274578443,8.079269600289544
7.315871477409315,-0.8563968379690912,-6.0831364583657015,1.728446922730521
-10.556843172876983,-4.488131484488971,-10.703395174026287,-2.9302427976379444
-18.88864549202018,-5.6029967782388175,-10.469987699225223,-4.631740657065667
-16.487338921394066,-4.25311390995136,-6.601780093392177,-4.581305468621382
-9.021899536431562,-2.11026694787512,-2.442556210474612,-4.98566976509624
-3.71396020121293,-0.9397457441125839,-0.7698903841241554,-6.990740181579613
-3.971599307404463,-1.2316934457221766,-1.8115235768329414,-9.737454077393267
-7.9073317815519335,-2.035832615209077,-3.4362031583541213,-11.15411465634534
-10.997063072920099,-1.9392099914545922,-3.128394924503338,-9.645183706057685
-9.985220451550893,-0.24379111148178553,-0.013492624962574608,-5.256958959370129
-4.913314941892892,2.5716347743305854,4.6078999626090384,0.4626746584371576
1.6613772558228261,5.284111978663465,8.39586552158502,5.564013656169876
6.910868523317742,6.738537909676914,9.676025233616786,8.782930661904029
9.485200735124906,6.412251961378306,8.39040250337888,9.903642569935842
9.774523037633946,4.491661707381022,5.77584945291383,9.408298852418932
9.000828070837127,1.6327866647200822,3.267169087354317,7.923996679312462
8.093439877858629,-1.3227346787277598,1.5542917434535017,5.928806931860292
7.143837646326672,-3.5670334109360167,0.39709035732821507,3.78670056528762
5.674492594228305,-4.526325435756151,-0.8646477514373444,1.8657734645828874
3.3806803269014543,-4.066977865510298,-2.6264474513551854,0.49315244060751445
0.6804636244521325,-2.6051583270933167,-4.672746646253187,-0.26182549346888767
-1.4544375436149253,-0.9690674238148568,-6.335464791733159,-0.7552082673449991
-2.3180182320679523,0.00956951998843585,-6.952167049993187,-1.6468833459270134
-2.231531585816118,-0.025026147525367,-6.268006757507626,-3.462676744016823
-2.4627915744055184,-0.7267597541337752,-4.53926274150131,-6.097237408699862
-4.19685020187592,-1.280627262132035,-2.3382108947695137,-8.641333211304799
-7.343198074346859,-0.9801051151391623,-0.2440667562300293,-9.754413061870402
-10.23935893143931,0.24945499177956557,1.371861010714872,-8.43546297169179
-10.657983426617776,1.7731045804326453,2.372850202972466,-4.7313961238354185
-7.470875427066367,2.675391863297604,2.7487716568192484,0.09668857484671005
-1.7367917873079162,2.365953112679446,2.509266510356751,4.121306767368316
3.687687279595824,0.9212946397227627,1.6908057112537158,5.746413514174817
5.917061508039466,-1.0179220979906491,0.480983052345081,4.60018526578086
4.090701621284506,-2.6131457766467325,-0.6667645910583517,1.7896492315225974
0.25145367717646044,-3.1619546726640038,-1.1077707678391626,-0.6881884623709027
-1.8249470765244284,-2.290948498314313,-0.34329740275023474,-1.1033196501738511
0.6368671196719135,-0.09946519818206084,1.546436677690138,0.9455974395187235
6.954646408989087,2.713853901315928,3.730580979757334,4.261615468149762
12.877299009040982,4.93634085532551,4.989223696873729,6.826122822320397
13.413779738409204,5.35332840729015,4.485540904405419,7.156195968582499
6.802537969284425,3.5353866591062872,2.408715035791154,5.283962070437376
-3.544374342988036,0.315062092373101,-0.07788273789087724,2.597477672492734
-11.100373748148671,-2.59426244695151,-1.648588272699308,0.639088498908099
-11.07928805544731,-3.733003210026678,-1.7930559082747122,-0.16970525589359906
-4.286444266287736,-2.9444221144530736,-1.1492633830130874,-0.7916926638942631
3.3615418083982633,-1.4291959672387118,-0.8799108715104227,-2.5694509732278665
5.507046647388137,-0.6829731971184253,-1.6073512468910913,-5.8070391505936065
0.46982482673211484,-1.188035362282753,-2.8360672408575156,-9.199294986102034
-7.442459495324046,-2.0045112376336327,-3.3830482572247274,-10.669361335388972
-11.526801441260286,-1.651987046750132,-2.446707403159289,-8.95740137725082
-8.146611724268233,0.4653136574712375,-0.3765765296583078,-4.646623003673711
0.4672063231334658,3.334552331436496,1.524275380539457,0.20529297934726679
8.22871188678689,4.965164707069829,1.9802277619576543,3.4906244736315153
10.112290077337068,3.8812337963811547,0.6705146081017727,4.37697951727262
5.8481875019669465,0.2840755286326693,-1.6221072776861936,3.5818262759438295
-0.38009098057290697,-3.995433992649325,-3.6506255478180996,2.582727621192672
-3.5691504178368616,-6.6557644002365945,-4.510271112920798,2.5366633954166025
-1.6897464682372048,-6.302887711024951,-3.9865276004317165,3.6962253851164184
3.2186723723225303,-3.1332666291291726,-2.3454791965802175,5.515376642719551
7.0659040149948416,1.3687939737864847,0.038091140197012874,7.0928921933301465
6.904180511777853,5.3333745326194,2.8033665712095934,7.554658212993872
2.8354798147955407,7.377338493485642,5.454055961770626,6.284347717781811
-2.503422094914812,7.0369851420722105,7.257665326797063,3.123935823084972
-6.132647105481292,4.723808046744069,7.469892966252149,-1.4362085867153425
-6.799040916553649,1.3941159606266922,5.804558454536416,-6.262071339722019
-5.46626969075544,-1.8608255604101398,2.771497727423015,-9.939384173866895
-4.087662761762354,-4.177031397648137,-0.4510360328762492,-11.378385934060635
-3.8245829169942014,-5.157561566612047,-2.6012507301180436,-10.292845730851061
-4.207188289408741,-4.923449427437963,-3.0198666402501613,-7.245491092495074
-3.8513575944857554,-3.9406829480791377,-1.9952603855498474,-3.2762504902439007
-1.9600480259248494,-2.6910154134763156,-0.5483915486302121,0.5881728346956239
0.846706982142334,-1.381736888950038,0.20111692244361987,3.6448713936350994
3.15749015166967,0.08521889991011844,-0.30983001259001386,5.573170148584575
4.200923418572106,1.8298612032536594,-1.8049704231357822,6.366215047274817
4.614177677096863,3.6193182526484273,-3.4026348527714476,6.258075257441479
5.713347222820716,4.775632996733996,-4.18462189897113,5.634496165743866
7.926576071719905,4.562805910732984,-3.7287362130269246,4.851167879645331
9.936744441737666,2.819682804630427,-2.2964878638005333,3.988767731963678
9.472836087663644,0.2906481216544637,-0.6167634775316264,2.7360487184945717
5.173989123232306,-1.7417243583158302,0.5487197518308021,0.5998499163860174
-2.0354761767777276,-2.34279181052176,0.790848537095277,-2.5909814514891996
-9.21652345706384,-1.6365711384504469,0.21339740341383145,-6.231612447026857
-13.150559483932627,-0.702077402671798,-0.6570088309498819,-8.973664669507642
-12.281112563501697,-0.6682825292055311,-1.1334971822874462,-9.38878803042008
-7.5636529577831,-1.7269271066138763,-0.6890165363150116,-6.897555221281413
-1.758932826071023,-2.9025637094690255,0.7890602617379401,-2.2884306892369466
2.2943915784367173,-2.814107417681927,2.919307840639609,2.630750991527824
3.3243078906573706,-0.8382653389022532,4.967963648523935,6.065154443671858
2.176279568475949,2.257814860780422,6.1489197179170665,7.213925982647407
0.940905506376904,4.731984328485564,5.934285726496574,6.496461634491178
1.2667209042190668,5.0330306186749105,4.241202286692649,4.938199719431414
3.079550521185165,2.860572529200331,1.4555023509034426,3.3014026210107352
4.687261734397462,-0.6329995738432461,-1.6687500060155862,1.681954319664349
4.199997437683372,-3.605596074037896,-4.198767634362748,-0.1985376137876531
1.1335846456658971,-4.679749987387486,-5.3044721474588865,-2.408682794207512
-3.0872427596381997,-3.6846261121471704,-4.604716424994532,-4.525420694102969
-6.089599226566858,-1.5369369614734132,-2.438325161837424,-5.876076779227878
-6.169327032827905,0.5388019449754866,0.15514455579864245,-6.008037000234809
-3.3450041933089874,1.8019670888489918,1.860332601681205,-4.929687519684671
0.7840829062287631,2.2361264564475443,1.7694272251000454,-2.961628853684508
4.088752356953609,2.1969715931162384,-0.060622722793428216,-0.436518174648985
5.1073874488501145,1.9234285483705469,-2.5613952729453757,2.4113843699578883
3.7589155067231412,1.4008008104048906,-4.21736825183252,5.277470473897821
1.3018338246526142,0.6290395699409238,-3.946796850626414,7.56682348567586
-0.4326715209832476,-0.105923156118063,-1.7661646166705662,8.425457875974162
-0.21569857343377033,-0.3601400444934395,1.1994590610862492,7.111645434855637
1.647186485104985,0.00340618206763872,3.4027629860815978,3.502255461456978
3.3556544908510064,0.5148742880072591,3.8395964528323727,-1.6094670292482207
2.8248215948605284,0.3832340470406047,2.6573521367577935,-6.668938391118419
-0.6690081173070727,-0.7830817766554911,0.9785560871780407,-9.95569997009274
-5.669678221013942,-2.470378150784904,0.050356250084047094,-10.344702413694321
-9.303681170168325,-3.512819723739108,0.33241556573615727,-7.8343532358170105
-9.150681399702481,-2.9873863798062685,1.2049161451243875,-3.5393500644809595
-4.86514855993928,-1.022338976131624,1.5191161548049188,0.8640506554331121
1.5798655468965994,1.1920398380126915,0.5589864013150078,3.933449295206951
7.086358908736964,2.254136687091998,-1.342360014458704,5.0543574795539605
9.173358742368231,1.6104375648292544,-3.010934481867804,4.539969716288533
7.220417931112584,-0.011447372897280594,-3.291723584834053,3.266687868414296
2.660807372643408,-1.147114043515612,-1.892570169335894,2.135572825800633
-1.8352343928209613,-0.7183707716140845,0.40937178541681196,1.6812696778366272
-3.7718489770456336,1.1051907803585594,2.310233928430283,1.9774709709758689
-2.207001663126188,2.965626035726348,2.8397447658533443,2.7719602711621234
1.6133273199125757,3.291043438324072,1.933137054405664,3.67429630592459
4.85518989534733,1.4981163621978424,0.37339145451209765,4.260571994387796
4.768177445756612,-1.4701774829685395,-0.7835814798811135,4.094980792245387
0.5053688717622379,-3.716907061162528,-0.8774716354768883,2.7830584434030023
-6.094983147561029,-3.707848890836165,0.010537254675109391,0.15718600021272905
-11.400915002833603,-1.3869022255585004,1.1867431764446852,-3.4670571546704676
-12.133513266194123,1.7394333560872082,1.7918182584483249,-7.200141731505012
-7.495288377427712,3.6262030835428525,1.260131081071459,-9.865702319197839
0.10350466647186282,3.085249092009691,-0.4374970851447303,-10.58535497986682
6.368355897024027,0.5647158951262458,-2.803947771906348,-9.248678949122358
7.888497145155463,-2.192498190062295,-4.985447022350302,-6.452934248442196
4.626824857376765,-3.3160771341219286,-6.022985365458561,-2.9362025445176125
0.2311436581574095,-1.9936892960468173,-5.17974992379855,0.9572155055105533
-0.4976426074467356,1.0521811305688051,-2.3150427774430744,5.203844737986481
4.49778060364482,4.011901190101535,1.8639710231700481,9.43707579306305
12.231439245721852,5.034319060300905,5.9242115537119675,12.407766599783768
16.21523340409372,3.2668313974652703,8.295088384920112,12.343033629893057
11.226921019086499,-0.6589162726429572,8.061521816456997,8.200419788234568
-2.182216507612889,-4.941599985013203,5.451926423845311,0.8656227753593119
-17.202798403889904,-7.555936997757111,1.6553618967005288,-6.837838886467228
-25.106706613688598,-7.31111908570375,-1.913499409245856,-11.584372853005261
-21.285624799645163,-4.421488840481349,-4.356698501018268,-11.476592432222155
-8.358290361527963,-0.27411722355896606,-5.521210542595926,-7.062965330429789
5.955305794209805,3.4145836504704192,-5.659152135953363,-0.7556212516457506
14.300775027662606,5.481132711861222,-4.952213304748634,4.785271223860928
14.164148159033234,5.700916675059877,-3.3878969070402474,8.04113072617207
8.291715828286113,4.558643803614883,-1.0618883706152737,8.931624636838926
1.5616593161112489,2.7282745925803473,1.4864597955935468,8.153994512028977
-2.6029118086138228,0.7058636923183128,3.35682458763536,6.372742255065974
-3.6091307024084465,-1.210417797382496,3.8299703128776934,3.9141926340790745
-2.670377082360926,-2.7386021196438946,2.931027714956182,0.9712639248911586
-1.1339923108738577,-3.502561827910504,1.4932651706806002,-2.1214489253489166
0.2659311131769596,-3.1307028303051867,0.6024437495738013,-4.880514677574856
1.1803986973223453,-1.4935047495486127,0.8247016415293961,-6.883508214544758
1.3709416966754504,1.0846057795523045,1.807961327143547,-7.93391700742536
0.894948272586853,3.775043047232822,2.5546660314786074,-8.043060713337757
0.30840255713206355,5.435091056681922,2.1542088948756737,-7.318061564898088
0.28668489289454335,5.052502668184077,0.44070592530143754,-5.902207798054022
0.8600443718910274,2.3229549571299395,-1.8796400360922279,-3.99372999113178
1.1371881192280002,-1.9535327814794299,-3.701620971507237,-1.8643657611104252
0.022275711696418662,-6.028751637111673,-4.252995814968628,0.17430412762724362
-2.64052077954486,-8.018878230836672,-3.5725612956077097,1.831632789313868
-5.633441189445573,-6.978348396184885,-2.3982592169887007,2.89573615417114
-7.1742437555415535,-3.5163713230790634,-1.5493411640143813,3.308934188506559
-6.302340547783507,0.544730748586107,-1.2723601660758452,3.270553181314705
-3.5941658307134943,3.2929463459323465,-1.0757497277951884,3.277343628074871
-0.5624182842230506,3.8533095820498215,-0.21394076141488047,3.956088088664724
1.7044077914409805,2.735856175471848,1.553248059882535,5.664985109611015
3.413992607337858,1.2351118807215942,3.569812648901834,8.08191860906293
5.629018528785747,0.42379294457790484,4.645378732825239,10.127476746477273
8.859441319477414,0.5152327747128717,3.941092819471889,10.412631134973525
11.970636174290044,0.9816198652407635,1.6901911774128973,8.028540530869531
12.568492146776675,1.1868833205195128,-0.844169935294754,3.1897326179848737
8.82408986966367,0.9445296062481849,-2.187875813497019,-2.739414122220414
1.3230162656025997,0.5683344647136278,-1.6634666114549244,-7.931554072109051
-6.794354681227087,0.45434775701796826,0.14830818247079164,-11.095324163556283
-11.859855139695885,0.6192086927744715,1.825928547069944,-12.11101701674504
-12.347708006903995,0.6359514373647381,2.1095197300650925,-11.820387060790047
-9.798055226275421,0.057969386429513686,0.7923299571317449,-11.089339287399218
-6.975471830068244,-1.0249014177674112,-1.118703726348839,-9.875101156919467
-4.895194488768558,-1.8383372724027025,-2.108892440705825,-7.1412586750311275
-1.7587878616922508,-1.4483426359953633,-1.2773256066318386,-1.8609367443993317
4.720988933532563,0.3568197425421895,0.89988696072355,5.595768684421802
13.5656409027859,2.567910366384757,2.7607551757402304,12.899430627858267
19.320779871617873,3.416676954913184,2.571099719211826,16.748488356828947
15.552876697379547,1.6384625120080227,-0.16782793612268196,14.909195099532857
0.7639864628865193,-2.37963506378705,-4.189916722486472,7.833627238003337
-18.54775286012159,-6.560724137862963,-7.199872758703801,-1.446439582014578
-31.228579294559417,-8.418074893085484,-7.421346746626067,-9.153898721502042
-29.333080636410198,-6.779475618504601,-4.822545619222636,-12.95339622961606
-14.260433792783338,-2.6275133045829207,-1.0630511840062367,-12.852395994534662
4.1826199055154865,1.6414086139093964,1.8151433139004147,-10.296019661104697
15.344314394653964,3.982868608943178,2.9112787437082814,-6.473968532859919
15.744585319745564,4.101583771305455,2.9697092269345884,-1.454772772234549
10.866090731485185,3.388730891875559,3.4691131377019593,5.112709331050782
9.3539440919928,3.5119997752361547,5.09717389331161,12.535840714349295
14.800098462050533,4.869652169673701,6.947158547958947,18.451144269362462
22.324877180973413,6.201917797095558,7.174571238053033,19.924135600525915
22.93249864520742,5.672281974770571,4.610372069590273,15.572227666259977
11.834752523456267,2.5192569743008004,-0.010835830606953556,6.956275495782975
-6.513921022726073,-2.0773249526977953,-4.276574890296951,-2.0575678032516445
-21.141765273991464,-5.639231014159842,-5.69018197401579,-7.660268735639365
-22.96420683329403,-6.08713272306637,-3.460189531434179,-8.48316383752429
-12.034766612535755,-3.241783885285075,0.8422702033338794,-6.2663198713068065
2.2486246279936464,0.9602487968769637,4.231989557877063,-4.399068082379248
8.172991164463447,3.684615861701797,4.185636636963554,-5.484158516933043
0.4716065894039656,3.0031354041445817,0.1844917035795403,-9.658835176626363
-15.853663082971382,-0.91770117753891,-6.005499571098815,-14.67486664973388
-29.292382308627634,-5.969211191871418,-11.362735509481892,-17.421775019956794
-30.03746735149018,-9.407724167868164,-13.231852020265208,-15.728881760817746
-16.51899006913412,-9.423382253135783,-10.61773509067867,-9.39452711201966
4.114415162905009,-6.0113661618950545,-4.55421764161143,-0.12172984189154691
21.238703745150556,-0.7318282395860066,2.517185352852822,9.310540740342601
27.51822121528826,4.3214257489696815,7.975719278827333,16.12995611409045
22.588918875896102,7.601217854931747,10.244302970269935,18.54240439383773
11.879464336364771,8.618902578373406,9.415529438121654,16.36034951419809
2.2996125541780574,7.772761550205188,6.9698022237230655,11.066208694764317
-1.8478678882743707,5.83639657107742,4.747023168124431,5.16334376717863
-0.3697154558164957,3.5374749535256,3.779769219535903,0.9792131588112796
3.960504905468948,1.3968229725218355,3.7200360081592514,-0.4976188483562559
7.624542366770181,-0.28953582405146644,3.242991996286731,-0.022050523891798512
8.116131689362597,-1.4753704447676894,1.163154797510737,0.5947586416330943
4.728100249958047,-2.36388336533242,-2.5187094021456486,-0.15041267230477637
-1.377460672984402,-3.2437030308404133,-6.414806673496024,-2.37493437051704
-7.652446902284702,-4.177645960466051,-8.598934063792223,-4.8296796177009025
-11.336523799914785,-4.809861016669804,-7.937998980479799,-5.996931765767636
-11.106357639692826,-4.5587427700803245,-4.934009932238433,-5.36510649825913
-8.14117288371914,-3.1201660040060575,-1.4084832970722712,-3.8029097642680667
-5.3883559854483725,-0.8417293912747635,0.7880079707439658,-2.710006208771612
-5.104547217912503,1.4298179128565183,1.0805553872918716,-2.706715523853946
-6.58308981479019,2.9439939512083635,0.4623116451446428,-3.073265790577231
-6.3828902770510405,3.5403619729027467,0.51962613081953,-2.4951490983866766
-1.4168900846995087,3.5604798860067137,1.9737039403307561,-0.4540310662583254
7.563863290084584,3.276122941146924,3.9648556880424133,2.0554321523662575
15.455356915856823,2.4558843350722905,4.723397977580944,3.236552057407354
16.317079351111122,0.5975464675782537,3.102228347137906,2.0627886141450467
8.297682434079821,-2.3189559424509754,-0.32081729120537583,-0.7042661718688149
-4.275648869436651,-5.304789685576685,-3.5362642565290074,-3.014034565633235
-13.704642973250182,-6.711703754808409,-4.586198299296036,-3.1408972696746758
-14.497234741380055,-5.343627244518946,-3.0222497902408705,-1.0028135225540442
-7.179450039130984,-1.4741137902914385,-0.15633778652667701,1.9317299390672915
2.6316478659899736,3.1069451895455407,2.0408100959679456,3.962631025016478
8.807307336636264,6.144281119313018,2.420067606557377,4.449940758558618
8.980793054374505,6.31817902911715,1.308356585609055,3.976422786248248
5.279439658453676,3.987117030679262,-0.0658926993070925,3.430996041342218
1.6013542256340645,0.7988023502524535,-0.7142287443577,3.053341643310943
0.26435746701110474,-1.4592244649249178,-0.5545266024260028,2.372675950891163
0.7712217315974866,-1.9216290169160002,-0.1307598979087009,0.9664525270284966
1.113543509432072,-0.9598113194170851,0.1678719197289464,-0.869534016049592
-0.09244496551780353,0.3097642934458835,0.538517440401465,-2.2815274378054586
-2.5336866160074396,0.8626221672525037,1.426398868617705,-2.6602346398223196
-4.693890652254622,0.3728014493493746,2.7965917447784316,-2.2083517518573235
-5.07218062968584,-0.7252800943902415,3.801980598049182,-1.659459234397456
-3.0837010918491257,-1.6488216105068636,3.2831200180143747,-1.4488940361055733
0.7398445757140636,-1.8241329385242921,0.7606593694131598,-1.2359973295842637
5.035296559093618,-1.2384508576009456,-2.922843690737807,-0.33419931367956246
8.095153356240123,-0.40424372224342,-5.9383358782476945,1.3387319607892258
8.459478324439647,0.009460250300478762,-6.635855235487733,2.774898293103308
5.540021193570816,-0.35250454736626796,-4.691665744023946,2.4763675091753234
0.04007069406550822,-1.237747690889552,-1.3441580959974122,-0.24921439068963505
-6.1425375987095805,-1.8638017757371759,1.491842973297173,-4.413867248656986
-10.653772819714654,-1.380845939073468,2.5580176869950644,-7.760365158860971
-11.822370369394536,0.4925464301091447,1.994485877250053,-8.270038647775065
-9.626658981872898,3.053948474169722,0.9401591966895209,-5.612226631320568
-5.823618829062476,4.803666495341061,0.401683587521058,-1.3479263549529092
-2.8996460515590288,4.300670993125419,0.4171902668768457,2.3205573200266634
-2.2628942716942166,1.2421495715243176,0.2510916514281048,4.2520622476901835
-2.893528378967984,-3.018394869037956,-0.6099693116579429,5.0982183648970825
-1.7441277441213643,-6.0745024608931155,-1.6632963197473198,6.41807417942048
3.9175911447726772,-5.967226090169583,-1.6458486815682847,8.91044649799142
13.72637871514421,-2.570574853700193,0.2955425907355847,11.32523336972785
23.330150660018283,2.223320086306674,3.570037825211469,11.127665461106263
26.621948275870103,5.758201565308273,6.269735729121283,6.525909762813813
19.860330306898028,6.399205958621065,6.491413597181108,-1.7516135074387835
4.659345811968314,4.480129976780202,3.807525786736691,-10.45199275488743
-12.561836667153674,1.7233608837814867,-0.34450570936989106,-15.705742702843109
-24.393114289744652,-0.28499627222742296,-3.697111174252465,-15.450854366039367
-26.71378611619198,-1.2333131530072932,-4.774436892496313,-10.576154218795232
-20.444772970492824,-1.9374130783102528,-3.8164772750579186,-4.03318878601475
-9.973043641305129,-3.2051847660269353,-2.3500017149415933,1.2554770049473578
0.010380585636375434,-4.858625590416618,-1.8612616081826903,4.063544925546516
6.7910368792846185,-5.809760127159168,-2.667900000586077,5.021672950150063
9.927574740353105,-5.03949142333309,-3.8019940344740273,5.484408211806779
10.282049977963851,-2.509363212922086,-3.8554186090469384,6.2253000608229225
9.066847701643754,0.8110921670623277,-2.054645105893099,6.956101558072758
7.398322836387955,3.7236241645285713,1.2017160100361421,6.810943416938975
5.997489150250961,5.586605229251713,4.610278572170135,5.184738771228842
4.7954315330422705,6.422622561126077,6.7425173297512755,2.2214964327487308
2.880627950619315,6.415320233100483,6.799599072975615,-1.3028140496184302
-0.7082629387927128,5.44761891835726,4.929249596924717,-4.4704490753069495
-5.740989103557771,3.1981405696825322,2.0062402013574028,-6.683743428108631
-10.34106495830743,-0.32981965608552305,-0.919685073782032,-7.829693756392173
-12.115666669715047,-4.428572392396728,-3.145823493783932,-8.106244132928225
-10.119197911408696,-7.871535879008795,-4.4955781697533626,-7.658797248497278
-5.820092579909367,-9.52087459149037,-5.088848149146683,-6.296253423286322
-1.9518793000482677,-8.853571282179324,-4.9475270056285625,-3.5557532644511745
-0.13393132823263398,-6.0609734269001105,-3.822251051421709,0.8191750089266078
0.5251556448394732,-1.8154169828494757,-1.4486101490843462,6.280726278327881
2.4195865103571017,2.970133409591352,1.954613933093033,11.289679640683891
6.873812234969328,7.235825960338657,5.415433566173173,13.886392608948894
12.403870987911782,9.877777875010676,7.52207123210613,12.791364525863361
15.518324563352957,10.063579330861074,7.208565532145177,8.284330335690306
13.450639289749555,7.677744246436897,4.465556088620419,2.151861132311712
6.464929350537333,3.5277958743096005,0.4197819866556327,-3.3391357347603283
-2.2090185075685422,-0.9783347960086453,-3.3142899443125398,-6.714597985656687
-8.65725417198667,-4.542284959325316,-5.548586858681277,-7.888211736636168
-10.823102390849343,-6.55928155590169,-6.048622277917281,-7.72382424021929
-9.374723824601528,-7.140460556014751,-5.352480502722672,-7.0576037703273276
-6.557647027925679,-6.629068553731576,-4.125925674457306,-6.054450083840806
-4.286206681045603,-5.121869819720412,-2.628601001732764,-4.383075552213422
-3.02974207491587,-2.488809712604809,-0.7118886252048776,-1.9213451391617329
-2.0875416273807836,1.1138771156505802,1.7132363589627266,0.7509511906539086
-0.6586058235836895,4.7721312402192435,4.204375194196404,2.580894702103673
1.3386349562514221,6.977961008609561,5.7865059483074965,2.832568918579817
3.2906768305286267,6.505290881952221,5.512118691846724,1.7683748381516247
4.534313989308593,3.393406658831544,3.198398510418171,0.6091695571075617
4.904091769446428,-0.8060775509281358,-0.2389844790888661,0.7143054833357979
4.649101876189233,-3.879492863481243,-3.1833834525990716,2.5385100087568304
3.8774511036525885,-4.380286331480793,-4.238154444448421,5.149463201278394
2.256109698390607,-2.5688584299295387,-3.0472567224063924,6.748115647546099
-0.4866446710801772,-0.10261473464614518,-0.4399651832791753,5.919670741042552
-3.630555119192242,1.2936206237552577,2.1718751274763988,2.7375282919112776
-5.2689619680910145,1.0881713262905444,3.6539287436764645,-1.1662614839216492
-3.6356734419828958,0.10031720052210077,3.631177480353304,-3.7398565437720297
0.8173547781121847,-0.5008737420119744,2.3488420734509643,-4.0595662241081705
4.669184928037285,-0.3671499288290306,0.23195428727370632,-3.037768263579585
3.589313182807994,-0.18625440811068764,-2.337985997827613,-2.6109239549846963
-3.8077321249970084,-0.7561074359231967,-4.853735281534803,-3.973420115995852
-13.574123790652601,-1.876306128613894,-6.461629466424434,-6.323447613053748
-18.276388987157357,-2.24873800983304,-6.163707040001668,-7.286844654196022
-12.44013902332442,-0.628537687221296,-3.491040242341137,-4.820735707302736
2.5634041495397812,2.7883018065695357,0.8766178578036475,0.9099048375872963
18.545349821516357,6.097049124479652,5.188558596473236,7.2809841589337845
26.013856469209628,6.947446428007405,7.524080285883118,10.906424303395342
21.0583551702642,4.366116094991294,6.932059868130413,10.01241684948874
8.09010226138695,-0.3795168948475572,3.9752812781225004,5.650376837213774
-3.765325352819434,-4.605322524949997,0.2947533457247979,0.8393634294771433
-7.619423811535519,-6.057318439969095,-2.441376192658414,-1.6448556666451744
-3.518300219918461,-4.347247898319599,-3.432574280111225,-1.1338766417334132
2.5611471539488284,-0.9927139311692217,-2.9404357520896296,0.7270497557277655
4.050504015979375,1.7684939998423173,-1.8248751364588922,1.4093913827724327
-1.1544345485017968,2.3957501455908075,-0.8848930153006368,-0.6117169202460324
-9.717564501637728,0.7776373287238393,-0.44922004875425764,-4.85052500507746
-16.0524959413708,-1.9526186748220307,-0.3572228943299194,-9.225022943535123
-16.586788751027182,-4.156527373708075,-0.20507035147440794,-11.416561676343507
-11.793337854751918,-4.50527387531717,0.33414654158738993,-10.192945804547033
-5.019801334932966,-2.5779519518436715,1.2581828248497657,-5.937195212752381
0.3165967671646364,0.905675109986074,2.1562121385598143,-0.26037005223953297
2.8302476579318583,4.340646043078136,2.3780466437012606,4.87826374149979
3.333985842166316,5.99209222055572,1.4216836349557909,7.9823989281691095
3.5121470612218153,4.957443433535406,-0.6631047358676098,8.438727383791802
4.437127242769814,1.7670496504006403,-3.1432218037235287,6.5594321065128485
5.997927298741708,-1.847677069153826,-4.898219035136788,3.411650654886457
7.381879608677663,-3.9649632139837343,-5.008383001045674,0.5084096135904592
7.9532727460802075,-3.6289392088533483,-3.2755369876913614,-0.6924050463546696
7.7210272045357975,-1.369367941445517,-0.3451118110668401,0.5427736634042836
7.083776869550384,1.2610882517681603,2.6427248196584223,3.6850013707015474
6.227684872532221,2.779840120378072,4.64938504044344,6.998115791489872
4.843207473758358,2.7134381900757365,5.2241439546956565,8.391405354019325
2.4765674090730765,1.7435014770617885,4.615060797261866,6.670084192784149
-0.8202882509215634,1.0150489423773783,3.4779701403172,2.335630476067623
-4.199798951420941,1.1632953591568396,2.394324253097608,-2.7186751217399996
-6.434105171440956,1.792885375351543,1.5113180197366891,-6.477397057329992
-6.751922696267812,1.7863996048327995,0.5283453733445057,-8.12171430568042
-5.458458599117062,0.20146493105077612,-0.9747243719363492,-8.398734595998492
-3.871715315151352,-2.904877630242314,-3.0958299236920155,-8.768602986341742
-3.5633173935271625,-6.313092785602193,-5.357514030316844,-10.017684353233669
-5.280884177910718,-8.248454064405736,-6.825766662405274,-11.447604911835525
-8.148772722205136,-7.36404003134477,-6.5622353028367755,-11.301604193173466
-9.792655396988202,-3.52399963712061,-4.182100069131279,-8.131171436153904
-7.715821382983982,2.0038437580429265,-0.21902011606354982,-2.0720765943300967
-1.3876696525644814,7.0109869372196,3.941314990923844,4.966114699717906
6.486793848731826,9.279761708388618,6.619201342392288,10.411944010916134
11.084031403085612,7.6419702736246045,6.684360788927716,12.687353447023211
8.925776203543812,2.704683672755736,4.232501248902586,12.189999809059307
1.3045854665492151,-3.227829484636117,0.6159403572706731,10.820072474395802
-5.569052397255774,-7.216118685294637,-2.3168211202235596,10.34499729641128
-4.816518490833956,-7.300937623392427,-3.3556512944685792,10.842012102490115
5.223614505287068,-3.695786886062152,-2.6511933786701576,10.506068938333831
18.444891667744947,1.343057525017033,-1.45130155013779,7.114081513116044
24.687699125159753,5.013335395869519,-1.0156645344547919,0.09563219211446523
17.486606461988142,5.809839644605551,-1.5673013119658994,-8.4499410103941
-0.2950039413941888,4.334877921346204,-2.1578478311060616,-14.749284254921138
-17.9375253371641,2.4700361893616374,-1.573407351595944,-15.779252303362998
-24.729229128862013,1.6412980336249656,0.4984792253903157,-11.36180076058939
-18.008948714455318,1.6683521888492974,3.072044457709429,-4.3450659357336665
-4.800992475097529,1.1653390548228217,4.605908682779817,1.2903045860797149
4.259923578771332,-0.9197982354359133,4.247871327521876,3.006325339336308
3.5663342919489205,-4.0588738579259775,2.498001852249203,1.109980853135215
-3.4452183138909356,-6.361121740960028,0.7275249145670956,-1.9134675083100663
-7.998884908750952,-6.112727306283865,0.007088687642438803,-3.4597571799733466
-3.934753121763026,-3.3019703064878865,0.287386901336668,-2.631701306140909
6.945838799132874,0.22028031530169964,0.6178138111569923,-0.5481451953602219
16.483221574703467,2.125285807782887,0.13509973113409898,0.8883947933442519
17.035962456026112,1.3980877069939315,-1.1172321722269434,0.6442514692386477
7.685938464073933,-0.9321175268401476,-2.2734828773363733,-0.6812060718263447
-5.252073187738053,-2.679971260499154,-2.5095585902057693,-1.474987316631325
-13.443916198366004,-2.2294097343778705,-1.848875609727032,-0.5026232221631011
-12.858085582284215,0.31108740769959586,-1.150167104587525,2.0775663579465773
-6.096069193201336,3.3661263724591794,-1.29056561443537,4.843582534428015
0.6502841183449326,5.199788008570983,-2.3068512617282892,6.208387992062465
2.925882344466787,5.11441774035887,-3.298457472912883,5.585512032466132
1.0823732141997204,3.6364487500971765,-3.1974921988613803,3.7432085345585246
-1.0145394880153698,1.760111498546686,-1.7174549729875064,2.156936371261514
0.08966348663308002,0.09599782677539845,0.3709742570126107,1.923419349015483
4.472205778364238,-1.3171155990385246,1.8788687690939152,3.038148034121545
9.048745731239963,-2.5475930197637036,2.1773175707845276,4.464384074694406
10.259329077132957,-3.3107901396736423,1.6592129399317648,4.82608206423768
6.721453499058658,-3.081098602299304,1.3185256613663876,3.213101750278214
-0.07536658826488606,-1.6717033485861978,1.8652123087119987,-0.3453912561612257
-7.042176184919982,0.3550522031268839,3.1563235058814634,-4.89348146860124
-11.372051017164155,1.9379840729904279,4.37796045609114,-8.953811965580893
-11.747607298744077,2.2651857340833237,4.730795190095668,-11.12570991634544
-8.519008058426126,1.3625871119802342,3.9876682751775188,-10.652674025315822
-3.2105177721476164,0.007117630230521069,2.500781022181461,-7.745233587079413
2.2025180304791885,-0.937941327320218,0.7720349140201944,-3.5162725076626846
6.011105817874073,-1.1760417576443272,-0.9507008291737148,0.45882003474766503
7.336946279456015,-1.0862530154653465,-2.6976904987373156,2.773968907910245
6.363074068054993,-1.2547536602687581,-4.468264105658844,2.7555089561015427
4.116204475652871,-1.8687083760289414,-5.9394166706464135,0.7437663180034728
1.8957089163578307,-2.4826443508001574,-6.507315326254555,-2.0105651154937543
0.6258395832489693,-2.3373554224955813,-5.670744545667884,-3.8290009214656906
0.4341132094642413,-0.979730524419992,-3.4612187473283944,-3.3378092501400918
0.662770741543021,1.2850512922374588,-0.5627383668950282,-0.1706773343154374
0.3528620462397032,3.4562634307118554,2.0121374456008865,4.730674078298882
-1.0130963308631518,4.406069604398745,3.482984156170737,9.473791195684921
-2.9876989042369995,3.5916306977060226,3.6967795561446555,12.13207726923279
-4.335458680458767,1.434402184646113,3.072955646645092,11.735113505959754
-3.932963161139386,-0.899166446289105,2.172024758194385,8.737173200508346
-1.7545179475732606,-2.180904064442652,1.2730507501128963,4.667947764249177
0.9216868592972964,-1.8250631354672249,0.3273800587414801,1.1891387240589397
2.377976975388599,-0.17456447941580855,-0.7024898195576257,-0.8461416623614642
1.7352411473807396,1.7684850193481396,-1.4983167458322482,-1.7572527943066885
-0.4283935481442166,2.943019310250054,-1.4585521258512355,-2.630979756381775
-2.621686314806817,2.7654109558655224,-0.22864821138766211,-4.436348691821708
-3.621104383976195,1.3141885942932074,1.7525134905284219,-7.239187351559837
-3.2603211908183263,-0.858081688027724,3.2584661617369526,-10.03409508733233
-2.255384562207458,-3.0762700828122105,3.004490567247027,-11.324510719523047
-1.3791317695481,-4.793698015646719,0.6481805155711631,-10.087277531671054
-0.7618525991261479,-5.619019937118669,-2.7156967636162395,-6.476133022776167
0.1658427326385092,-5.222825066429893,-5.0598995588146565,-1.7767688280053313
2.1416764227787657,-3.3584783054463165,-4.705359254365538,2.3465230563634183
5.353740511073068,-0.12257008774035624,-1.5328280981261329,4.759905890352561
8.961039936031124,3.7205681207275334,2.7599242305807614,5.291627912967974
11.177325730759543,6.748582096451349,5.628191491056568,4.481104413802658
10.074420219405349,7.480960651602297,5.292440457930368,3.0046656848494866
4.876453566188994,5.328174989218348,1.9157099690127086,1.3345699830845519
-3.0172687394845257,1.2009057629501112,-2.474495969450683,-0.1447555192293911
-10.2246468285564,-2.830605467059417,-5.285110161186668,-0.8605523864849325
-13.093800672224472,-4.763873949977805,-4.991397790903122,-0.10101808506355513
-10.042719028842152,-3.956924026154134,-2.0021392137414677,2.4654215770741827
-2.8646299771727763,-1.5040258904311719,1.7678710416426904,6.2015276321062345
4.155364751079318,0.6340522474382975,4.213068012887535,9.455795235373312
6.908405712498277,1.1014629565834329,4.269169027864428,10.30918994309404
4.1131021881043335,0.09124430376463578,2.2853620468503646,7.709729124922884
-1.929258922649895,-0.9541050074699513,-0.5143947180081336,2.2082650773851262
-7.01332785698771,-0.62349350984543,-2.900241185861938,-4.257517085275684
-7.934810171748934,1.223275760489808,-4.184819541436729,-9.403110615584973
-4.551117159459451,3.2412894401835515,-4.233352925856718,-11.746767421610055
0.44477168883526824,3.607202068788988,-3.193621785442561,-11.126179540436238
3.7971712338913717,1.5049649016391227,-1.3204937650977453,-8.375168252033387
4.214293688736794,-2.0502806720802544,0.9836101185955005,-4.593525379712439
3.113206372756777,-4.7512249106163065,3.096122984153994,-0.6531730112592768
2.948568374032622,-4.607371169550479,4.306383406674291,2.783801865742442
4.5749432517045046,-1.4813139937525146,4.166600638715169,5.027505662019629
6.111920183035991,2.638321794845879,2.812310937718135,5.401980713651065
4.612233513818223,4.941794437192679,0.9537966020030394,3.703257260561714
-0.7706346047387859,3.788724177133807,-0.5338534723235954,0.6508573551113106
-7.133125793248422,-0.10426843183198978,-1.1659285510664583,-2.242983937395849
-9.666990834813573,-4.205600361532485,-1.1319006778536649,-3.4863059054542753
-5.783934874105738,-6.024555623324713,-1.0592683007438781,-2.5281253097102074
2.147305222523144,-4.82037000173569,-1.4136482491172901,-0.02554186298411993
8.269219156591786,-1.8505239749928917,-2.021303104799077,2.7616107403336474
8.015556871458193,0.9191248270217561,-2.1516483578140515,4.886582593549774
2.0826651931799915,2.447535835430874,-1.1516431069996502,6.1250332878064375
-4.090344627493878,3.1889825129650866,0.8745648205400842,6.5981257166623
-5.07348735929982,4.20602776654077,2.9486964449836823,6.133219201353499
-0.2815527233225928,5.747462435296459,3.8334036500379973,4.147107786912716
5.439174149021417,6.670951012388753,2.917816836334481,0.2791401974914381
6.040574911838913,5.308082902187602,0.6534249494627516,-4.824818790729277
-0.3906761956598569,1.0638484341292267,-1.8071975468604182,-9.434223323673683
-9.808721396512523,-4.64268200421975,-3.432184527632199,-11.619266184712465
-15.350026388620146,-8.985055945749036,-3.8858081889248504,-10.460064759399703
-12.645453975211815,-9.529159546438747,-3.4344708695632518,-6.60300384837233
-2.936736828718879,-5.918567659683751,-2.415334239404929,-1.7346345589883987
8.173301205527908,-0.2066162088057797,-0.8858168353656676,2.5422925219624593
14.836456679891455,4.417935776749206,1.181585471494456,5.505400042068922
14.534954957078758,5.632089829368452,3.4193789211249577,7.249936412361477
8.798309422511483,3.3527890448062156,4.912416033395426,8.037828271109237
1.3263189907837603,-0.4009703513915678,4.692060490215547,7.786767407697714
-4.522571719888618,-2.9954541287293397,2.5354767843695325,6.1740478345535115
-7.162560754292006,-2.9530246777254163,-0.6477506215686404,3.1803256861674902
-6.779186506802711,-0.7893632864109532,-3.265866928916258,-0.5177516188392255
-4.578460849359402,1.5994210138289942,-4.050035790982972,-3.735992989915956
-2.028036177121831,2.4595516588067112,-2.854188129990031,-5.446215354409978
-0.33165292434359,1.434621596403582,-0.655393207701133,-5.394954336700498
-0.04183603544052161,-0.3562881874457757,1.1988690741509809,-4.199223441601598
-0.8071172437722641,-1.3665026624995975,1.8905092895330295,-2.8649305516048345
-1.483573239795345,-0.8732889566135233,1.5249473370674023,-2.112934997945477
-0.8057077445950837,0.5661734747280466,0.8098150399333142,-2.00862656817701
1.6042056020203945,1.716138747692555,0.3544768806576888,-2.1074334009984907
4.597900412169332,1.7067846677800322,0.1722254834896988,-1.8992468819101278
5.979723484241702,0.6405989785477284,-0.2291202691217836,-1.1257984678175799
4.134784090667019,-0.6292969964069942,-1.2550240963621864,0.2609250730878678
-0.26199175107960004,-1.2163646866430622,-2.6306002790039473,2.3163698256950953
-4.046650021308616,-0.7774793904816556,-3.3565585159484157,5.096794723213988
-3.6084902017125704,0.4039801826644705,-2.374827699713729,8.273439716866212
1.9996948105474672,1.7016643456593474,0.4864037370464379,10.726510720063853
9.437488676103866,2.4669643505136634,4.053108686218205,10.724472756737208
12.80242606122392,2.22394099425839,6.336010534155316,6.909233057658239
7.936505530516793,0.8089137253416733,5.811048152200007,-0.4691917445690965
-3.922369524166655,-1.4722407018960242,2.5444470235239165,-9.083299944089802
-16.315010150508396,-3.787412324780021,-1.735146029181876,-15.44565369428607
-21.825169933132827,-5.032791548141546,-4.754675640631588,-16.798977532546708
-17.284484564747963,-4.41325389890978,-5.205875271778931,-12.72846536109608
-5.8671760924883065,-2.024966123528416,-3.5159275642791874,-5.354314858659775
5.475816157937729,1.0216741121341124,-1.3270804146280575,2.0244962264982043
11.037611978114075,3.1479775239840144,-0.15190017355748986,6.855521212196956
9.85904896601328,3.2474239060414205,-0.28845656974071443,8.51700275188632
5.339474251092063,1.4109729998303124,-0.803839108765289,8.099737898758109
1.8922619298932526,-1.081483418827283,-0.49421204920748824,7.171470457573337
1.6541575395643036,-2.5475520346779037,1.0286572573018433,6.53781607364394
3.589192726597704,-1.9754661655440116,2.998331102335273,5.844964567387764
5.007792618077156,0.3307615333396156,4.114958161669571,4.157744054290166
3.8090578178957273,2.9861075650661024,3.575871480123046,0.9621559575220917
-0.17952444032854836,4.48837288616622,1.691048148353217,-3.187072720134173
-5.2369310970090535,4.221063216531162,-0.3711495837131214,-6.8546053908622655
-8.741853287416756,2.7462192081224646,-1.4823411559665556,-8.628833744398186
-8.564918597565748,1.1686937570035079,-1.3942346464175819,-8.090682458061243
-4.364785979639065,0.1128268522015926,-0.8718192517391676,-6.088419922045387
1.8742037093877957,-0.7842284662185184,-1.0046797501137819,-4.027535808747938
6.720540742218066,-2.367898940912738,-2.2169946639046465,-2.673576446845743
7.45916837543746,-4.862609634156178,-3.7676094068751187,-1.4705872959875914
4.160184799885823,-7.2020847506404,-4.199592324768421,0.9242325424307666
-0.14888133165740067,-7.5421361690794315,-2.4659094958080097,5.196463702121097
-1.7394500715803491,-4.682841923309951,1.1221394518436227,10.23438210566256
0.7403592607263411,0.7477930357969873,4.906309127302461,13.432154482675667
4.979373633458777,6.402204929763301,6.912417470646735,12.427689854501097
6.788266366661547,9.630386967635259,6.147902640646005,6.969770939656059
3.5733506099581316,9.13847559175248,3.192393251579405,-0.6481857819513717
-3.440586041269682,5.644131384534928,-0.31998982046691316,-7.0350367059664975
-10.11614596159048,1.1446009834504838,-2.8486192241228374,-9.910623193946321
-12.580977047668169,-2.4836807288730327,-3.8108385702769123,-9.331126519139296
-9.942714896985654,-4.445965326112105,-3.595463199683999,-7.071742639925705
-4.444712947775758,-5.004114295708885,-2.919519570955338,-4.899794396602556
0.6495617581523809,-4.802217362555504,-2.1978260235914906,-3.3256915873637682
3.347103579020237,-4.269030558595553,-1.415547388035903,-1.8033607026353828
3.6036664658946935,-3.49864672698,-0.4332883026108667,0.08449972955513821
2.4043676018940863,-2.453530050921262,0.7039047452661812,1.7987371859639583
0.6274076604240721,-1.1319077747593433,1.7473065428837062,2.250062106403863
-1.1909146179758239,0.4208410892124655,2.4274255090065284,1.0240327764398245
-2.3706797525701937,2.1055191195872354,2.5753595755688656,-0.8406211914697678
-1.8843340912949895,3.663602156447416,2.095044513869683,-1.4023657914607706
1.0037895767206861,4.625199929213077,0.9473639349456318,0.6496294411396644
5.775563943286887,4.528746275178673,-0.7102227980739961,4.756409607261237
10.424743069629208,3.3440893310515953,-2.3526422825702085,8.6381884582873
12.449751171780472,1.6970720773320171,-3.1786667575953067,9.811723467913655
10.49029117365965,0.5485507588534095,-2.5684285543184324,7.361415470304614
5.383647162833551,0.46659530593432985,-0.6122696108373322,2.638403460121118
-0.2529828507462811,1.0926396814755472,1.7659537485129622,-1.6435497339586957
-3.754803340985389,1.3400253001554991,3.2961732886180357,-3.276532195556585
-4.277535834298135,0.2622911577957239,3.1569839519006115,-2.061370552633263
-3.3880954043626526,-2.0887549509115795,1.4960552732420893,0.12175993111130552
-3.7908666558502353,-4.554925101435585,-0.7002465139360051,0.7208702289312008
-7.018316145045073,-5.668942591633269,-2.262290059243798,-1.6138800680262206
-11.87092781032003,-4.766043973956617,-2.525260006492882,-6.036399071149305
-14.992547581349287,-2.534267265566823,-1.6003277957463964,-10.090992963222286
-13.33081699505973,-0.5441506181481096,-0.1393858289184075,-11.416250642442696
-6.621141832495627,-0.08727948299455507,1.1420641102412212,-9.30145639494351
2.127305924502796,-1.196288019335019,1.8269669985412893,-4.99856884897358
8.616802772271367,-2.594902361748677,1.863868113978553,-0.6753796141875108
10.202631579409083,-2.6283047982092818,1.4139931520330244,2.1042681690210965
7.542305070189552,-0.48507548342549134,0.678855220950381,3.2392664792616763
3.802622102981395,3.1905105506564424,-0.15959083005069916,3.778245971950164
2.1939848772726323,6.722767189829895,-0.915128737894115,4.846027619201996
3.7449015007309923,8.50982761906059,-1.4055838919934813,6.709471017020166
6.8315805349291345,7.979418375034699,-1.542191625955204,8.63826952275609
8.57843241592187,5.7488653012293565,-1.4114048686055882,9.532493895411854
6.991197879128126,2.993215745557324,-1.2195194243440857,8.73425004468353
2.3483517669790253,0.5944933685358887,-1.099221562736938,6.399874053433068
-3.0166727789817305,-1.2902033631994858,-0.9535901584457663,3.2395425655753525
-6.336080645559043,-3.0159451991715795,-0.5283800043150602,-0.0468429148402797
-6.306531010268751,-4.869967977382257,0.3048805280545413,-3.1111980336133884
-3.927220441473615,-6.622063120627424,1.3147876688574485,-5.820801316430143
-1.6506999181314412,-7.548961685001,1.9917801426021424,-7.881071163883448
-1.4685008324981046,-6.917998903313633,1.9309839388466792,-8.71431162653565
-3.412567079278715,-4.593701091876263,1.1890944895230098,-7.845345785840894
-5.649066737347998,-1.3208171210512363,0.2706144841599397,-5.491108505108534
-6.037577818475632,1.5877185487909962,-0.2751959990566417,-2.729072692079665
-3.827079563021518,3.029237251113004,-0.29790472829171194,-0.9093140162882976
-0.12419027147152796,2.837128942535552,-0.13179278003801267,-0.6770929702014937
3.1067455069969183,1.8785563473391202,-0.24808637978478126,-1.4297082517849964
4.535465692728766,1.3717047409024414,-0.787261658888344,-1.7490204533110263
4.230030025855484,1.9097768157445358,-1.3842368778041925,-0.5229520256688495
3.268453173490322,2.9900824595892828,-1.4356723304157581,2.1572941737085443
2.7423645502929763,3.4809747808740608,-0.5865144426861816,5.066782980561258
3.0060293390384647,2.661258928593726,0.9498356922389123,6.798422215215425
3.6073879937555917,0.9303626710028754,2.4736705265902237,6.777904179152935
3.7477119706280435,-0.46679560383830826,3.213121462936442,5.527150594658852
2.841689344243532,-0.5029371542777022,2.7788437968538826,4.052885648914009
0.8354860331758444,0.6902994640683282,1.3675651903508055,2.9648642613182203
-1.8277067161044003,1.8392106508958856,-0.3894517685636527,2.0742094692434656
-4.487958040376785,1.5318617336003186,-1.8039767392702952,0.7355627931330334
-6.556024068275392,-0.6029741202089528,-2.4789299568418506,-1.4389620949408128
-7.60624690561364,-3.5093442281060443,-2.425456591497031,-4.117354656211274
-7.304142916705136,-5.431160781818462,-1.9311521506626463,-6.386177882933448
-5.42205062526373,-5.178643801764842,-1.3302981819733957,-7.33358273656731
-2.106141055699208,-2.9479633532006493,-0.8514643047028968,-6.605495123752946
1.8454525957921089,-0.08952989828858475,-0.5987960836017016,-4.549167934873233
5.178252459840196,1.9360834189932787,-0.5916110589151665,-1.9208395244897196
6.964252399993915,2.5536307522949704,-0.7715666291865939,0.5446492379582332
7.334602229063219,2.2484332575375245,-0.9806209937596626,2.3750506644263725
7.273404513829466,1.8639806450019185,-0.9875135661985152,3.3353874158816774
7.385604170518393,1.707383960304035,-0.5978202457589941,3.330608966822195
6.781850783800209,1.2901280824047237,0.2267365799968086,2.4536761366732764
3.500492765062993,-0.05899917911983363,1.3502192599971967,1.1493039486612073
-3.42867862774284,-2.2875198805578156,2.56007588135905,0.21732878610193637
-12.016677074102502,-4.3068928743818224,3.668999657819976,0.4397386399803473
-17.620014351079135,-4.659758865007159,4.506412951661467,1.9871795512370667
-15.933453406684501,-2.6684651458948223,4.825168720676687,4.091685769336895
-6.532636974389518,0.9021916156189066,4.282214461435613,5.37964739454499
6.077683195806458,4.253079677035358,2.614373057987366,4.741861979406377
15.12724733992068,5.721342888282453,-0.06811610748668806,2.1173894923024092
16.087681211022566,4.799757694975214,-3.1172818198087184,-1.4305008611156784
9.557617492725976,2.284321865234546,-5.5182675115340105,-4.420358629814104
0.38985292922864323,-0.41467843701145474,-6.361620358190132,-5.890380614616216
-6.02319350221043,-2.1571341054875055,-5.342663148096944,-5.867021418578189
-7.289956493038106,-2.5403205274515708,-2.9687227209552445,-5.09628193891597
-4.876762502384595,-1.8310916632033414,-0.3320818063715231,-4.366811729058219
-2.150499603286309,-0.6488235377120007,1.4349295536606128,-3.9888877283561954
-1.5406285096914725,0.3333457035349573,1.7324230248378676,-3.73155098361107
-2.969452736560624,0.6454621257218942,0.7886651034671045,-3.0962390752695916
-4.338937618395909,0.27862455537626823,-0.49490870163325285,-1.6312256989139038
-3.336245197907096,-0.207201197703924,-1.0979567995148436,0.8621661632545036
0.7989674479550463,0.011687076353151696,-0.5395608698701843,4.190237518256984
6.583890267984581,1.3232969769411693,0.7828965387397729,7.671946996785616
11.005092352134923,3.094294367258139,1.8635106196305073,10.22132143672366
11.250451020678607,3.8377775429228675,1.8526684213297744,10.7478479290756
6.511782282430407,2.2367016096252774,0.779421448328199,8.757543885487715
-1.2801607372172974,-1.6888618901811396,-0.37661049025318805,4.750566560644961
-8.421643328027404,-6.27817042290664,-0.4249625419236417,0.046105249812398795
-11.619565559360801,-9.181015330968297,1.0028201013278748,-3.9199938668821765
-9.93939572308184,-8.902271034918808,2.9850430185778327,-6.332455098366203
-5.130813643924544,-5.737860093581448,3.8954499444222552,-7.226084445467639
-0.14606331268981845,-1.389628290157429,2.6795580679294413,-7.089995221367199
2.9458496548122493,2.354580446270804,-0.18161181407627963,-6.260693701845418
4.04993197456854,4.752646574516011,-2.8680198088038904,-4.67822647833469
4.449583749915802,6.180264982607111,-3.532814490638363,-2.2196875116708386
5.225940712687806,7.245810831269756,-1.7567790760850366,0.7394277570385751
6.108139393259349,7.868016938947571,1.0192028368163706,3.1496555678585856
5.703238458162772,7.203674605286266,2.4995824678126746,3.8175489683305583
2.8721774537429265,4.500225058491186,1.267675831009752,2.3246623699101034
-1.930948246951803,0.08768918841325625,-2.07472007410411,-0.4243692974618414
-6.550109128806849,-4.43678237321454,-5.270571808280448,-2.6060945698027314
-8.49393977542536,-7.10177528237589,-6.035100859103365,-2.6783537633961267
-6.784815280346048,-6.865217556635792,-3.7171556963801122,-0.49785768540196684
-2.7506207389924957,-4.276131555060451,0.27355199562799776,2.570372635081817
1.0416769563286878,-0.9615285847453799,3.5710045463277185,4.702846383756314
2.910381577764826,1.5999471926655264,4.578225939423125,4.980383250835975
3.3337771147049526,2.960529703785961,3.4448997760245383,3.899122851827392
4.057139259960463,3.538001909129422,1.6030226872775835,2.6024783531170788
5.747494608955006,3.695410256241736,0.394056194002859,1.5988534713158837
6.565119167848355,3.074590015065341,0.0403380380095163,0.2583046720778119
3.4795281840380934,0.9300128382231212,-0.19145580177584748,-2.3361800358696967
-4.4317317581453235,-2.811784434332221,-0.926094719299656,-5.968276777413321
-13.761517496467526,-6.848799022313201,-1.8280445645992685,-8.782105477615884
-18.25325608570184,-9.016174696389736,-1.8302930834817268,-8.441550263019012
-13.431491098588497,-7.7754043756985,-0.2455710744795844,-4.13448490829021
-0.6882288524528648,-3.4745459270931938,2.3162030254144463,2.3429568398393323
12.907362794594425,1.734032624735242,4.163995834929111,7.540310014899705
19.39007617032617,5.3276202137304844,3.7895196740208528,8.729814304231112
15.624238458320532,6.07474300004579,1.1250769054057081,5.820103197485875
5.389068211033468,4.639585092984127,-2.2900976222080858,1.2703249426804082
-3.782410512460012,2.761931723572131,-4.401801510602437,-1.8672253533008856
-6.334180282076125,1.7973149461256699,-4.1159499856091815,-2.1441912184052976
-2.415686304051194,1.8088770012329203,-2.0062666858730123,-0.4530083455720888
3.0297772662514504,1.815723644253272,0.2290471556586982,1.0762190094065476
4.60732869550704,0.83075015611269,1.0587083470030925,0.9180708627663847
0.5849064751138928,-1.2118238147044547,0.15862934593854414,-0.7787314614855207
-6.193275624779751,-3.313743784961551,-1.4930844596085768,-2.5708340676048125
-10.786160734747455,-4.077548712650334,-2.4075522539502856,-3.0122563750757654
-9.808082812860382,-2.672380211529674,-1.6198247135987656,-1.7491992620541919
-3.633854189176613,0.5232068551317575,0.7281880452018167,0.32615845767538776
4.060195568446755,3.9919021869302127,3.553177986209085,1.7954839914904521
8.783570107236038,5.859203479248336,5.537166118555184,1.6771464527449065
8.009745083753645,4.985885266428174,5.875847424475346,-0.006434486707749754
2.5601538216298265,1.7249474196217176,4.613690402402227,-2.3184045720743245
-4.127037946916053,-2.204717433739914,2.422743184723701,-3.997601787832223
-8.257683610331306,-4.759540178597952,0.057169491321387524,-4.159990716500579
-7.956167063225692,-4.888872596315921,-2.0871714022423156,-2.7242202052766786
-4.0923421197064185,-3.1896136411192875,-3.9987201971909467,-0.3627451308857898
0.7312036441393169,-1.3729585558294064,-5.706977746403592,1.9435348138185653
4.100698610421395,-0.9144588470118163,-6.926991916017226,3.4482786582399285
5.1548545219870405,-1.9250819433206143,-7.0560005433273085,3.950619375449508
4.571677181840583,-3.1294911314843312,-5.576723371137921,3.7253859000440603
3.546814659024516,-2.9559542172463478,-2.556260123561049,3.1875274388932957
2.797696710239756,-0.8519818902088794,1.1803314419461732,2.5640833974646298
2.313751338541087,2.223532304873332,4.387384096129347,1.8021070524629816
1.7679370645612154,4.499092273772121,6.048925250287155,0.7458130098243814
1.0169511822510364,4.699775969051871,5.911931119817893,-0.5845563209517006
0.25230854548365816,2.9387967370436043,4.552266019158604,-1.85420707025609
-0.21223322819067372,0.5416227403092937,2.940490280872629,-2.55613539746119
-0.26453352627403853,-0.9880954943293845,1.807673743586959,-2.3545962960501967
-0.17141881162535993,-1.011823782261146,1.2439066068139377,-1.3629827765652833
-0.46458089411600273,-0.0267482189428085,0.8030525418870372,-0.10229769841160599
-1.5465869189219201,0.941721660958145,0.023221935819215916,0.8640933741068674
-3.2467750453850726,1.2269336266988577,-1.055945717972361,1.321056546855727
-4.719215792310768,0.936675071747657,-1.829005208258559,1.4548109314818403
-4.926332629545471,0.6373695083894696,-1.62111131866291,1.498251641352198
-3.4583958573302005,0.7098685051896121,-0.36944857280605603,1.3144216182715516
-1.0156077511882746,1.0119489647980258,1.105067810601116,0.3875046373063616
0.9647978881497438,1.1056655369794834,1.5496561825210402,-1.663597215930369
1.3375007924077267,0.7319030954796799,0.17646018670149818,-4.475730965333902
0.11186068940859979,0.02147252349003285,-2.6819020836938616,-6.859183394123531
-1.5645416838875843,-0.7176924485582022,-5.693224189117777,-7.467280292435515
-2.257364849802606,-1.3201187190306836,-7.352787228265938,-5.767796056337234
-1.2180705755593153,-1.7996189125801236,-6.894462742190963,-2.529819420453373
1.2208932521618718,-2.107789433742211,-4.627762190794702,0.626517215250671
3.96167377817341,-2.0010431805671125,-1.5327326707298135,2.3326487666120763
5.801847289845814,-1.2988338987173589,1.4737041783872005,2.4172388794225976
6.01743047765989,-0.3094099529611852,3.9940983599218787,1.9932770015538326
4.65748325415076,0.12776110862504458,6.039894997441555,2.6171042298816327
2.4890051006974003,-0.7566976010244544,7.578810562883085,5.110823199525122
0.585793447260217,-2.8397419722435773,8.233786240345367,8.860530779735068
-0.29262225658628416,-4.858934630807588,7.447740193877495,12.063604095294913
-0.15300432245342332,-5.144691843398635,4.983810012872966,12.759194496829522
0.3234893121141618,-2.8698062283450354,1.3130448441648492,9.972185809012046
0.3779004305805731,1.1896398275106388,-2.4802283825102176,4.258785222997646
-0.24885931715315868,5.0700392691690706,-5.243478344290601,-2.628486913992993
-1.2835039484094866,6.9566983912215505,-6.344101277544647,-8.656328673729664
-2.3974236476288384,6.417945704793543,-5.870643825017298,-12.39365525162653
-3.6115186253455223,4.579104746713306,-4.361961320774468,-13.400690754005511
-5.137396495264875,3.1225958212979394,-2.373408311810115,-12.089742477822105
-6.816343181725182,2.9281606128204833,-0.2709699926113781,-9.337164157839812
-7.81436891451213,3.4326414146034776,1.6475661757338442,-6.111762727777868
-7.017294186675798,3.1945695595779906,2.9661724402051095,-3.183953731106953
-3.8725273312449886,1.1828938868697954,3.219228714691052,-0.8889082497012007
1.0239166562851663,-2.2585538724338727,2.2318661927194876,0.973060832250185
6.075210958916895,-5.546967068040273,0.40270372308266794,2.922335557019636
9.443970885936583,-6.989965989660193,-1.413970638693545,5.262595979462589
9.909253782787982,-6.01915273102116,-2.4136726944580036,7.563527209131337
7.371363165027964,-3.5753865698100835,-2.3433534966091285,8.667783330323491
2.8582889323704674,-1.3782356813260932,-1.5854524703055175,7.413609347810544
-1.883615450166673,-0.6741712844408411,-0.7723053289867133,3.6514366775188933
-5.042251611091029,-1.4136554200441618,-0.27963146330758404,-1.2469356036419152
-5.417048070468151,-2.419561673781696,-0.020367780600813307,-4.929315611088593
-2.8832251671140225,-2.3421938501578845,0.3360859403298859,-5.431099758292174
1.5225478322261254,-0.6605154721638888,0.9652003205986579,-2.4656255449190145
5.924396636250114,1.9635941386788482,1.676316026498788,2.3024423039967306
8.276993121184475,4.164626714712036,2.059358265816889,6.25925335783725
7.266776477623963,4.81268762158034,1.8467397805842432,7.465578856868344
3.149895706308846,3.7736767352061564,1.1790549643098354,5.777934202335788
-2.045110581286993,1.9886035171058305,0.5466621222868797,2.6847776835556023
-5.482274767942726,0.8039291141450761,0.4309828866627169,0.016708993722709693
-5.439007406723342,0.9823455118828373,0.9054266827883378,-1.4511993682416882
-2.8849176099017715,2.092399163241298,1.5121911053604753,-2.3897977791762877
-1.1237327675392033,2.783527539225847,1.5526870894361158,-3.991200374401534
-3.1900414114568703,1.8325749240132676,0.6168147191349167,-6.539726307109086
-8.823875791709398,-0.7976875257835695,-1.0451830076002857,-8.784156986160838
-13.811530393542197,-3.7664855221619096,-2.6316372879288,-8.788442041931036
-12.896814322378088,-5.285405325224185,-3.3422119029662465,-5.638031744251303
-4.305172722401606,-4.491480749832273,-2.9591750128992436,-0.5253536912891814
7.9749100026905335,-2.136222928622526,-1.9813859456301641,3.8457253780040013
16.54885359282055,0.027062912219214884,-1.1858255299168179,5.183041042391723
16.10914398255705,0.6773287621287067,-0.9767546487972978,3.307649324244649
7.631671519634811,-0.03453521942394841,-1.0753696940725193,0.20167263540103111
-2.3212101968410526,-0.7396661753224391,-0.8154207468423028,-1.647497877414908
-6.7255987625458005,-0.16961114464001636,0.21501762566364752,-1.2059854646682775
-3.433669867638496,1.6358997802673085,1.7446439463263392,0.4834043315386589
3.611071179534903,3.3135789154409623,2.972311232685241,1.4726634984399802
8.048608808459594,3.3757454728061105,3.170204359966112,0.7878697560775071
6.377507016328907,1.5645890174443136,2.2354369310522197,-0.6360277105867467
0.4667897218874895,-0.8409669955466649,0.7576282185984415,-0.7566992611703316
-4.466773374265614,-2.0560523101353887,-0.41655859285748664,1.7351567287443603
-4.3991449869771655,-1.2900947273649488,-0.7554113782475301,6.07802148467258
0.25051232634837967,0.5586977005731075,-0.3279543907227292,9.706146634492201
5.089650558878654,1.6205548786075819,0.3536415822416277,9.950179595976962
5.31516771629344,0.6246351046967027,0.7572637488749552,5.938809298037989
-0.48405492764112246,-1.940769376522506,0.6875496082281056,-0.6395539401926339
-9.078754143706005,-4.042432358967725,0.3384762490176356,-6.4460299093774385
-14.73419173997554,-3.6020761014424054,0.04227407548309368,-8.503748738639581
-13.206270468994244,-0.19155649345942138,-0.06898230877206532,-6.055114907667521
-4.836561639961915,4.37205748942766,-0.20964125857764135,-1.0901006491249956
5.438190025795526,7.071733396162139,-0.7517492221957104,2.8381659119819105
11.294741885121496,5.726005320585819,-1.8240919456154,2.8339923390801913
9.32177146160031,0.5963530267929417,-3.031842064885614,-1.4681151643437638
1.376853901937243,-5.6102798096056885,-3.590986070956081,-7.617982247459299
-6.760362622006027,-9.401868923290689,-2.8592502739309182,-11.889047910777846
-9.517056458227412,-8.691776993887391,-0.8841762776049502,-11.64069331385237
-5.4083011551378375,-4.01675552775809,1.4971557614175308,-6.913841816772066
2.1874774346403507,1.9893428741843668,3.157276453484187,-0.2105930269797392
7.833136341188229,6.379297923658291,3.4390258338116544,5.292481039149208
8.173655189927745,7.623740868065484,2.592935848427887,7.762880117931251
4.24970509019593,6.16698268738601,1.5323894630095285,7.562068633873197
0.3386701064776187,3.641807884612137,1.081428098924894,6.478709327441153
0.3558656255585952,1.5175742858039913,1.3020759774471298,6.096712491534253
4.632016093561402,0.2124124072969632,1.4447744761641457,6.595066821464588
9.527716055913737,-0.8003895652106695,0.5936648902369867,6.8231603432136625
10.199794921678375,-2.1557537791746637,-1.4692688812960346,5.457227301808018
4.456677576368271,-3.7974184740712866,-3.870571059443102,2.2286421429794587
-5.270081999123816,-4.886813030743078,-5.110317057739444,-1.77969202871811
-13.504988982020365,-4.501605992364607,-4.136676719387305,-4.9777069352915655
-15.80067232400944,-2.547020183616731,-1.2531013687797687,-6.508692094432239
-12.109720453485094,-0.06781296049016847,1.9053970094964123,-6.801195287560662
-6.580826881135381,1.4261971650951788,3.45038546981629,-6.9324069037331375
-3.755191442095749,1.1782241820157313,2.643685521795872,-7.363376310105094
-4.345134622541934,-0.07120977930424645,0.5180751283308673,-7.233633623033071
-4.456993513816587,-0.5760595194829509,-0.8857501982186534,-4.985726638281921
0.6936825252366523,0.9322444415977467,-0.16670984374346812,0.08941787223230191
11.630752376110335,3.9655589375468585,2.214655759356428,6.719035574664172
22.76529672267013,6.388397302798352,4.211599435072031,12.046146093781216
26.006838169912267,5.998544278557936,3.836148061045479,13.423926080296063
17.204608131575053,2.356280377157154,0.8548562421527369,10.244282545160084
0.03506855847713506,-2.684756458131499,-2.906176362786095,4.339142990939515
-16.1269653265455,-6.260034504616961,-4.960869906398269,-1.3534963576505397
-22.789931354570445,-6.573293602719021,-4.132551687454029,-4.759457827047032
-18.105090411296587,-4.081298302086161,-1.4504683637625608,-5.735107572610963
-7.3679044080568215,-0.8844289966450418,0.7690499665378587,-5.556125223179363
1.6684289276989022,1.0377838954332168,0.8594591981188143,-5.49719095259637
4.4909377315160155,1.202796286649631,-0.8824504663394965,-5.804084235334166
2.0962503023906405,0.5615780815623308,-2.577510482049608,-5.815088390263251
-1.2300545737724438,0.2960312041894432,-2.4488069712940734,-4.881892163939443
-1.9793946052177283,0.7127109245313231,-0.34104799466915714,-3.109760975169227
0.20473599265675066,1.192131301431893,2.191191071039828,-1.2648609720350634
3.223570501129255,1.0493653014878528,3.240048574851406,-0.04753188305137581
4.888175382824179,0.3349622719129406,2.1583134083150988,0.5294811374982267
4.60501412465802,-0.21234711879193252,0.08273946550559544,1.1135180859758818
3.2755437310658686,0.05838809750110965,-1.0310813787625353,2.425897483988083
2.10869231709351,1.0285212529166678,-0.03436752759194624,4.659032555562018
1.7097819288083824,1.8988194594966297,2.459462062690603,7.320120474506768
2.072913367824961,1.940425410111026,4.540012554757011,9.548601873049716
3.0219839481481277,1.1610856247729382,4.4840882938451765,10.572699990618343
4.328481631605928,0.24133555329895748,2.0652188104884823,9.960294987287778
5.342229384212745,-0.1894248903721449,-1.3259913477744023,7.59502468130654
4.755012541590601,-0.22051858161550744,-3.787347944612462,3.582027288554389
1.2099667083026315,-0.5827784839938972,-4.300466998745058,-1.689872875408204
-5.333421253683508,-1.833854369403222,-3.3013247496879337,-7.348050357211506
-12.598000025293022,-3.5591520072641494,-2.0536910941525783,-11.996224886886074
-16.66782735008911,-4.434805807295205,-1.4699519442348543,-14.138594167332265
-14.506408003750478,-3.2783979471083957,-1.4378822751148312,-12.998521380158703
-6.6701964751783285,-0.2588656210939766,-1.1815027765126875,-9.179998144248133
2.2367649717981757,2.87416944601473,-0.21242074391589555,-4.51514102200107
6.461211294040812,3.956037097802283,1.0892625893110983,-0.9687149915891544
3.6016162510795704,2.1512384565788265,1.8241376054078167,0.6982068891201917
-2.9572485721167454,-1.1912984986862027,1.4912612384803576,1.4142609033237425
-6.225100611938397,-3.428537464590111,0.5544662676285554,2.891539197275266
-1.2196682398089786,-2.662484367047434,0.07008532568239811,5.947880341455856
10.436168832550198,0.7171063682497355,0.6912971471876966,9.463544660382885
21.042829272851563,4.297009107140746,1.9782252627221535,10.991016196169216
22.505422814573357,5.528852727480254,2.6905162053208382,8.682372704660786
12.73727680832557,3.691223208992896,1.8550637799926684,3.0059984850108714
-2.4877243371914473,0.33444684778861433,-0.3061310090697509,-3.226758237369733
-13.82008255016738,-2.0763402408930998,-2.4066155777661113,-6.682039147542135
-15.267819119157531,-2.1179999749029585,-2.9047405984838437,-5.8227977082575535
-8.224494579316195,-0.37365042970502654,-1.3077763411500598,-1.9561749134734492
0.34041479564056004,1.2405191944440437,1.3668017191102435,1.7650509235564797
3.6209973065769416,1.0723921858140006,3.2343944904122965,2.5958156051786756
-0.12199880841076378,-1.0601765024603675,2.835103562009746,0.041544707776781056
-7.011605739594141,-3.8542443290724835,0.16902837286354608,-3.9540799457008013
-11.085724002580301,-5.493824785108529,-3.2371143485844627,-6.459688363777958
-8.721091538151866,-4.800431016718355,-5.2878500849404935,-5.5351135886098515
-0.7890997896740257,-1.8686710438168523,-4.679074822592381,-1.4175866276260267
8.379126044971587,2.023881822620447,-1.7583031463285852,3.751701822964846
13.921547530145636,5.072189643776078,1.7138248789230428,7.359871287805195
13.245945137609691,5.859349834210562,3.767925214539889,7.936532786892153
7.276501812500051,4.141131308056752,3.562788213202984,5.9209877288536985
-0.2885432876773756,1.0468453546195993,1.8744118070760225,3.116411366732722
-5.26154787111699,-1.5712284372732412,0.3560766534887757,1.2334857698292119
-5.585293448953002,-2.3602014533849602,0.1470103927979405,0.5818356349283339
-2.6623667253241408,-1.4183160191098942,0.9633637907033203,-0.07792380093470624
-0.28472527138173737,-0.15856915677544922,1.4386025248193277,-2.3389017579803464
-1.6505259837424433,-0.07242426369165915,0.43102049647399504,-6.507562711595892
-6.6161394067897525,-1.371027269110723,-1.8355814344423866,-10.885990002045853
-11.486409497248909,-2.7142052575351467,-3.8154303242228065,-12.713512891989076
-11.770541828202782,-2.3635837170186553,-3.8666072126800985,-10.17630514599541
-5.815440253738594,0.18422869366583824,-1.6249971301584352,-3.939223029796938
3.6730567909159735,3.536516857998808,1.6329188937718147,3.0737904663300495
11.526995735459344,5.368247546956854,3.915161326759688,7.57685348683975
13.865850066738432,4.235132728384493,3.9234354663776,8.087517171331896
10.633794298763814,0.7012787024469632,1.81997771543262,5.737196172727257
5.044278509880631,-3.14353180137836,-1.1203207284191032,3.1830352208561665
0.750855523873509,-5.29075431204808,-3.4888416018777195,2.5450643540123563
-0.7038232566029634,-5.1396857122798565,-4.486570310210901,3.960858907501639
-0.2538899799385883,-3.5125830836310907,-3.9984831848536926,5.750140264692103
0.2687000438883185,-1.5735876984486605,-2.2681897731187397,5.890494110594105
-0.1216328243419986,0.20263892748111867,0.30376983795413093,3.5795887715667365
-1.1254484790492758,2.0705065369280855,3.072968948941326,-0.25214382799848406
-1.9804587048319133,4.178403196666073,5.093484980103019,-3.713307359773558
-2.391023638909496,5.845471431646756,5.446120605808988,-5.298827042321778
-2.627084951925935,5.811901485658726,3.8581639768307716,-4.797229915293921
-2.907472202656969,3.354928460264823,1.0807349265447697,-3.195512953592563
-2.9148371252991163,-0.7356926451198933,-1.4359927069120826,-1.8050760723487975
-2.062327462803561,-4.323104912803402,-2.4570524777689964,-1.351029071528981
-0.2878247460948072,-5.295464344701219,-1.8021890732769805,-1.67728934844551
1.4665013346308087,-3.137781968425829,-0.43595260512791045,-2.1522195450659427
1.7509595355507985,0.5829233930443799,0.2958930901436565,-2.2977776596629043
-0.12295440207281534,3.3019590254860414,-0.294244249603127,-2.0663146192074406
-3.1011631631519117,3.324160525591565,-1.7280441542460103,-1.606728029057136
-4.794548372930214,1.0028862562270724,-2.7792045095669184,-0.8866990038205409
-3.3393483937169486,-1.7194769550178857,-2.4818488920446025,0.34156188537048465
0.6623922320566535,-3.0093910225944382,-0.9255820295584969,2.1506524273001455
4.0179109602733565,-2.6228497112534126,0.8011314862440359,4.058739774254409
3.3071953131670546,-1.8928695594841014,1.4800852052860858,5.167721974519025
-1.85889841939625,-2.2607864268625657,0.7484890763981201,4.823540813430726
-7.58968590538782,-3.705807747831335,-0.6016337838946761,3.216472545414381
-8.161485541216393,-4.556095087369559,-1.2648209399001533,1.2954221803890689
-0.7183578215620107,-2.941785780646554,-0.4934734450042996,-0.017055454080975887
11.588969584164651,1.3552772272056903,1.269078404100853,-0.6208445174036894
21.051463311068755,6.325952232460021,2.710241304537538,-1.2768884307660202
20.799073623937122,9.038731167995053,2.6689109613716506,-2.791162230375761
10.030977950125296,7.810497304769852,1.0451024050672237,-5.058154288878959
-5.16213924019213,3.4813434429615504,-1.1035844022960377,-6.855464331597919
-16.11139844213531,-1.2094582677995522,-2.3260976965037674,-6.642061070620434
-17.587209238759396,-3.5902817364563275,-1.8012471884289218,-3.7409136547109103
-10.870084857436186,-2.8057705936161255,0.12365439691768382,1.0351774030048282
-1.8694604484123984,-0.11104224909381649,2.2095808399622285,5.779738617468925
3.6783560859827116,2.286571498311447,3.1595768728424742,8.573670401419015
3.9508816278053653,2.7950236943100824,2.425251031709647,8.47770962928091
1.2084587978068808,1.2937043377260578,0.4976684006981197,5.86500575261664
-0.9470576150876997,-1.1066965457028755,-1.4443228015691012,2.0582156170254997
-0.5487245503279936,-2.981910193511416,-2.287257187432279,-1.3800773471059402
1.7111017245949698,-3.481595989779429,-1.6908490548578612,-3.3180969135125666
3.6086559497904496,-2.7114166263844592,-0.31955371008749084,-3.4533363207352314
3.3200835476250394,-1.5299070152460503,0.5887499468040096,-2.334664030644907
0.686120529642618,-0.9578042943158821,0.09926466219919877,-0.9962437032793452
-2.8073371697634943,-1.5247215304481363,-1.6687939089280988,-0.3474238657555671
-5.077272787313347,-2.904332910355464,-3.499358727429539,-0.6532635676027938
-4.823567248876283,-4.078283507856412,-3.878988525450298,-1.4615997026458045
-2.4477275772085445,-3.977296996392315,-2.1247662968120706,-2.0497843426313076
0.11012561886165731,-2.2041242394487277,1.0049642697139813,-2.0451014568658525
0.6829826361226682,0.6736653002844694,3.739561542090684,-1.693373772538816
-1.4195927325551547,3.497108733010951,4.504055547684372,-1.5279654882827518
-4.577860087434242,5.290812060269483,3.021652965523798,-1.7276294678496675
-5.734538655799152,5.851608881739959,0.4853965982854201,-1.7730305081637296
-2.5678597185608054,5.704195086074565,-1.3201896290459083,-0.7973699954528174
4.557983275455424,5.486516431491033,-1.2802677944315835,1.5798738852188596
12.3949899708594,5.295237820078149,0.3274096399675669,4.634208405860401
16.68285147598361,4.560392730772835,2.1273725024117383,6.749125013172793
14.874120000016248,2.5823085214940424,2.678248745108826,6.438249122499059
7.81407153883661,-0.7054343667668689,1.4604740866068366,3.4550278322359365
-0.8327980057890735,-4.414189696368567,-0.8632311156826195,-0.8907507953002013
-7.025270465259306,-7.154868649800022,-3.0182299087564233,-4.518111910598384
-8.901305824058396,-7.948958429426306,-4.012437689659339,-5.894976622936913
-7.57201383606637,-6.851765209020831,-3.66015112430684,-4.884367559332662
-5.617959408499701,-4.762266226453348,-2.405791864552971,-2.5125326217390223
-4.633462907156045,-2.6129707990308075,-0.7347076040715227,0.017093875213832755
-4.04066708592028,-0.7085997362421844,1.1992712540426183,2.1177884974368912
-2.3139862233003217,1.1652808146540536,3.352442799610061,3.747711389099533
0.5694449043110323,3.0282672086514846,5.244341725823283,4.721654895052026
2.105313259492922,4.219811854571197,5.78293961845449,4.323792949767479
-0.7467820304141152,3.8077793699418945,3.8953204684589995,1.8458050393918184
-7.951268941896893,1.6281801391269648,-0.40300224086543884,-2.348077278329835
-14.712201869710915,-1.0937480186192963,-5.467068903018967,-6.3647131649646145
-14.156736863984431,-2.3698592150420046,-8.719597801903403,-7.697020397159403
-2.956064804001364,-1.0073722377964551,-8.28195718513949,-5.022957882801684
14.758553859421934,2.225476204388564,-4.328514785332361,0.5725721367464658
29.08872609032909,4.982993056003698,0.9701897941540021,6.11512953213395
31.052500100015457,5.120720928738648,4.954590964544773,8.743928776963202
19.17827628239174,2.424666790134886,6.266891786242805,7.6467158660792975
0.6457248502831352,-1.2013896636037,5.51109322900271,4.377181048269913
-14.010714249114457,-3.2840082791324146,4.326617299647162,1.351816798938289
-18.339290882693067,-2.7595231480973332,3.7613489415916974,-0.16009675987031702
-13.680132081354921,-0.7267519560199734,3.3855307996368222,-0.8689488651665515
-6.664274627966275,0.5994492551800368,1.887844824359792,-2.4979910821528084
-3.2176578266232125,-0.22254456332526293,-1.4265617228416883,-5.933040825574412
-4.257079839693108,-2.7183511502747555,-5.604634723898114,-10.103748615367508
-6.198088886772194,-4.956377169661349,-8.445914641482451,-12.545534788421262
-5.045891902203624,-5.101625646404287,-8.081655856222678,-11.194963779625862
-0.13142862753165593,-2.7585521736564624,-4.482321005463246,-6.010121163493635
5.52183986628233,0.8692016913077069,0.3276215655284607,0.8108980263847613
8.006627775955947,3.945214241161052,3.5710071478593313,6.157728704696623
5.8170480058927065,5.229145679667525,3.601025365121775,7.921519074732096
0.9575278659233727,4.685070587711999,0.9974504337381891,6.192383346450882
-2.718918900626764,3.1969212777538716,-1.906091833022266,3.012133564324448
-2.4087129432583034,1.7758941696440567,-2.702022159042206,0.9582959792213569
1.7110960536714006,0.8876197876384424,-0.5788398764973205,1.5578022613910967
6.775324877378443,0.307742329653509,3.1913962059091645,4.524049544831525
9.359020521316374,-0.50539313669253,6.231317529595623,8.163026507638552
7.849385747113427,-1.8537011833288182,6.723374309317472,10.509987039246184
3.4073954495754823,-3.4567461102560606,4.54011124734587,10.38400430262993
-1.0764399526826245,-4.545322381892193,1.1029531511767767,7.776494668265862
-3.1771390455874555,-4.323155175184678,-1.7696356637125632,3.5521594306677797
-2.6179319484106696,-2.5005253202187507,-3.0566500083682535,-1.1346429411485819
-1.2302420236231748,0.4331208239662551,-2.915846196011347,-5.289866864580705
-1.3446656039565157,3.3670091561821454,-2.155761247244667,-8.257223384677534
-3.9395985770790953,5.076377037629192,-1.4215850918702737,-9.735029705357004
-7.933055441882575,4.811368913206263,-0.8140266791859743,-9.769201561614647
-11.004613142504928,2.665531261257311,-0.14423031372687262,-8.73359048743598
-11.191817908796224,-0.46060845205153156,0.5702429439971899,-7.229757348150628
-8.100082697693487,-3.279699585357959,0.9168904036970196,-5.886763184986514
-3.0235224106564256,-4.701615941941547,0.3969246886643702,-5.131144928486842
1.9356826685559576,-4.2778480110016295,-1.067479510498602,-5.021401113906685
5.1082447318848185,-2.300831046836104,-2.905045520836932,-5.202662588479755
6.106877188045671,0.42055335576228564,-4.175507500902718,-5.004357785587293
5.802314532027313,2.9068683183045527,-4.1589481687671155,-3.689321573387192
5.4748760688390306,4.288231733156362,-2.8087682655747748,-0.8108685549526802
5.756970880229864,4.001285343001919,-0.7388002619517385,3.468012597750576
6.193056818968598,1.992329631024548,1.2183037493938529,8.297117304924882
5.800710013105783,-1.0932753695419783,2.524076319900348,12.414639337416133
4.153223460628863,-3.9562539811643016,3.13952148867298,14.674032898126947
1.9735280560143302,-5.13538449156765,3.3309843375570463,14.548905777509846
0.6186764921945349,-3.8193439360264647,3.3301852805084002,12.34944624308323
0.8692676604671938,-0.45575554940720814,3.1921408704124747,9.047152768498302
2.1376726978245935,3.3756046060000444,2.942358827491625,5.795784099690767
2.857998939055033,5.8553511705624715,2.7603237692266624,3.364248354330778
1.7394406265616753,5.989732715294348,2.880606473529613,1.7524623334643643
-1.2023269830107555,4.086053858485967,3.215362680277854,0.23091209469516047
-4.67475815073922,1.342312568753731,3.1009882596956415,-2.132420441485545
-7.0914287726532494,-1.050319190165987,1.5928786409343882,-5.71304627060369
-7.667196213976828,-2.578247146126783,-1.7410653513215213,-9.85674540442145
-6.831127616866874,-3.428407627154673,-6.139395121183726,-13.126212263879424
-5.774611716855054,-4.015812294794293,-9.764270811085286,-14.204639985120014
-5.536390040639479,-4.502214270892033,-10.721732783108074,-12.826306310871232
-6.2327434866503015,-4.667971925696417,-8.313504079862904,-9.986342958433704
-6.904054648997812,-4.130400563845713,-3.571972137247004,-7.206630364593621
-6.110683566010995,-2.651157153403531,1.3620792656348075,-5.409780180782307
-2.9654833740210744,-0.30383022860018083,4.571333041569433,-4.304789810524829
2.0751713304536854,2.537660825350418,5.426554681900795,-2.7798442028493007
7.296617712255354,5.2917547811899395,4.660898269000787,0.0370485652976689
10.73028362653677,7.259680719420625,3.5279334903631505,3.9365802749405976
11.369259344923377,7.735478914326971,2.79149452640213,7.694614879847505
9.669103800731818,6.217552917940519,2.3272411511214317,9.976370781312362
