timestamps,TP9,AF7,AF8,TP10,Right AUX
1680449283.965,-53.223,-39.551,-27.832,-49.805,0.000
1680449283.969,-51.270,-39.062,-32.227,-48.340,0.000
1680449283.973,-42.969,-34.180,-31.738,-48.828,0.000
1680449283.977,-44.434,-30.762,-26.367,-38.574,0.000
1680449283.981,-54.199,-30.273,-27.344,-27.832,0.000
1680449283.985,-49.805,-27.832,-25.879,-23.438,0.000
1680449283.989,-54.688,-30.273,-18.066,-39.551,0.000
1680449283.992,-58.105,-31.738,-21.973,-51.270,0.000
1680449283.996,-52.734,-29.785,-29.785,-45.898,0.000
1680449284.000,-51.270,-32.227,-25.879,-53.223,0.000
1680449284.004,-47.363,-28.809,-22.949,-61.035,0.000
1680449284.008,-26.855,-27.344,-28.809,-50.293,0.000
1680449284.012,-25.391,-32.715,-33.691,-39.062,0.000
1680449284.016,-32.715,-37.598,-34.668,-29.785,0.000
1680449284.020,-27.344,-37.109,-34.180,-22.949,0.000
1680449284.024,-32.227,-36.133,-30.762,-19.043,0.000
1680449284.028,-40.039,-37.109,-27.832,-15.625,0.000
1680449284.031,-30.273,-35.156,-25.391,-23.926,0.000
1680449284.035,-31.738,-32.715,-19.531,-26.367,0.000
1680449284.039,-38.086,-30.273,-21.484,-12.695,0.000
1680449284.043,-48.340,-29.785,-21.484,-6.836,0.000
1680449284.047,-53.223,-30.762,-19.043,-14.160,0.000
1680449284.051,-42.969,-33.691,-27.832,-34.668,0.000
1680449284.055,-58.594,-36.133,-33.691,-37.598,0.000
1680449284.059,-57.129,-36.621,-29.785,-25.879,0.000
1680449284.063,-39.062,-36.133,-25.391,-35.156,0.000
1680449284.067,-51.758,-33.203,-21.484,-48.828,0.000
1680449284.071,-68.359,-30.273,-24.414,-61.523,0.000
1680449284.074,-49.805,-34.180,-35.645,-58.105,0.000
1680449284.078,-36.621,-34.180,-30.762,-47.363,0.000
1680449284.082,-28.320,-31.250,-25.391,-41.504,0.000
1680449284.086,-22.949,-27.832,-29.785,-38.574,0.000
1680449284.090,-19.043,-32.227,-27.344,-25.391,0.000
1680449284.094,0.000,-36.621,-18.066,-0.977,0.000
1680449284.098,-23.438,-30.762,-21.484,-9.277,0.000
1680449284.102,-39.551,-26.855,-26.367,-20.996,0.000
1680449284.106,-24.414,-26.367,-25.391,-8.789,0.000
1680449284.110,-22.461,-24.414,-25.879,-6.836,0.000
1680449284.114,-25.391,-18.555,-22.949,-13.184,0.000
1680449284.117,-22.461,-17.090,-18.066,3.418,0.000
1680449284.121,-7.812,-18.066,-18.066,4.395,0.000
1680449284.125,-16.602,-23.926,-22.461,-4.883,0.000
1680449284.129,-34.180,-30.273,-28.320,-13.184,0.000
1680449284.133,-26.367,-32.715,-33.691,-21.973,0.000
1680449284.137,-27.344,-31.738,-27.832,-6.348,0.000
1680449284.141,-27.344,-24.902,-22.461,-16.113,0.000
1680449284.145,-22.949,-24.414,-25.879,-45.410,0.000
1680449284.149,-20.996,-24.902,-25.879,-62.500,0.000
1680449284.153,-30.273,-22.461,-27.832,-54.688,0.000
1680449284.156,-26.855,-27.832,-27.344,-21.484,0.000
1680449284.160,-20.996,-32.227,-24.414,-5.371,0.000
1680449284.164,-12.207,-32.227,-28.809,-35.645,0.000
1680449284.168,-27.344,-31.738,-26.855,-48.828,0.000
1680449284.172,-42.969,-30.762,-20.996,-20.996,0.000
1680449284.176,-18.555,-25.391,-18.555,-14.648,0.000
1680449284.180,-13.672,-26.367,-19.531,-46.875,0.000
1680449284.184,-27.832,-31.250,-19.043,-53.223,0.000
1680449284.188,-34.180,-36.133,-25.391,-45.898,0.000
1680449284.192,-33.203,-38.086,-27.344,-30.762,0.000
1680449284.196,-27.832,-33.203,-25.879,-21.484,0.000
1680449284.199,-6.836,-30.273,-25.879,-29.785,0.000
1680449284.203,-7.812,-35.156,-29.785,-30.762,0.000
1680449284.207,-42.480,-40.039,-34.668,-32.715,0.000
1680449284.211,-31.738,-35.156,-34.180,-35.645,0.000
1680449284.215,-28.320,-33.203,-31.738,-40.527,0.000
1680449284.219,-40.039,-37.109,-31.250,-28.320,0.000
1680449284.223,-33.691,-38.574,-33.203,-6.348,0.000
1680449284.227,-35.645,-36.621,-32.227,-27.832,0.000
1680449284.231,-43.457,-35.645,-28.809,-40.527,0.000
1680449284.235,-30.762,-32.715,-31.738,-28.809,0.000
1680449284.238,-21.973,-28.809,-33.691,-32.715,0.000
1680449284.242,-32.227,-30.762,-36.133,-40.527,0.000
1680449284.246,-39.551,-34.180,-34.180,-34.180,0.000
1680449284.250,-41.504,-34.668,-28.809,-31.250,0.000
1680449284.254,-37.598,-32.227,-27.832,-29.785,0.000
1680449284.258,-24.414,-30.762,-23.438,-11.719,0.000
1680449284.262,-22.949,-33.691,-29.297,-24.414,0.000
1680449284.266,-34.668,-31.738,-35.156,-63.965,0.000
1680449284.270,-29.297,-30.273,-31.738,-60.059,0.000
1680449284.274,-5.859,-38.086,-22.461,-31.250,0.000
1680449284.278,-23.438,-38.086,-22.461,-25.879,0.000
1680449284.281,-59.082,-33.691,-27.832,-24.902,0.000
1680449284.285,-58.105,-28.320,-29.785,-46.387,0.000
1680449284.289,-51.758,-28.320,-33.691,-45.898,0.000
1680449284.293,-39.551,-27.344,-32.715,-24.902,0.000
1680449284.297,-29.297,-25.879,-23.926,-20.020,0.000
1680449284.301,-30.762,-33.691,-19.043,-14.648,0.000
1680449284.305,-16.602,-39.551,-21.973,-29.297,0.000
1680449284.309,-9.277,-35.645,-23.926,-41.992,0.000
1680449284.313,-15.625,-29.297,-23.926,-24.902,0.000
1680449284.317,-5.859,-28.809,-16.602,2.441,0.000
1680449284.321,-19.531,-35.645,-10.254,-0.488,0.000
1680449284.324,-57.617,-36.621,-19.043,-30.273,0.000
1680449284.328,-47.852,-35.156,-20.996,-47.363,0.000
1680449284.332,-22.461,-33.203,-20.996,-47.363,0.000
1680449284.336,-36.621,-32.715,-22.461,-32.227,0.000
1680449284.340,-38.086,-33.203,-23.926,-24.414,0.000
1680449284.344,-35.645,-35.156,-28.809,-31.738,0.000
1680449284.348,-39.551,-34.668,-30.273,-46.875,0.000
1680449284.352,-16.602,-25.391,-31.738,-47.363,0.000
1680449284.356,-21.973,-22.461,-32.227,-35.645,0.000
1680449284.360,-47.363,-26.855,-26.855,-29.785,0.000
1680449284.363,-44.434,-28.320,-18.066,-33.691,0.000
1680449284.367,-46.875,-28.320,-28.320,-28.809,0.000
1680449284.371,-28.320,-28.320,-31.738,-44.434,0.000
1680449284.375,-10.254,-26.855,-31.250,-51.758,0.000
1680449284.379,-38.574,-26.367,-36.621,-35.156,0.000
1680449284.383,-42.480,-29.785,-33.203,-19.043,0.000
1680449284.387,-32.715,-31.738,-30.273,-9.766,0.000
1680449284.391,-33.203,-33.691,-28.320,-29.297,0.000
1680449284.395,-37.109,-30.762,-27.344,-45.410,0.000
1680449284.399,-55.176,-25.391,-26.855,-45.898,0.000
1680449284.403,-41.016,-24.414,-29.297,-49.316,0.000
1680449284.406,-32.715,-27.832,-30.273,-53.223,0.000
1680449284.410,-29.785,-28.320,-28.320,-46.387,0.000
1680449284.414,-29.297,-27.832,-31.250,-19.043,0.000
1680449284.418,-39.551,-31.250,-29.297,-2.930,0.000
1680449284.422,-33.691,-31.738,-23.438,-18.066,0.000
1680449284.426,-24.902,-32.227,-25.879,-37.598,0.000
1680449284.430,-35.156,-30.762,-30.762,-51.270,0.000
1680449284.434,-46.875,-31.250,-25.879,-43.945,0.000
1680449284.438,-45.898,-27.344,-20.020,-16.113,0.000
1680449284.442,-43.457,-22.949,-21.484,-10.742,0.000
1680449284.446,-34.668,-28.809,-25.391,-41.504,0.000
1680449284.449,-38.574,-36.621,-28.809,-53.223,0.000
1680449284.453,-62.012,-37.109,-27.832,-41.504,0.000
1680449284.457,-62.988,-34.668,-27.832,-42.480,0.000
1680449284.461,-47.363,-29.785,-32.227,-43.457,0.000
1680449284.465,-27.344,-30.273,-34.180,-44.922,0.000
1680449284.469,-11.719,-36.621,-28.809,-52.734,0.000
1680449284.473,-53.711,-32.715,-32.715,-50.293,0.000
1680449284.477,-63.477,-29.297,-34.668,-43.457,0.000
1680449284.481,-35.645,-29.297,-31.738,-25.391,0.000
1680449284.485,-38.574,-30.762,-32.227,-26.367,0.000
1680449284.488,-33.691,-23.438,-30.762,-32.227,0.000
1680449284.492,2.930,-20.996,-33.203,-30.762,0.000
1680449284.496,-0.977,-24.414,-34.668,-45.410,0.000
1680449284.500,-44.434,-20.996,-31.250,-38.574,0.000
1680449284.504,-49.316,-22.461,-33.203,-25.879,0.000
1680449284.508,-41.016,-25.391,-32.227,-25.391,0.000
1680449284.512,-37.598,-31.250,-26.855,-41.016,0.000
1680449284.516,-28.809,-32.227,-23.438,-37.598,0.000
1680449284.520,-12.695,-26.367,-24.902,-11.230,0.000
1680449284.524,-12.207,-34.180,-28.320,-40.039,0.000
1680449284.528,-33.691,-36.133,-28.809,-56.641,0.000
1680449284.531,-41.016,-26.855,-27.344,-50.781,0.000
1680449284.535,-43.457,-27.832,-25.879,-48.828,0.000
1680449284.539,-37.109,-33.691,-28.809,-32.715,0.000
1680449284.543,-29.297,-33.203,-27.832,-27.832,0.000
1680449284.547,-45.410,-32.227,-28.320,-30.273,0.000
1680449284.551,-51.758,-33.203,-31.250,-39.551,0.000
1680449284.555,-29.785,-31.738,-24.414,-41.016,0.000
1680449284.559,-28.809,-36.133,-13.672,-30.273,0.000
1680449284.563,-31.250,-36.621,-24.902,-20.996,0.000
1680449284.567,-30.762,-31.738,-31.250,-28.320,0.000
1680449284.571,-39.551,-33.691,-29.785,-39.062,0.000
1680449284.574,-52.246,-36.133,-33.203,-48.340,0.000
1680449284.578,-38.574,-32.715,-28.809,-49.316,0.000
1680449284.582,-33.203,-33.691,-28.320,-36.133,0.000
1680449284.586,-43.457,-33.691,-27.344,-38.086,0.000
1680449284.590,-33.691,-33.203,-26.367,-43.945,0.000
1680449284.594,-27.344,-32.715,-25.879,-36.133,0.000
1680449284.598,-28.320,-28.809,-25.391,-34.180,0.000
1680449284.602,-25.879,-28.320,-21.484,-26.367,0.000
1680449284.606,-26.855,-33.203,-22.461,-45.898,0.000
1680449284.610,-20.508,-29.785,-31.738,-43.945,0.000
1680449284.613,-14.160,-25.879,-26.855,-27.832,0.000
1680449284.617,-35.156,-24.902,-25.879,-46.387,0.000
1680449284.621,-49.316,-26.367,-35.156,-35.156,0.000
1680449284.625,-40.527,-34.668,-37.109,-39.062,0.000
1680449284.629,-37.109,-32.715,-34.180,-73.242,0.000
1680449284.633,-34.180,-26.367,-33.691,-63.477,0.000
1680449284.637,-18.066,-28.320,-31.250,-32.715,0.000
1680449284.641,-42.969,-26.855,-28.809,-28.320,0.000
1680449284.645,-53.711,-26.855,-30.762,-31.738,0.000
1680449284.649,-44.434,-30.273,-26.367,-45.410,0.000
1680449284.653,-30.273,-28.320,-25.879,-43.945,0.000
1680449284.656,-15.625,-28.809,-27.832,-25.391,0.000
1680449284.660,-37.598,-27.832,-29.785,-15.137,0.000
1680449284.664,-59.082,-26.855,-38.086,-32.227,0.000
1680449284.668,-46.875,-29.297,-42.969,-51.758,0.000
1680449284.672,-24.414,-28.809,-36.621,-33.203,0.000
1680449284.676,-28.320,-22.461,-28.809,-13.672,0.000
1680449284.680,-45.410,-22.949,-30.273,-12.695,0.000
1680449284.684,-44.922,-25.391,-26.855,-21.484,0.000
1680449284.688,-33.691,-20.996,-28.320,-60.059,0.000
1680449284.692,-41.504,-24.902,-31.250,-74.219,0.000
1680449284.696,-29.297,-31.250,-24.902,-54.688,0.000
1680449284.699,-30.762,-33.203,-34.180,-51.758,0.000
1680449284.703,-38.574,-34.180,-39.551,-41.992,0.000
1680449284.707,-45.410,-29.297,-31.250,-34.668,0.000
1680449284.711,-25.391,-26.855,-30.273,-52.734,0.000
1680449284.715,-17.578,-22.949,-28.320,-46.875,0.000
1680449284.719,-40.039,-28.320,-20.508,-36.621,0.000
1680449284.723,-52.246,-32.715,-17.578,-17.578,0.000
1680449284.727,-56.152,-29.785,-20.020,-17.090,0.000
1680449284.731,-45.898,-27.832,-18.066,-46.875,0.000
1680449284.735,-48.828,-25.879,-15.137,-26.855,0.000
1680449284.738,-52.734,-26.855,-10.742,-28.320,0.000
1680449284.742,-45.898,-28.809,-18.066,-44.922,0.000
1680449284.746,-45.898,-28.320,-27.344,-43.457,0.000
1680449284.750,-41.504,-30.273,-24.902,-43.457,0.000
1680449284.754,-28.809,-28.320,-26.855,-29.785,0.000
1680449284.758,-25.879,-28.320,-26.367,-8.301,0.000
1680449284.762,-31.738,-28.320,-20.020,-1.953,0.000
1680449284.766,-31.250,-28.320,-20.996,-27.832,0.000
1680449284.770,-22.461,-28.809,-21.973,-37.109,0.000
1680449284.774,-6.348,-22.949,-19.531,-20.508,0.000
1680449284.778,-23.926,-22.461,-19.531,-8.301,0.000
1680449284.781,-36.621,-23.926,-19.043,1.465,0.000
1680449284.785,-44.922,-27.344,-26.367,-13.672,0.000
1680449284.789,-51.758,-30.762,-37.598,-46.875,0.000
1680449284.793,-39.551,-27.344,-36.133,-46.387,0.000
1680449284.797,-25.879,-27.344,-27.832,-38.086,0.000
1680449284.801,-29.297,-24.414,-20.996,-22.461,0.000
1680449284.805,-40.039,-20.020,-26.855,-19.531,0.000
1680449284.809,-41.504,-24.902,-30.273,-33.691,0.000
1680449284.813,-40.039,-31.250,-27.832,-31.738,0.000
1680449284.817,-34.180,-27.832,-32.227,-30.762,0.000
1680449284.820,-26.367,-27.832,-33.203,-35.645,0.000
1680449284.824,-31.738,-31.250,-30.273,-46.387,0.000
1680449284.828,-32.715,-23.926,-26.855,-51.270,0.000
1680449284.832,-22.461,-19.531,-25.391,-43.945,0.000
1680449284.836,-13.184,-26.855,-35.645,-39.551,0.000
1680449284.840,-17.578,-26.855,-36.621,-36.133,0.000
1680449284.844,-41.016,-28.320,-27.344,-34.180,0.000
1680449284.848,-58.594,-30.273,-32.227,-28.320,0.000
1680449284.852,-57.617,-25.879,-33.203,-12.695,0.000
1680449284.856,-40.039,-30.762,-29.785,-7.812,0.000
1680449284.860,-40.527,-30.273,-31.250,-39.551,0.000
1680449284.863,-48.340,-27.344,-29.297,-52.246,0.000
1680449284.867,-45.410,-32.715,-29.785,-47.852,0.000
1680449284.871,-47.852,-36.621,-32.715,-43.457,0.000
1680449284.875,-39.062,-33.691,-30.762,-24.902,0.000
1680449284.879,-39.551,-31.250,-27.832,-24.414,0.000
1680449284.883,-39.062,-34.180,-29.785,-34.668,0.000
1680449284.887,-33.203,-38.574,-29.297,-38.574,0.000
1680449284.891,-25.879,-39.551,-28.809,-50.781,0.000
1680449284.895,-23.438,-33.691,-31.738,-49.316,0.000
1680449284.899,-50.781,-37.109,-33.691,-39.062,0.000
1680449284.903,-63.477,-41.992,-35.645,-38.574,0.000
1680449284.906,-46.387,-36.621,-38.086,-42.969,0.000
1680449284.910,-32.227,-33.203,-37.598,-51.758,0.000
1680449284.914,-16.602,-29.785,-33.203,-19.043,0.000
1680449284.918,-9.766,-31.738,-23.438,13.184,0.000
1680449284.922,-18.066,-39.551,-30.273,-27.344,0.000
1680449284.926,-35.156,-41.016,-41.504,-60.547,0.000
1680449284.930,-65.430,-41.504,-41.016,-52.734,0.000
1680449284.934,-56.641,-37.109,-34.180,-42.480,0.000
1680449284.938,-39.062,-32.227,-33.203,-30.762,0.000
1680449284.942,-34.180,-27.832,-32.227,-25.879,0.000
1680449284.945,-31.738,-24.902,-29.785,-24.902,0.000
1680449284.949,-34.180,-29.297,-28.809,-26.855,0.000
1680449284.953,-36.133,-31.738,-32.227,-39.062,0.000
1680449284.957,-27.832,-27.832,-29.297,-35.645,0.000
1680449284.961,-26.855,-22.461,-27.832,-31.250,0.000
1680449284.965,-37.109,-23.926,-29.297,-40.527,0.000
1680449284.969,-38.574,-26.367,-29.297,-41.992,0.000
1680449284.973,-45.898,-27.344,-32.715,-27.832,0.000
1680449284.977,-39.062,-32.715,-31.738,-44.434,0.000
1680449284.981,-34.180,-30.762,-27.832,-55.176,0.000
1680449284.985,-33.691,-24.414,-26.367,-39.551,0.000
1680449284.988,-33.691,-30.762,-30.273,-41.992,0.000
1680449284.992,-36.133,-33.203,-33.691,-42.969,0.000
1680449284.996,-43.945,-31.250,-33.691,-31.250,0.000
1680449285.000,-36.621,-30.762,-33.203,-14.160,0.000
1680449285.004,-25.391,-31.250,-32.715,-20.996,0.000
1680449285.008,-20.508,-29.785,-32.715,-47.852,0.000
1680449285.012,-31.738,-27.832,-26.367,-45.898,0.000
1680449285.016,-36.621,-26.367,-26.367,-42.480,0.000
1680449285.020,-16.602,-29.297,-27.832,-47.363,0.000
1680449285.024,-14.648,-31.250,-19.531,-45.410,0.000
1680449285.028,-35.156,-27.832,-25.879,-51.270,0.000
1680449285.031,-39.062,-28.809,-32.227,-44.434,0.000
1680449285.035,-23.926,-26.855,-30.273,-32.227,0.000
1680449285.039,-22.949,-20.508,-26.855,-14.160,0.000
1680449285.043,-23.438,-22.949,-30.273,-14.648,0.000
1680449285.047,-37.598,-30.273,-34.668,-48.828,0.000
1680449285.051,-23.438,-30.273,-29.297,-50.781,0.000
1680449285.055,-21.484,-28.320,-24.414,-41.504,0.000
1680449285.059,-49.805,-32.715,-27.344,-49.316,0.000
1680449285.063,-30.762,-32.227,-30.273,-44.434,0.000
1680449285.067,-14.160,-34.668,-26.367,-56.641,0.000
1680449285.070,-36.621,-36.621,-24.414,-60.547,0.000
1680449285.074,-27.832,-31.738,-31.738,-37.109,0.000
1680449285.078,-26.855,-33.691,-32.227,-27.832,0.000
1680449285.082,-47.363,-33.203,-33.203,-43.457,0.000
1680449285.086,-44.922,-30.273,-32.227,-54.199,0.000
1680449285.090,-30.273,-28.320,-32.715,-47.363,0.000
1680449285.094,-2.441,-23.926,-34.668,-37.109,0.000
1680449285.098,-10.742,-20.508,-31.738,-37.109,0.000
1680449285.102,-39.551,-24.414,-28.809,-50.293,0.000
1680449285.106,-36.621,-27.344,-30.273,-57.129,0.000
1680449285.110,-24.902,-25.391,-26.855,-42.969,0.000
1680449285.113,-27.832,-26.855,-14.160,-26.855,0.000
1680449285.117,-25.391,-29.785,-20.996,-21.973,0.000
1680449285.121,-22.461,-32.715,-33.203,-28.809,0.000
1680449285.125,-27.344,-31.738,-33.203,-39.551,0.000
1680449285.129,-32.227,-22.949,-26.855,-26.367,0.000
1680449285.133,-34.180,-23.438,-22.461,-20.996,0.000
1680449285.137,-31.738,-29.297,-22.949,-42.969,0.000
1680449285.141,-34.668,-27.832,-21.484,-39.062,0.000
1680449285.145,-34.668,-27.344,-20.508,-33.203,0.000
1680449285.149,-27.832,-29.297,-27.832,-41.504,0.000
1680449285.153,-27.344,-25.879,-27.832,-38.086,0.000
1680449285.156,-30.273,-24.414,-23.438,-30.273,0.000
1680449285.160,-13.184,-26.855,-26.855,-14.160,0.000
1680449285.164,-9.766,-23.926,-29.297,-26.367,0.000
1680449285.168,-16.602,-22.461,-26.855,-53.711,0.000
1680449285.172,-21.973,-24.414,-21.973,-43.945,0.000
1680449285.176,-28.809,-23.926,-19.531,-22.461,0.000
1680449285.180,-6.836,-28.320,-22.949,-13.184,0.000
1680449285.184,-0.488,-25.879,-21.973,-19.531,0.000
1680449285.188,-31.250,-25.879,-22.461,-39.551,0.000
1680449285.192,-39.062,-28.809,-23.926,-33.691,0.000
1680449285.195,-36.133,-25.879,-24.902,-14.648,0.000
1680449285.199,-32.715,-28.809,-27.832,-9.277,0.000
1680449285.203,-32.227,-27.344,-24.902,-27.344,0.000
1680449285.207,-33.691,-19.043,-24.414,-40.527,0.000
1680449285.211,-41.504,-27.344,-33.203,-39.062,0.000
1680449285.215,-54.199,-36.621,-40.039,-52.734,0.000
1680449285.219,-40.039,-38.574,-40.527,-48.340,0.000
1680449285.223,-13.672,-33.691,-40.527,-27.344,0.000
1680449285.227,-18.555,-29.785,-36.621,-21.484,0.000
1680449285.231,-38.574,-28.809,-33.203,-45.410,0.000
1680449285.235,-52.734,-27.832,-31.738,-51.270,0.000
1680449285.238,-41.016,-25.391,-30.762,-42.480,0.000
1680449285.242,-26.367,-21.973,-30.273,-39.062,0.000
1680449285.246,-14.648,-24.414,-31.738,-34.668,0.000
1680449285.250,-25.879,-28.809,-33.203,-39.551,0.000
1680449285.254,-37.598,-26.367,-26.855,-22.949,0.000
1680449285.258,-25.391,-24.414,-23.926,-15.137,0.000
1680449285.262,-11.230,-29.785,-26.855,-20.996,0.000
1680449285.266,-8.301,-36.621,-28.809,-27.344,0.000
1680449285.270,-19.043,-34.180,-28.320,-29.785,0.000
1680449285.274,-26.367,-32.715,-24.902,-22.949,0.000
1680449285.277,-29.785,-31.738,-23.438,-15.625,0.000
1680449285.281,-45.898,-30.762,-25.391,-35.156,0.000
1680449285.285,-46.387,-32.715,-27.832,-41.992,0.000
1680449285.289,-23.926,-30.273,-30.762,-26.367,0.000
1680449285.293,-19.531,-26.855,-28.320,-9.277,0.000
1680449285.297,-20.508,-21.484,-23.438,-21.484,0.000
1680449285.301,-25.391,-20.996,-24.414,-38.574,0.000
1680449285.305,-33.203,-31.738,-28.320,-44.922,0.000
1680449285.309,-19.531,-39.062,-25.879,-36.133,0.000
1680449285.313,-35.156,-32.715,-24.902,-22.949,0.000
1680449285.317,-49.805,-29.785,-27.832,-29.785,0.000
1680449285.320,-31.738,-33.691,-30.273,-35.156,0.000
1680449285.324,-31.250,-37.109,-29.297,-41.016,0.000
1680449285.328,-47.852,-38.086,-33.691,-55.176,0.000
1680449285.332,-42.969,-37.109,-31.250,-47.852,0.000
1680449285.336,-39.551,-41.504,-27.832,-34.668,0.000
1680449285.340,-39.062,-39.062,-31.738,-28.809,0.000
1680449285.344,-27.832,-33.691,-33.691,-25.879,0.000
1680449285.348,-32.227,-35.645,-33.203,-33.691,0.000
1680449285.352,-39.551,-37.598,-29.297,-49.805,0.000
1680449285.356,-32.715,-34.180,-25.879,-28.809,0.000
1680449285.360,-16.602,-24.414,-26.855,-16.602,0.000
1680449285.363,-21.484,-20.020,-27.344,-39.551,0.000
1680449285.367,-35.156,-27.832,-32.227,-44.922,0.000
1680449285.371,-20.996,-36.133,-37.109,-41.992,0.000
1680449285.375,-16.602,-33.203,-37.109,-49.805,0.000
1680449285.379,-12.207,-27.344,-30.762,-36.133,0.000
1680449285.383,-33.203,-30.762,-27.344,-27.344,0.000
1680449285.387,-46.875,-36.133,-29.785,-38.086,0.000
1680449285.391,-22.461,-32.715,-32.715,-33.691,0.000
1680449285.395,-17.090,-32.715,-34.180,-32.715,0.000
1680449285.399,-37.109,-40.527,-25.391,-35.156,0.000
1680449285.402,-51.270,-41.016,-28.320,-25.879,0.000
1680449285.406,-39.062,-37.109,-32.227,-31.250,0.000
1680449285.410,-20.508,-40.039,-36.621,-42.969,0.000
1680449285.414,-50.293,-41.992,-41.992,-35.645,0.000
1680449285.418,-60.059,-36.133,-38.574,-38.086,0.000
1680449285.422,-34.668,-33.691,-36.621,-43.945,0.000
1680449285.426,-32.227,-30.762,-33.691,-44.434,0.000
1680449285.430,-36.621,-31.738,-33.691,-40.527,0.000
1680449285.434,-23.926,-32.715,-35.156,-36.621,0.000
1680449285.438,-19.531,-32.715,-34.180,-25.879,0.000
1680449285.442,-36.621,-33.203,-30.273,-30.273,0.000
1680449285.445,-50.781,-33.203,-30.762,-38.574,0.000
1680449285.449,-47.363,-31.250,-35.645,-25.879,0.000
1680449285.453,-35.645,-28.320,-32.715,-20.020,0.000
1680449285.457,-22.949,-26.855,-28.809,-14.160,0.000
1680449285.461,-3.418,-23.926,-29.785,-23.438,0.000
1680449285.465,-4.395,-25.391,-38.086,-46.387,0.000
1680449285.469,-24.414,-31.738,-41.016,-57.129,0.000
1680449285.473,-33.691,-31.250,-36.621,-50.781,0.000
1680449285.477,-32.715,-23.438,-32.227,-38.574,0.000
1680449285.481,-26.367,-24.902,-28.320,-27.344,0.000
1680449285.485,-38.086,-28.320,-30.762,-16.113,0.000
1680449285.488,-37.598,-29.297,-20.996,-16.113,0.000
1680449285.492,-23.926,-30.273,-20.020,-28.809,0.000
1680449285.496,-56.152,-27.832,-26.855,-41.504,0.000
1680449285.500,-55.176,-30.762,-26.367,-31.738,0.000
1680449285.504,-10.742,-31.738,-25.391,-18.066,0.000
1680449285.508,-9.766,-24.414,-26.367,-33.203,0.000
1680449285.512,-61.523,-23.926,-34.668,-50.293,0.000
1680449285.516,-67.383,-22.461,-39.551,-63.965,0.000
1680449285.520,-40.527,-20.508,-36.621,-63.965,0.000
1680449285.524,-43.945,-24.902,-35.645,-74.219,0.000
1680449285.527,-49.805,-26.367,-37.109,-76.660,0.000
1680449285.531,-46.875,-28.809,-33.691,-72.266,0.000
1680449285.535,-44.434,-30.273,-28.809,-54.688,0.000
1680449285.539,-35.645,-30.273,-31.738,-31.250,0.000
1680449285.543,-31.250,-30.762,-36.621,-48.340,0.000
1680449285.547,-28.809,-30.762,-32.715,-59.570,0.000
1680449285.551,-44.434,-34.668,-30.273,-44.434,0.000
1680449285.555,-62.012,-37.109,-31.250,-25.391,0.000
1680449285.559,-45.898,-36.133,-32.227,-23.438,0.000
1680449285.563,-29.785,-32.227,-33.203,-36.621,0.000
1680449285.567,-39.062,-33.691,-29.297,-34.668,0.000
1680449285.570,-50.293,-36.621,-33.203,-37.109,0.000
1680449285.574,-46.875,-31.250,-29.297,-25.391,0.000
1680449285.578,-47.363,-28.320,-21.484,-27.344,0.000
1680449285.582,-42.480,-33.203,-24.902,-31.250,0.000
1680449285.586,-21.973,-36.621,-30.762,-37.598,0.000
1680449285.590,-22.949,-33.203,-32.227,-42.480,0.000
1680449285.594,-38.086,-36.133,-26.367,-27.832,0.000
1680449285.598,-33.203,-34.668,-28.809,-32.715,0.000
1680449285.602,-54.199,-32.227,-31.250,-33.203,0.000
1680449285.606,-48.828,-29.785,-31.250,-24.414,0.000
1680449285.610,-28.320,-25.879,-34.180,-41.504,0.000
1680449285.613,-24.414,-24.902,-33.691,-39.062,0.000
1680449285.617,-24.902,-23.438,-31.738,-14.648,0.000
1680449285.621,-22.461,-22.949,-24.902,0.977,0.000
1680449285.625,-2.441,-20.996,-23.438,-18.555,0.000
1680449285.629,-5.859,-20.996,-29.785,-51.758,0.000
1680449285.633,-31.250,-22.461,-33.691,-50.781,0.000
1680449285.637,-36.133,-27.832,-29.785,-34.668,0.000
1680449285.641,-46.387,-29.785,-25.879,-31.250,0.000
1680449285.645,-35.645,-26.855,-32.227,-29.297,0.000
1680449285.649,-21.484,-27.832,-31.738,-24.414,0.000
1680449285.652,-46.387,-27.832,-29.297,-27.344,0.000
1680449285.656,-60.547,-21.973,-30.762,-25.391,0.000
1680449285.660,-56.152,-21.484,-30.273,-27.344,0.000
1680449285.664,-60.547,-26.367,-27.832,-35.645,0.000
1680449285.668,-60.059,-27.832,-25.391,-32.227,0.000
1680449285.672,-43.945,-30.273,-32.227,-29.297,0.000
1680449285.676,-32.227,-26.367,-30.273,-17.578,0.000
1680449285.680,-34.668,-29.785,-28.320,-26.367,0.000
1680449285.684,-36.133,-35.645,-23.438,-57.617,0.000
1680449285.688,-36.621,-30.273,-23.926,-62.500,0.000
1680449285.692,-37.109,-25.391,-26.367,-46.875,0.000
1680449285.695,-27.832,-26.855,-29.297,-44.434,0.000
1680449285.699,0.000,-22.949,-34.180,-42.969,0.000
1680449285.703,-9.277,-23.438,-35.645,-41.504,0.000
1680449285.707,-56.641,-33.691,-37.109,-38.574,0.000
1680449285.711,-58.594,-34.180,-33.203,-35.156,0.000
1680449285.715,-33.203,-35.156,-27.832,-20.020,0.000
1680449285.719,-22.949,-39.062,-29.297,-10.742,0.000
1680449285.723,-44.434,-37.109,-31.738,-2.441,0.000
1680449285.727,-57.617,-36.621,-24.902,-3.418,0.000
1680449285.731,-46.387,-34.180,-17.578,-48.340,0.000
1680449285.734,-50.781,-32.715,-22.949,-55.664,0.000
1680449285.738,-43.457,-30.762,-28.809,-29.297,0.000
1680449285.742,-43.457,-29.785,-29.785,-28.320,0.000
1680449285.746,-59.082,-33.203,-30.762,-37.109,0.000
1680449285.750,-48.340,-37.598,-30.762,-51.758,0.000
1680449285.754,-20.508,-35.645,-29.297,-41.504,0.000
1680449285.758,-34.180,-33.691,-26.855,-16.113,0.000
1680449285.762,-34.668,-34.668,-20.508,2.930,0.000
1680449285.766,-35.645,-37.598,-21.973,-4.395,0.000
1680449285.770,-32.715,-32.715,-27.832,-10.742,0.000
1680449285.774,-19.531,-28.809,-22.949,-3.418,0.000
1680449285.777,-26.367,-28.809,-26.367,-23.438,0.000
1680449285.781,-33.203,-30.273,-31.738,-23.438,0.000
1680449285.785,-30.273,-34.668,-37.598,-13.672,0.000
1680449285.789,-20.020,-29.785,-34.668,-30.762,0.000
1680449285.793,-10.254,-24.414,-32.227,-40.039,0.000
1680449285.797,-13.184,-30.762,-32.227,-34.180,0.000
1680449285.801,-16.113,-29.785,-28.320,-28.809,0.000
1680449285.805,-17.090,-30.273,-34.180,-28.320,0.000
1680449285.809,-38.086,-37.598,-35.156,-43.945,0.000
1680449285.813,-48.828,-33.203,-35.156,-46.875,0.000
1680449285.817,-37.109,-27.344,-29.297,-30.762,0.000
1680449285.820,-47.363,-34.668,-20.996,-32.227,0.000
1680449285.824,-52.246,-33.203,-28.320,-39.062,0.000
1680449285.828,-32.715,-28.809,-30.762,-30.273,0.000
1680449285.832,-43.457,-32.715,-26.855,-46.387,0.000
1680449285.836,-47.852,-37.109,-26.855,-44.434,0.000
1680449285.840,-41.504,-41.016,-26.367,-40.527,0.000
1680449285.844,-55.176,-40.527,-31.738,-48.828,0.000
1680449285.848,-52.246,-41.992,-32.715,-49.316,0.000
1680449285.852,-26.367,-41.016,-29.785,-45.898,0.000
1680449285.856,-32.715,-35.645,-31.738,-22.461,0.000
1680449285.859,-51.270,-31.738,-30.273,-12.695,0.000
1680449285.863,-48.828,-30.762,-20.508,-26.367,0.000
1680449285.867,-26.855,-33.203,-26.855,-37.598,0.000
1680449285.871,-6.348,-30.762,-36.133,-25.391,0.000
1680449285.875,-18.555,-28.320,-37.598,-14.648,0.000
1680449285.879,-27.832,-26.367,-37.598,-6.836,0.000
1680449285.883,-12.695,-21.484,-36.621,-31.738,0.000
1680449285.887,-5.371,-20.020,-34.180,-65.918,0.000
1680449285.891,-16.602,-21.484,-28.809,-41.016,0.000
1680449285.895,-22.461,-23.926,-26.367,-22.949,0.000
1680449285.899,-24.414,-23.438,-23.926,-22.461,0.000
1680449285.902,-27.832,-24.414,-19.531,-24.902,0.000
1680449285.906,-9.277,-25.879,-13.184,-23.438,0.000
1680449285.910,1.465,-22.949,-13.672,-12.695,0.000
1680449285.914,-32.715,-26.855,-20.996,-20.996,0.000
1680449285.918,-52.734,-23.926,-28.320,-43.457,0.000
1680449285.922,-51.270,-27.832,-28.320,-60.059,0.000
1680449285.926,-66.895,-36.621,-26.855,-79.102,0.000
1680449285.930,-64.941,-31.250,-28.809,-67.383,0.000
1680449285.934,-67.871,-27.832,-20.020,-48.340,0.000
1680449285.938,-93.750,-28.809,-13.672,-52.734,0.000
1680449285.942,-98.145,-20.996,-22.949,-73.242,0.000
1680449285.945,-85.449,-8.789,-27.344,-99.609,0.000
1680449285.949,-101.562,-14.648,-15.625,-96.680,0.000
1680449285.953,-130.859,-15.625,-8.789,-98.633,0.000
1680449285.957,-150.391,-9.277,-15.625,-133.301,0.000
1680449285.961,-143.066,-10.742,-13.672,-125.488,0.000
1680449285.965,-142.578,-8.789,-9.277,-141.113,0.000
1680449285.969,-158.203,-3.906,-2.441,-172.852,0.000
1680449285.973,-169.922,8.789,-0.488,-180.664,0.000
1680449285.977,-154.785,6.836,-4.395,-187.012,0.000
1680449285.981,-156.250,2.930,-8.789,-179.199,0.000
1680449285.984,-173.340,3.906,-7.812,-180.664,0.000
1680449285.988,-162.598,1.465,-4.883,-172.852,0.000
1680449285.992,-151.855,0.488,-3.418,-144.043,0.000
1680449285.996,-145.020,-5.371,-4.395,-118.652,0.000
1680449286.000,-151.855,-8.789,-7.324,-125.488,0.000
1680449286.004,-141.113,-10.254,-14.648,-134.277,0.000
1680449286.008,-123.535,-15.137,-21.484,-125.977,0.000
1680449286.012,-116.699,-22.949,-18.066,-104.980,0.000
1680449286.016,-110.352,-34.180,-18.555,-92.285,0.000
1680449286.020,-99.609,-31.250,-22.461,-79.102,0.000
1680449286.024,-77.148,-30.273,-27.344,-58.105,0.000
1680449286.027,-59.570,-40.527,-31.738,-61.035,0.000
1680449286.031,-52.246,-41.016,-31.250,-55.176,0.000
1680449286.035,-31.250,-33.203,-34.668,-26.367,0.000
1680449286.039,-20.508,-27.832,-45.410,-12.207,0.000
1680449286.043,-17.578,-30.762,-48.828,-27.344,0.000
1680449286.047,-8.789,-31.738,-47.363,-26.855,0.000
1680449286.051,0.000,-33.691,-46.387,-2.930,0.000
1680449286.055,0.488,-42.480,-47.363,4.395,0.000
1680449286.059,10.254,-43.457,-36.621,32.227,0.000
1680449286.063,18.555,-36.621,-41.504,21.484,0.000
1680449286.067,32.715,-30.273,-48.828,-9.277,0.000
1680449286.070,44.434,-30.273,-44.922,-11.719,0.000
1680449286.074,47.363,-35.156,-47.852,-6.836,0.000
1680449286.078,26.855,-35.645,-48.340,6.348,0.000
1680449286.082,14.648,-31.738,-45.898,20.996,0.000
1680449286.086,32.715,-38.086,-42.969,21.973,0.000
1680449286.090,27.344,-42.969,-41.504,2.441,0.000
1680449286.094,22.949,-37.598,-39.062,11.230,0.000
1680449286.098,24.414,-36.133,-41.504,46.875,0.000
1680449286.102,12.207,-40.039,-41.016,33.203,0.000
1680449286.106,11.719,-44.922,-35.156,-0.977,0.000
1680449286.109,23.926,-44.434,-39.551,4.395,0.000
1680449286.113,26.855,-41.016,-39.062,22.461,0.000
1680449286.117,24.902,-38.574,-41.504,18.555,0.000
1680449286.121,45.410,-39.062,-41.016,20.508,0.000
1680449286.125,45.898,-39.551,-41.992,20.020,0.000
1680449286.129,21.973,-37.109,-44.434,3.418,0.000
1680449286.133,11.719,-33.203,-39.551,7.812,0.000
1680449286.137,18.555,-36.133,-37.598,13.184,0.000
1680449286.141,28.809,-38.086,-36.621,12.695,0.000
1680449286.145,20.996,-34.180,-34.180,8.301,0.000
1680449286.149,29.785,-37.109,-25.391,8.789,0.000
1680449286.152,33.691,-35.156,-33.203,6.348,0.000
1680449286.156,-13.184,-34.180,-42.480,3.906,0.000
1680449286.160,-28.809,-35.156,-36.621,6.836,0.000
1680449286.164,-14.648,-41.016,-38.086,-21.973,0.000
1680449286.168,-16.113,-41.992,-40.527,-40.039,0.000
1680449286.172,-11.719,-40.527,-36.621,-15.625,0.000
1680449286.176,5.859,-42.969,-33.691,4.395,0.000
1680449286.180,-6.348,-46.387,-34.180,-3.906,0.000
1680449286.184,-31.738,-48.340,-34.180,-8.789,0.000
1680449286.188,-27.832,-46.875,-34.180,-8.789,0.000
1680449286.191,-23.438,-47.852,-30.273,-14.648,0.000
1680449286.195,-28.320,-45.898,-24.414,-17.578,0.000
1680449286.199,-20.508,-36.621,-26.367,-8.789,0.000
1680449286.203,-17.578,-39.062,-36.133,-12.207,0.000
1680449286.207,-30.762,-41.992,-38.574,-25.391,0.000
1680449286.211,-28.320,-40.527,-37.109,-37.598,0.000
1680449286.215,-11.719,-41.016,-36.133,-31.250,0.000
1680449286.219,-17.578,-37.598,-29.785,-10.254,0.000
1680449286.223,-12.207,-36.621,-29.785,-10.254,0.000
1680449286.227,-5.371,-36.133,-31.250,-18.066,0.000
1680449286.231,-36.133,-39.551,-31.738,-29.785,0.000
1680449286.234,-41.992,-36.133,-33.203,-28.809,0.000
1680449286.238,-32.715,-32.227,-26.367,-10.254,0.000
1680449286.242,-28.809,-37.598,-26.855,-12.207,0.000
1680449286.246,-30.273,-40.527,-35.156,-29.297,0.000
1680449286.250,-30.273,-37.598,-37.598,-28.809,0.000
1680449286.254,-27.832,-35.645,-35.645,-17.090,0.000
1680449286.258,-22.461,-35.645,-36.133,-26.855,0.000
1680449286.262,-11.230,-36.621,-36.133,-30.762,0.000
1680449286.266,-23.926,-32.227,-36.133,-43.945,0.000
1680449286.270,-43.457,-28.809,-38.086,-53.711,0.000
1680449286.274,-48.828,-28.809,-37.598,-37.598,0.000
1680449286.277,-39.551,-26.855,-35.156,-18.555,0.000
1680449286.281,-27.832,-29.785,-32.227,-17.578,0.000
1680449286.285,-19.531,-33.691,-32.715,-14.160,0.000
1680449286.289,-12.207,-30.762,-36.133,-22.949,0.000
1680449286.293,-11.719,-34.668,-32.227,-32.227,0.000
1680449286.297,-12.695,-37.109,-24.902,-22.461,0.000
1680449286.301,-19.531,-29.785,-26.855,-11.719,0.000
1680449286.305,-21.484,-27.832,-30.273,-22.461,0.000
1680449286.309,-40.039,-29.785,-30.273,-40.527,0.000
1680449286.313,-31.250,-28.809,-31.738,-25.879,0.000
1680449286.316,-6.348,-26.367,-29.785,-3.906,0.000
1680449286.320,-19.531,-28.320,-28.320,-9.277,0.000
1680449286.324,-32.715,-34.668,-29.785,-23.926,0.000
1680449286.328,-39.062,-31.250,-32.715,-45.898,0.000
1680449286.332,-48.828,-29.297,-36.133,-46.875,0.000
1680449286.336,-43.457,-26.367,-36.133,-40.527,0.000
1680449286.340,-30.273,-24.414,-30.762,-43.457,0.000
1680449286.344,-37.109,-35.156,-29.785,-42.969,0.000
1680449286.348,-36.133,-39.062,-32.715,-59.082,0.000
1680449286.352,-22.461,-30.273,-37.109,-50.781,0.000
1680449286.356,-28.809,-28.809,-38.086,-10.742,0.000
1680449286.359,-41.504,-33.203,-32.715,-8.789,0.000
1680449286.363,-30.273,-32.715,-33.691,-42.969,0.000
1680449286.367,-32.715,-31.250,-33.203,-41.992,0.000
1680449286.371,-47.852,-30.762,-27.344,-27.832,0.000
1680449286.375,-43.945,-34.668,-25.391,-33.203,0.000
1680449286.379,-44.922,-34.668,-30.273,-22.949,0.000
1680449286.383,-36.133,-36.133,-37.109,-14.160,0.000
1680449286.387,-29.785,-38.574,-32.715,-31.250,0.000
1680449286.391,-52.734,-38.574,-25.391,-30.273,0.000
1680449286.395,-38.086,-35.156,-24.414,-21.484,0.000
1680449286.399,-13.184,-29.297,-22.949,-25.391,0.000
1680449286.402,-33.203,-27.832,-22.949,-30.273,0.000
1680449286.406,-50.293,-23.926,-19.043,-43.457,0.000
1680449286.410,-39.551,-27.344,-18.066,-43.457,0.000
1680449286.414,-48.340,-32.227,-23.438,-41.504,0.000
1680449286.418,-59.082,-31.738,-21.973,-37.109,0.000
1680449286.422,-56.152,-34.180,-18.066,-12.695,0.000
1680449286.426,-57.129,-40.039,-24.902,-13.184,0.000
1680449286.430,-43.457,-37.109,-30.762,-28.809,0.000
1680449286.434,-23.438,-28.809,-22.949,-29.785,0.000
1680449286.438,-14.160,-29.785,-21.484,-29.297,0.000
1680449286.441,-28.809,-27.832,-23.438,-36.621,0.000
1680449286.445,-34.180,-24.902,-23.438,-30.273,0.000
1680449286.449,-31.250,-26.855,-26.367,-38.086,0.000
1680449286.453,-41.504,-31.250,-34.668,-35.645,0.000
1680449286.457,-41.992,-34.180,-37.109,-14.160,0.000
1680449286.461,-30.273,-31.250,-34.668,-20.996,0.000
1680449286.465,-26.855,-28.320,-37.109,-38.086,0.000
1680449286.469,-33.203,-29.785,-36.133,-40.527,0.000
1680449286.473,-21.484,-32.715,-34.668,-31.250,0.000
1680449286.477,-11.719,-35.645,-31.738,-23.926,0.000
1680449286.481,-31.738,-33.691,-23.926,-12.207,0.000
1680449286.484,-39.551,-30.273,-26.855,-10.742,0.000
1680449286.488,-4.395,-25.879,-29.785,-25.391,0.000
1680449286.492,-1.465,-18.555,-28.320,-27.344,0.000
1680449286.496,-37.598,-20.020,-29.785,-27.832,0.000
1680449286.500,-31.738,-23.926,-33.691,-32.227,0.000
1680449286.504,-25.879,-21.484,-32.227,-20.020,0.000
1680449286.508,-49.805,-22.949,-31.250,-20.996,0.000
1680449286.512,-42.969,-29.785,-35.156,-38.086,0.000
1680449286.516,-21.484,-24.902,-35.156,-29.785,0.000
1680449286.520,-16.602,-25.391,-35.645,-29.785,0.000
1680449286.524,-33.691,-30.273,-30.762,-38.574,0.000
1680449286.527,-54.199,-32.227,-29.785,-41.504,0.000
1680449286.531,-44.434,-31.250,-31.250,-30.762,0.000
1680449286.535,-16.602,-27.832,-31.250,-3.906,0.000
1680449286.539,-38.574,-26.367,-35.156,-20.996,0.000
1680449286.543,-63.477,-25.391,-33.203,-55.664,0.000
1680449286.547,-47.852,-28.809,-33.691,-52.246,0.000
1680449286.551,-51.758,-32.715,-38.086,-34.180,0.000
1680449286.555,-47.852,-31.738,-37.598,-42.480,0.000
1680449286.559,-52.246,-24.902,-33.203,-51.758,0.000
1680449286.563,-42.480,-23.926,-29.785,-28.320,0.000
1680449286.566,-37.598,-27.832,-27.344,-33.203,0.000
1680449286.570,-49.316,-31.250,-24.902,-44.922,0.000
1680449286.574,-43.457,-32.227,-34.180,-35.156,0.000
1680449286.578,-39.062,-31.738,-30.762,-44.922,0.000
1680449286.582,-45.898,-21.484,-27.832,-46.387,0.000
1680449286.586,-46.387,-20.996,-32.227,-37.109,0.000
1680449286.590,-38.086,-27.832,-34.668,-41.992,0.000
1680449286.594,-31.738,-31.250,-36.133,-44.434,0.000
1680449286.598,-45.898,-30.273,-37.109,-38.086,0.000
1680449286.602,-50.781,-30.762,-38.574,-20.996,0.000
1680449286.606,-30.762,-29.297,-29.785,-21.973,0.000
1680449286.609,-20.020,-25.391,-27.344,-32.715,0.000
1680449286.613,-31.738,-30.273,-32.715,-21.484,0.000
1680449286.617,-31.738,-34.180,-29.297,-18.555,0.000
1680449286.621,-30.762,-30.273,-23.438,-20.020,0.000
1680449286.625,-36.133,-24.902,-28.809,-29.297,0.000
1680449286.629,-34.180,-26.855,-28.809,-49.316,0.000
1680449286.633,-32.227,-27.344,-30.762,-42.969,0.000
1680449286.637,-28.809,-22.461,-30.273,-25.391,0.000
1680449286.641,-39.062,-22.949,-28.809,-23.926,0.000
1680449286.645,-25.879,-23.926,-27.832,-38.086,0.000
1680449286.648,-20.996,-29.297,-28.320,-49.805,0.000
1680449286.652,-46.875,-32.715,-33.691,-36.133,0.000
1680449286.656,-45.898,-32.715,-31.250,-6.348,0.000
1680449286.660,-22.461,-30.762,-28.809,-13.184,0.000
1680449286.664,-7.324,-38.086,-35.645,-34.668,0.000
1680449286.668,-29.785,-38.574,-42.480,-34.180,0.000
1680449286.672,-45.898,-33.203,-31.250,-29.297,0.000
1680449286.676,-37.109,-35.156,-25.879,-26.855,0.000
1680449286.680,-41.992,-29.785,-29.785,-26.855,0.000
1680449286.684,-33.203,-25.879,-28.320,-25.879,0.000
1680449286.688,-23.438,-29.785,-28.320,-26.855,0.000
1680449286.691,-28.320,-30.762,-26.367,-19.043,0.000
1680449286.695,-34.180,-28.809,-29.297,-13.184,0.000
1680449286.699,-27.344,-25.391,-27.832,-17.090,0.000
1680449286.703,-26.367,-21.973,-21.484,-20.020,0.000
1680449286.707,-29.785,-21.973,-26.367,-10.254,0.000
1680449286.711,-16.113,-25.879,-28.809,-16.602,0.000
1680449286.715,-7.324,-27.344,-23.438,-30.273,0.000
1680449286.719,-5.859,-27.344,-24.414,-17.090,0.000
1680449286.723,-13.184,-22.461,-25.879,-26.367,0.000
1680449286.727,-32.715,-20.996,-28.320,-40.527,0.000
1680449286.731,-36.621,-28.320,-28.320,-37.598,0.000
1680449286.734,-23.926,-29.785,-23.438,-36.133,0.000
1680449286.738,-36.621,-23.438,-24.902,-27.832,0.000
1680449286.742,-49.805,-26.855,-26.855,-18.555,0.000
1680449286.746,-35.156,-31.738,-25.879,-24.414,0.000
1680449286.750,-19.531,-29.785,-26.855,-24.902,0.000
1680449286.754,-35.156,-27.832,-29.297,-16.602,0.000
1680449286.758,-49.316,-29.297,-32.715,-39.551,0.000
1680449286.762,-46.387,-32.715,-27.344,-45.410,0.000
1680449286.766,-44.434,-39.062,-25.879,-38.574,0.000
1680449286.770,-39.062,-35.645,-38.574,-59.570,0.000
1680449286.773,-18.555,-30.273,-37.109,-57.129,0.000
1680449286.777,-10.254,-27.832,-30.273,-28.809,0.000
1680449286.781,-29.297,-30.762,-31.738,-33.691,0.000
1680449286.785,-44.922,-32.227,-29.785,-37.109,0.000
1680449286.789,-35.645,-31.250,-30.762,-35.156,0.000
1680449286.793,-34.180,-37.109,-31.738,-32.227,0.000
1680449286.797,-50.781,-38.574,-31.250,-23.438,0.000
1680449286.801,-53.711,-34.668,-28.809,-30.762,0.000
1680449286.805,-48.828,-38.086,-28.809,-49.805,0.000
1680449286.809,-39.551,-40.527,-20.996,-42.480,0.000
1680449286.813,-39.551,-38.086,-25.391,-35.156,0.000
1680449286.816,-59.082,-30.273,-34.180,-47.852,0.000
1680449286.820,-61.523,-29.297,-31.250,-33.691,0.000
1680449286.824,-33.203,-30.273,-26.367,-37.109,0.000
1680449286.828,-24.902,-28.320,-25.879,-47.852,0.000
1680449286.832,-41.016,-33.203,-25.879,-28.809,0.000
1680449286.836,-49.316,-31.250,-25.391,-13.184,0.000
1680449286.840,-32.715,-30.762,-29.785,-13.184,0.000
1680449286.844,-29.785,-30.762,-34.180,-30.762,0.000
1680449286.848,-47.363,-32.227,-37.598,-62.500,0.000
1680449286.852,-44.434,-36.133,-31.738,-74.707,0.000
1680449286.856,-42.480,-36.621,-27.344,-48.828,0.000
1680449286.859,-48.340,-36.133,-37.598,-29.297,0.000
1680449286.863,-46.387,-32.227,-35.645,-23.926,0.000
1680449286.867,-32.715,-34.668,-36.621,-47.852,0.000
1680449286.871,-38.574,-37.109,-41.992,-64.941,0.000
1680449286.875,-59.082,-31.250,-39.062,-45.410,0.000
1680449286.879,-32.227,-30.762,-33.691,-36.133,0.000
1680449286.883,-32.715,-28.809,-30.762,-47.852,0.000
1680449286.887,-53.711,-32.715,-36.621,-52.246,0.000
1680449286.891,-29.785,-32.227,-38.086,-52.734,0.000
1680449286.895,-31.250,-31.738,-30.273,-36.621,0.000
1680449286.898,-53.711,-37.598,-24.414,-28.809,0.000
1680449286.902,-52.246,-33.203,-30.273,-29.785,0.000
1680449286.906,-57.129,-35.156,-34.668,-45.410,0.000
1680449286.910,-62.500,-36.621,-34.180,-59.082,0.000
1680449286.914,-42.480,-31.738,-39.062,-51.758,0.000
1680449286.918,-40.039,-28.320,-35.645,-45.898,0.000
1680449286.922,-37.598,-33.691,-33.203,-37.109,0.000
1680449286.926,-28.809,-31.738,-34.180,-43.945,0.000
1680449286.930,-52.246,-27.832,-32.715,-53.711,0.000
1680449286.934,-52.734,-33.691,-32.227,-52.246,0.000
1680449286.938,-56.152,-34.668,-37.598,-40.039,0.000
1680449286.941,-64.453,-39.062,-38.574,-43.457,0.000
1680449286.945,-47.363,-41.016,-33.203,-52.734,0.000
1680449286.949,-38.086,-36.133,-33.203,-48.828,0.000
1680449286.953,-42.969,-36.621,-36.133,-49.316,0.000
1680449286.957,-50.293,-34.668,-37.109,-25.391,0.000
1680449286.961,-46.875,-33.691,-34.180,-13.184,0.000
1680449286.965,-43.945,-35.645,-34.180,-37.598,0.000
1680449286.969,-32.715,-35.645,-34.668,-42.480,0.000
1680449286.973,-34.180,-32.227,-29.297,-45.898,0.000
1680449286.977,-56.152,-26.367,-27.344,-45.410,0.000
1680449286.981,-58.105,-26.367,-30.762,-40.527,0.000
1680449286.984,-48.340,-24.902,-28.320,-42.480,0.000
1680449286.988,-53.223,-28.320,-25.879,-53.711,0.000
1680449286.992,-42.480,-33.691,-29.297,-56.152,0.000
1680449286.996,-24.902,-36.133,-29.785,-36.621,0.000
1680449287.000,-36.133,-35.156,-29.297,-40.527,0.000
1680449287.004,-31.738,-33.691,-27.832,-49.805,0.000
1680449287.008,-36.621,-38.086,-30.762,-60.547,0.000
1680449287.012,-55.176,-39.551,-34.668,-71.289,0.000
1680449287.016,-53.223,-37.109,-36.133,-56.641,0.000
1680449287.020,-41.992,-33.691,-30.762,-24.902,0.000
1680449287.023,-39.551,-34.180,-29.785,-29.297,0.000
1680449287.027,-30.273,-30.762,-31.738,-48.828,0.000
1680449287.031,-34.668,-27.344,-29.785,-41.992,0.000
1680449287.035,-31.250,-23.926,-24.902,-23.438,0.000
1680449287.039,-13.672,-23.926,-24.902,-20.508,0.000
1680449287.043,-23.926,-26.367,-23.438,-33.203,0.000
1680449287.047,-38.086,-26.855,-24.902,-51.270,0.000
1680449287.051,-34.180,-20.020,-24.414,-42.969,0.000
1680449287.055,-29.785,-17.090,-27.344,-20.508,0.000
1680449287.059,-27.832,-27.832,-28.809,-20.996,0.000
1680449287.063,-27.344,-28.320,-25.391,-22.461,0.000
1680449287.066,-28.320,-26.367,-28.809,-23.438,0.000
1680449287.070,-25.391,-26.855,-31.250,-31.738,0.000
1680449287.074,-41.016,-27.832,-30.273,-25.391,0.000
1680449287.078,-54.199,-29.297,-33.203,-16.113,0.000
1680449287.082,-45.898,-28.809,-32.227,-43.457,0.000
1680449287.086,-43.945,-26.367,-31.738,-70.801,0.000
1680449287.090,-30.762,-24.414,-30.762,-63.477,0.000
1680449287.094,-14.648,-34.668,-29.297,-43.945,0.000
1680449287.098,-44.434,-33.203,-28.809,-26.367,0.000
1680449287.102,-50.293,-25.391,-22.949,-13.672,0.000
1680449287.105,-37.109,-30.762,-25.879,-23.926,0.000
1680449287.109,-28.320,-32.715,-29.297,-37.109,0.000
1680449287.113,-21.973,-32.227,-27.832,-49.805,0.000
1680449287.117,-37.598,-29.785,-27.832,-38.574,0.000
1680449287.121,-42.969,-32.227,-26.367,-28.809,0.000
1680449287.125,-34.180,-29.785,-28.809,-48.340,0.000
1680449287.129,-46.387,-29.785,-32.715,-57.129,0.000
1680449287.133,-47.852,-35.645,-34.668,-46.387,0.000
1680449287.137,-34.668,-32.227,-31.738,-33.691,0.000
1680449287.141,-39.062,-30.762,-26.367,-34.668,0.000
1680449287.145,-29.297,-32.715,-27.344,-34.668,0.000
1680449287.148,-34.180,-33.203,-32.227,-33.691,0.000
1680449287.152,-47.852,-36.621,-31.250,-36.621,0.000
1680449287.156,-50.781,-38.574,-27.344,-37.598,0.000
1680449287.160,-54.688,-38.574,-25.879,-33.691,0.000
1680449287.164,-50.781,-36.133,-23.438,-37.109,0.000
1680449287.168,-34.668,-29.297,-21.484,-42.969,0.000
1680449287.172,-14.160,-27.832,-22.461,-38.574,0.000
1680449287.176,-32.227,-30.762,-24.902,-26.855,0.000
1680449287.180,-44.434,-34.668,-23.926,-12.695,0.000
1680449287.184,-36.133,-37.598,-19.531,-20.020,0.000
1680449287.188,-49.316,-32.715,-25.391,-46.875,0.000
1680449287.191,-51.270,-34.668,-29.297,-60.547,0.000
1680449287.195,-41.992,-38.086,-26.855,-49.805,0.000
1680449287.199,-29.785,-31.738,-22.461,-23.926,0.000
1680449287.203,-53.223,-29.297,-22.949,-24.902,0.000
1680449287.207,-59.082,-34.180,-29.297,-55.176,0.000
1680449287.211,-44.434,-37.109,-31.738,-60.059,0.000
1680449287.215,-59.570,-31.738,-33.203,-47.363,0.000
1680449287.219,-58.105,-28.320,-32.227,-50.293,0.000
1680449287.223,-50.293,-34.180,-33.691,-39.062,0.000
1680449287.227,-41.504,-33.203,-36.133,-37.598,0.000
1680449287.230,-37.109,-27.344,-29.785,-50.781,0.000
1680449287.234,-36.621,-29.785,-29.297,-23.438,0.000
1680449287.238,-44.434,-30.273,-32.715,-26.855,0.000
1680449287.242,-49.805,-25.879,-31.250,-51.758,0.000
1680449287.246,-43.457,-27.832,-32.227,-31.738,0.000
1680449287.250,-27.832,-26.367,-31.738,-22.949,0.000
1680449287.254,-28.809,-19.043,-24.902,-26.367,0.000
1680449287.258,-36.133,-21.973,-20.020,-20.020,0.000
1680449287.262,-17.090,-23.926,-20.020,-22.949,0.000
1680449287.266,-39.551,-21.973,-22.949,-28.320,0.000
1680449287.270,-62.988,-25.879,-19.043,-30.762,0.000
1680449287.273,-50.781,-26.855,-7.324,-31.738,0.000
1680449287.277,-42.480,-25.391,-13.672,-32.227,0.000
1680449287.281,-46.875,-31.250,-22.949,-40.039,0.000
1680449287.285,-51.758,-29.785,-19.531,-27.832,0.000
1680449287.289,-46.875,-26.855,-24.414,-49.805,0.000
1680449287.293,-34.668,-26.367,-30.273,-74.707,0.000
1680449287.297,-29.297,-26.855,-26.855,-44.922,0.000
1680449287.301,-29.785,-32.715,-28.809,-24.414,0.000
1680449287.305,-31.738,-33.203,-31.738,-24.414,0.000
1680449287.309,-30.762,-32.227,-29.297,-32.715,0.000
1680449287.313,-24.902,-34.668,-31.250,-36.621,0.000
1680449287.316,-17.578,-31.738,-28.320,-21.484,0.000
1680449287.320,-32.715,-33.203,-20.508,-14.160,0.000
1680449287.324,-43.945,-31.738,-24.414,-21.484,0.000
1680449287.328,-57.129,-32.227,-29.785,-36.621,0.000
1680449287.332,-54.199,-33.691,-29.297,-38.574,0.000
1680449287.336,-44.922,-32.715,-29.297,-33.691,0.000
1680449287.340,-52.734,-30.762,-27.832,-26.367,0.000
1680449287.344,-45.410,-29.785,-27.344,-22.461,0.000
1680449287.348,-43.945,-30.273,-28.809,-28.320,0.000
1680449287.352,-42.480,-29.785,-26.367,-30.762,0.000
1680449287.355,-43.945,-31.250,-29.785,-34.180,0.000
1680449287.359,-48.340,-36.621,-32.715,-26.855,0.000
1680449287.363,-44.922,-36.621,-23.926,-24.902,0.000
1680449287.367,-43.945,-36.133,-32.715,-47.852,0.000
1680449287.371,-44.434,-41.016,-41.504,-51.758,0.000
1680449287.375,-41.992,-41.504,-41.504,-45.898,0.000
1680449287.379,-50.293,-39.551,-42.969,-45.898,0.000
1680449287.383,-55.176,-37.598,-43.945,-50.293,0.000
1680449287.387,-43.945,-38.574,-45.898,-45.410,0.000
1680449287.391,-41.992,-39.062,-40.527,-32.227,0.000
1680449287.395,-31.738,-36.133,-38.086,-27.832,0.000
1680449287.398,-17.578,-36.133,-40.039,-13.672,0.000
1680449287.402,-41.992,-39.551,-42.969,-22.461,0.000
1680449287.406,-66.895,-37.598,-41.016,-47.363,0.000
1680449287.410,-60.547,-33.691,-38.086,-45.898,0.000
1680449287.414,-43.945,-37.598,-39.062,-50.781,0.000
1680449287.418,-28.320,-34.180,-32.715,-37.598,0.000
1680449287.422,-27.832,-32.715,-26.855,-14.648,0.000
1680449287.426,-47.363,-33.691,-29.785,-41.992,0.000
1680449287.430,-46.875,-34.180,-32.715,-62.500,0.000
1680449287.434,-30.762,-36.133,-30.762,-43.945,0.000
1680449287.438,-35.645,-38.574,-35.645,-43.457,0.000
1680449287.441,-36.621,-37.598,-38.086,-52.246,0.000
1680449287.445,-34.668,-36.621,-37.598,-50.781,0.000
1680449287.449,-50.781,-39.551,-39.062,-64.941,0.000
1680449287.453,-61.035,-37.109,-36.133,-76.172,0.000
1680449287.457,-48.828,-33.203,-31.738,-59.082,0.000
1680449287.461,-43.945,-35.156,-31.250,-41.992,0.000
1680449287.465,-50.293,-41.992,-35.645,-42.969,0.000
1680449287.469,-42.480,-41.016,-28.809,-52.734,0.000
1680449287.473,-42.969,-31.738,-24.902,-55.176,0.000
1680449287.477,-34.668,-28.320,-25.879,-34.668,0.000
1680449287.480,-26.855,-29.785,-27.344,-21.973,0.000
1680449287.484,-39.062,-28.809,-31.250,-24.902,0.000
1680449287.488,-32.227,-30.273,-33.691,-24.902,0.000
1680449287.492,-24.414,-35.645,-36.621,-35.645,0.000
1680449287.496,-30.762,-34.180,-38.086,-42.969,0.000
1680449287.500,-22.461,-30.762,-41.016,-35.645,0.000
1680449287.504,-16.602,-28.809,-38.086,-30.273,0.000
1680449287.508,-18.066,-27.832,-39.062,-43.945,0.000
1680449287.512,-6.348,-26.367,-38.086,-53.711,0.000
1680449287.516,-18.555,-28.809,-32.227,-31.250,0.000
1680449287.520,-53.711,-27.832,-35.156,-16.602,0.000
1680449287.523,-57.617,-26.855,-37.109,-30.273,0.000
1680449287.527,-48.340,-26.367,-34.668,-36.133,0.000
1680449287.531,-37.109,-30.273,-34.180,-46.387,0.000
1680449287.535,-35.156,-27.832,-34.668,-39.551,0.000
1680449287.539,-34.180,-23.438,-32.715,-15.625,0.000
1680449287.543,-28.320,-26.855,-30.273,-23.438,0.000
1680449287.547,-29.297,-30.273,-35.645,-52.246,0.000
1680449287.551,-37.598,-33.691,-41.016,-59.082,0.000
1680449287.555,-40.039,-32.715,-37.109,-46.387,0.000
1680449287.559,-37.598,-31.250,-25.879,-30.762,0.000
1680449287.563,-41.504,-30.762,-29.297,-35.156,0.000
1680449287.566,-47.852,-30.762,-34.668,-43.457,0.000
1680449287.570,-47.852,-32.227,-36.621,-53.223,0.000
1680449287.574,-33.691,-30.273,-32.715,-59.082,0.000
1680449287.578,-35.645,-30.273,-27.832,-47.852,0.000
1680449287.582,-32.227,-31.738,-29.785,-27.344,0.000
1680449287.586,-23.926,-29.785,-30.762,-10.742,0.000
1680449287.590,-31.250,-31.250,-22.461,-52.246,0.000
1680449287.594,-24.902,-32.715,-18.066,-64.453,0.000
1680449287.598,-20.996,-24.902,-18.066,-20.020,0.000
1680449287.602,-23.926,-24.414,-14.160,-11.230,0.000
1680449287.605,-2.930,-30.762,-17.578,-19.531,0.000
1680449287.609,-6.836,-33.203,-29.297,-20.020,0.000
1680449287.613,-35.645,-32.715,-32.715,-26.367,0.000
1680449287.617,-44.922,-37.109,-28.809,-22.461,0.000
1680449287.621,-45.410,-38.574,-26.855,-23.438,0.000
1680449287.625,-44.922,-36.133,-29.785,-34.180,0.000
1680449287.629,-44.922,-36.621,-31.738,-39.062,0.000
1680449287.633,-38.574,-37.109,-26.855,-20.996,0.000
1680449287.637,-31.250,-35.156,-29.297,-12.695,0.000
1680449287.641,-28.320,-34.668,-33.203,-31.250,0.000
1680449287.645,-23.438,-34.668,-27.832,-33.203,0.000
1680449287.648,-17.578,-37.109,-21.973,-16.113,0.000
1680449287.652,-20.996,-40.527,-29.785,-2.930,0.000
1680449287.656,-28.809,-37.109,-32.227,-10.254,0.000
1680449287.660,-30.762,-30.762,-28.809,-22.949,0.000
1680449287.664,-12.695,-32.715,-30.273,-21.973,0.000
1680449287.668,-12.207,-32.227,-28.809,-21.973,0.000
1680449287.672,-29.297,-28.320,-26.855,-29.297,0.000
1680449287.676,-21.484,-29.785,-24.902,-22.461,0.000
1680449287.680,-18.066,-26.855,-21.973,-13.184,0.000
1680449287.684,-8.789,-27.832,-28.320,-15.625,0.000
1680449287.687,-5.859,-31.738,-34.180,-24.414,0.000
1680449287.691,-39.062,-36.133,-32.227,-30.273,0.000
1680449287.695,-44.434,-41.504,-27.344,-17.578,0.000
1680449287.699,-31.250,-34.668,-28.809,-18.066,0.000
1680449287.703,-31.738,-33.691,-32.715,-34.180,0.000
1680449287.707,-35.156,-36.133,-35.645,-38.086,0.000
1680449287.711,-29.297,-30.762,-32.715,-40.039,0.000
1680449287.715,-22.461,-29.785,-33.203,-39.551,0.000
1680449287.719,-43.457,-30.273,-37.109,-42.969,0.000
1680449287.723,-37.598,-29.297,-35.156,-35.156,0.000
1680449287.727,-14.648,-31.250,-37.109,-26.367,0.000
1680449287.730,-23.926,-30.273,-34.180,-25.879,0.000
1680449287.734,-39.551,-34.180,-30.273,-39.062,0.000
1680449287.738,-23.438,-35.645,-29.785,-22.949,0.000
1680449287.742,-20.508,-31.250,-28.809,-21.484,0.000
1680449287.746,-34.180,-32.227,-33.691,-45.898,0.000
1680449287.750,-38.086,-34.180,-34.668,-48.340,0.000
1680449287.754,-39.062,-39.551,-31.738,-37.109,0.000
1680449287.758,-34.180,-36.621,-31.250,-19.531,0.000
1680449287.762,-35.156,-30.762,-24.902,-19.531,0.000
1680449287.766,-48.828,-33.691,-31.250,-40.039,0.000
1680449287.770,-39.551,-33.691,-34.180,-46.875,0.000
1680449287.773,-25.391,-29.297,-27.832,-40.039,0.000
1680449287.777,-43.945,-30.273,-32.227,-22.949,0.000
1680449287.781,-53.711,-30.762,-32.715,-19.043,0.000
1680449287.785,-44.434,-30.273,-31.250,-23.926,0.000
1680449287.789,-41.504,-30.273,-32.715,-44.922,0.000
1680449287.793,-41.016,-27.344,-27.832,-47.852,0.000
1680449287.797,-43.457,-24.902,-25.391,-33.203,0.000
1680449287.801,-47.852,-26.367,-29.785,-42.480,0.000
1680449287.805,-40.039,-29.297,-29.785,-42.480,0.000
1680449287.809,-35.645,-27.832,-27.832,-48.340,0.000
1680449287.812,-37.598,-26.855,-28.320,-50.781,0.000
1680449287.816,-30.273,-29.785,-28.320,-24.902,0.000
1680449287.820,-25.879,-28.809,-29.297,-16.113,0.000
1680449287.824,-33.691,-27.344,-24.414,-28.320,0.000
1680449287.828,-41.016,-29.785,-20.508,-25.879,0.000
1680449287.832,-47.363,-30.273,-25.879,-34.180,0.000
1680449287.836,-33.203,-33.691,-29.297,-54.199,0.000
1680449287.840,-20.508,-33.203,-26.367,-49.316,0.000
1680449287.844,-40.527,-33.691,-21.484,-32.715,0.000
1680449287.848,-50.293,-36.133,-27.344,-35.156,0.000
1680449287.852,-42.480,-31.250,-29.297,-49.316,0.000
1680449287.855,-30.762,-25.879,-23.926,-48.828,0.000
1680449287.859,-19.043,-20.508,-18.555,-37.109,0.000
1680449287.863,-32.715,-23.926,-19.043,-23.926,0.000
1680449287.867,-44.922,-27.344,-25.879,-26.855,0.000
1680449287.871,-51.758,-24.902,-32.227,-38.086,0.000
1680449287.875,-50.781,-21.484,-30.273,-32.715,0.000
1680449287.879,-46.387,-28.809,-30.273,-17.578,0.000
1680449287.883,-42.969,-34.180,-33.691,-31.250,0.000
1680449287.887,-37.109,-29.297,-28.809,-44.434,0.000
1680449287.891,-48.340,-28.809,-23.926,-35.645,0.000
1680449287.895,-54.688,-30.762,-28.320,-26.367,0.000
1680449287.898,-47.852,-28.809,-29.297,-26.367,0.000
1680449287.902,-41.504,-30.273,-30.273,-26.855,0.000
1680449287.906,-22.461,-34.180,-30.273,-24.902,0.000
1680449287.910,-36.133,-30.762,-29.297,-37.109,0.000
1680449287.914,-48.340,-28.320,-33.203,-41.504,0.000
1680449287.918,-48.828,-28.320,-30.762,-28.320,0.000
1680449287.922,-52.246,-29.785,-23.438,-35.645,0.000
1680449287.926,-41.016,-31.250,-29.785,-43.945,0.000
1680449287.930,-46.387,-34.180,-31.738,-38.086,0.000
1680449287.934,-45.410,-40.039,-23.438,-30.762,0.000
1680449287.937,-37.109,-39.062,-26.367,-11.230,0.000
1680449287.941,-37.598,-33.691,-35.645,-3.418,0.000
1680449287.945,-44.922,-30.273,-37.598,-33.691,0.000
1680449287.949,-39.551,-30.762,-39.062,-60.059,0.000
1680449287.953,-25.879,-29.297,-39.551,-50.293,0.000
1680449287.957,-35.156,-28.809,-36.621,-39.062,0.000
1680449287.961,-48.340,-34.180,-34.180,-36.621,0.000
1680449287.965,-43.457,-31.250,-37.598,-37.598,0.000
1680449287.969,-29.785,-25.879,-36.621,-31.250,0.000
1680449287.973,-42.969,-22.949,-30.273,-24.902,0.000
1680449287.977,-49.805,-27.344,-25.879,-29.297,0.000
1680449287.980,-32.715,-31.738,-23.926,-42.969,0.000
1680449287.984,-29.297,-29.297,-33.203,-36.621,0.000
1680449287.988,-38.574,-28.320,-38.086,-33.691,0.000
1680449287.992,-45.410,-35.156,-38.086,-30.273,0.000
1680449287.996,-49.805,-40.527,-36.133,-13.672,0.000
1680449288.000,-39.551,-41.992,-34.668,-18.066,0.000
1680449288.004,-29.297,-41.016,-31.250,-20.508,0.000
1680449288.008,-39.062,-35.645,-31.250,-43.945,0.000
1680449288.012,-39.551,-31.250,-35.156,-62.988,0.000
1680449288.016,-31.738,-27.832,-31.250,-44.922,0.000
1680449288.020,-34.180,-24.414,-26.367,-30.762,0.000
1680449288.023,-34.668,-25.879,-20.996,-29.785,0.000
1680449288.027,-40.039,-29.297,-24.414,-34.668,0.000
1680449288.031,-42.969,-27.344,-25.391,-24.414,0.000
1680449288.035,-39.551,-25.879,-20.508,-20.508,0.000
1680449288.039,-40.527,-28.809,-22.949,-9.766,0.000
1680449288.043,-41.992,-28.809,-30.273,-17.578,0.000
1680449288.047,-38.574,-33.203,-37.598,-41.504,0.000
1680449288.051,-29.785,-36.621,-35.645,-41.504,0.000
1680449288.055,-23.438,-37.109,-34.180,-23.926,0.000
1680449288.059,-25.879,-33.203,-33.203,-12.695,0.000
1680449288.062,-42.480,-29.785,-30.762,-28.809,0.000
1680449288.066,-60.547,-34.180,-30.762,-50.293,0.000
1680449288.070,-53.711,-39.062,-24.414,-57.129,0.000
1680449288.074,-44.434,-39.062,-28.809,-48.340,0.000
1680449288.078,-35.156,-40.527,-31.738,-26.367,0.000
1680449288.082,-40.039,-36.133,-29.297,-8.789,0.000
1680449288.086,-49.316,-33.203,-33.691,-22.461,0.000
1680449288.090,-43.945,-29.785,-31.250,-36.133,0.000
1680449288.094,-41.504,-34.668,-37.109,-40.039,0.000
1680449288.098,-36.621,-38.086,-40.039,-33.691,0.000
1680449288.102,-41.504,-35.645,-32.715,-26.855,0.000
1680449288.105,-56.152,-38.086,-36.133,-17.578,0.000
1680449288.109,-49.805,-35.645,-38.086,-29.297,0.000
1680449288.113,-37.109,-34.180,-21.973,-56.641,0.000
1680449288.117,-35.156,-34.180,-26.855,-45.898,0.000
1680449288.121,-42.969,-34.180,-37.598,-27.832,0.000
1680449288.125,-41.504,-37.109,-35.156,-35.645,0.000
1680449288.129,-27.344,-32.227,-38.086,-35.156,0.000
1680449288.133,-27.832,-31.738,-42.969,-24.414,0.000
1680449288.137,-53.223,-37.109,-36.133,-28.320,0.000
1680449288.141,-66.895,-39.551,-33.203,-20.996,0.000
1680449288.144,-61.035,-31.738,-30.762,-34.668,0.000
1680449288.148,-48.828,-25.879,-30.273,-51.758,0.000
1680449288.152,-50.781,-24.902,-35.156,-51.270,0.000
1680449288.156,-49.805,-21.484,-28.809,-50.293,0.000
1680449288.160,-57.617,-27.344,-21.973,-46.875,0.000
1680449288.164,-59.570,-36.133,-31.250,-51.270,0.000
1680449288.168,-42.480,-32.715,-36.621,-47.852,0.000
1680449288.172,-39.062,-30.273,-38.574,-53.711,0.000
1680449288.176,-42.969,-27.832,-35.156,-27.344,0.000
1680449288.180,-30.273,-20.996,-34.180,3.906,0.000
1680449288.184,-35.156,-20.996,-38.086,-23.926,0.000
1680449288.187,-45.410,-21.484,-39.551,-55.176,0.000
1680449288.191,-43.457,-20.020,-36.133,-55.176,0.000
1680449288.195,-27.832,-24.414,-32.715,-48.340,0.000
1680449288.199,-29.297,-26.367,-35.156,-48.340,0.000
1680449288.203,-55.176,-24.414,-30.273,-33.203,0.000
1680449288.207,-52.246,-23.926,-25.879,-27.832,0.000
1680449288.211,-35.156,-30.273,-25.879,-25.879,0.000
1680449288.215,-24.902,-30.762,-22.949,-10.254,0.000
1680449288.219,-29.785,-29.297,-14.160,-19.531,0.000
1680449288.223,-27.832,-26.855,-19.043,-46.875,0.000
1680449288.227,-27.832,-25.391,-30.762,-47.852,0.000
1680449288.230,-25.391,-31.250,-31.738,-28.809,0.000
1680449288.234,-31.738,-32.715,-25.391,-20.508,0.000
1680449288.238,-40.527,-32.227,-27.344,-12.695,0.000
1680449288.242,-13.184,-37.109,-32.227,-15.625,0.000
1680449288.246,-6.836,-35.645,-32.227,-39.062,0.000
1680449288.250,-53.711,-37.109,-31.250,-40.527,0.000
1680449288.254,-47.852,-39.062,-28.809,-27.832,0.000
1680449288.258,-32.715,-30.273,-26.367,-33.203,0.000
1680449288.262,-38.574,-28.809,-22.949,-28.320,0.000
1680449288.266,-33.691,-39.551,-19.531,-24.414,0.000
1680449288.269,-34.180,-39.551,-27.832,-29.785,0.000
1680449288.273,-39.551,-36.133,-31.250,-18.066,0.000
1680449288.277,-29.785,-38.086,-30.762,-28.809,0.000
1680449288.281,-16.602,-39.551,-31.738,-47.852,0.000
1680449288.285,-39.551,-33.691,-33.203,-41.504,0.000
1680449288.289,-54.199,-33.203,-31.250,-37.109,0.000
1680449288.293,-36.133,-33.691,-24.414,-26.855,0.000
1680449288.297,-27.832,-29.297,-23.926,-14.160,0.000
1680449288.301,-19.531,-23.438,-19.531,-10.254,0.000
1680449288.305,-33.203,-26.367,-19.531,-28.809,0.000
1680449288.309,-52.246,-42.480,-18.555,-46.875,0.000
1680449288.312,-40.039,-42.480,-17.090,-41.504,0.000
1680449288.316,-29.297,-34.668,-21.484,-28.320,0.000
1680449288.320,-31.738,-35.156,-24.414,-24.902,0.000
1680449288.324,-40.039,-32.227,-24.414,-46.875,0.000
1680449288.328,-32.715,-32.227,-24.902,-53.711,0.000
1680449288.332,-31.250,-32.715,-27.344,-50.781,0.000
1680449288.336,-48.340,-33.691,-30.273,-45.898,0.000
1680449288.340,-47.852,-35.645,-30.273,-39.551,0.000
1680449288.344,-35.645,-35.645,-26.855,-38.574,0.000
1680449288.348,-36.133,-37.109,-28.809,-28.320,0.000
1680449288.352,-39.551,-43.945,-30.273,-37.109,0.000
1680449288.355,-33.203,-46.875,-24.902,-39.551,0.000
1680449288.359,-29.297,-41.016,-28.809,-28.809,0.000
1680449288.363,-34.668,-34.180,-27.832,-18.555,0.000
1680449288.367,-48.828,-36.621,-27.344,-31.250,0.000
1680449288.371,-51.758,-34.180,-26.367,-46.875,0.000
1680449288.375,-49.316,-29.785,-21.484,-39.551,0.000
1680449288.379,-38.086,-32.227,-20.508,-45.410,0.000
1680449288.383,-38.574,-32.715,-23.438,-46.387,0.000
1680449288.387,-53.223,-31.738,-25.879,-41.992,0.000
1680449288.391,-35.645,-25.391,-20.996,-33.691,0.000
1680449288.394,-25.391,-23.438,-21.484,-13.184,0.000
1680449288.398,-33.203,-33.691,-17.090,1.953,0.000
1680449288.402,-28.809,-32.715,-18.066,-25.879,0.000
1680449288.406,-25.879,-28.809,-30.273,-71.289,0.000
1680449288.410,-30.762,-32.227,-31.738,-75.195,0.000
1680449288.414,-39.062,-34.668,-30.762,-53.223,0.000
1680449288.418,-40.039,-36.133,-28.320,-39.551,0.000
1680449288.422,-26.367,-36.621,-23.926,-27.832,0.000
1680449288.426,-41.504,-35.645,-29.297,-42.480,0.000
1680449288.430,-51.758,-34.180,-29.785,-50.293,0.000
1680449288.434,-37.109,-36.133,-28.809,-22.461,0.000
1680449288.437,-35.156,-30.762,-32.715,-13.672,0.000
1680449288.441,-38.574,-30.273,-28.320,-30.762,0.000
1680449288.445,-30.762,-34.668,-19.043,-29.297,0.000
1680449288.449,-35.156,-32.227,-26.855,-33.203,0.000
1680449288.453,-45.410,-31.738,-32.227,-43.945,0.000
1680449288.457,-37.598,-30.273,-31.250,-36.133,0.000
1680449288.461,-30.762,-28.809,-30.762,-30.273,0.000
1680449288.465,-31.738,-36.621,-38.574,-26.855,0.000
1680449288.469,-46.875,-39.551,-42.969,-31.738,0.000
1680449288.473,-55.176,-33.691,-42.969,-33.691,0.000
1680449288.477,-47.363,-31.738,-39.551,-32.715,0.000
1680449288.480,-54.688,-32.227,-36.133,-46.875,0.000
1680449288.484,-56.152,-31.250,-34.180,-52.246,0.000
1680449288.488,-48.828,-31.250,-23.926,-54.688,0.000
1680449288.492,-65.918,-32.715,-30.273,-62.988,0.000
1680449288.496,-66.406,-30.762,-37.598,-47.852,0.000
1680449288.500,-49.316,-26.367,-33.203,-37.598,0.000
1680449288.504,-40.039,-29.297,-36.133,-34.180,0.000
1680449288.508,-36.621,-35.156,-40.039,-29.785,0.000
1680449288.512,-28.320,-34.668,-37.598,-39.551,0.000
1680449288.516,-14.160,-30.273,-37.109,-41.504,0.000
1680449288.519,-18.066,-28.320,-36.133,-29.297,0.000
1680449288.523,-22.461,-30.273,-36.133,-35.156,0.000
1680449288.527,-33.203,-24.902,-35.645,-54.199,0.000
1680449288.531,-32.227,-21.484,-32.715,-46.387,0.000
1680449288.535,-20.996,-22.949,-28.809,-34.180,0.000
1680449288.539,-28.320,-21.484,-29.785,-25.391,0.000
1680449288.543,-33.691,-21.484,-32.227,-28.320,0.000
1680449288.547,-35.645,-25.391,-32.227,-55.664,0.000
1680449288.551,-38.574,-23.926,-36.621,-59.082,0.000
1680449288.555,-41.016,-23.438,-33.691,-36.621,0.000
1680449288.559,-27.344,-20.996,-24.414,-20.020,0.000
1680449288.562,-20.996,-23.926,-23.438,-23.438,0.000
1680449288.566,-51.758,-31.250,-29.297,-45.410,0.000
1680449288.570,-60.547,-30.273,-31.738,-46.875,0.000
1680449288.574,-32.715,-29.297,-30.762,-28.320,0.000
1680449288.578,-11.719,-32.227,-28.809,-41.504,0.000
1680449288.582,-34.180,-33.691,-33.691,-45.410,0.000
1680449288.586,-40.039,-31.738,-34.668,-31.250,0.000
1680449288.590,-28.320,-31.738,-33.203,-31.250,0.000
1680449288.594,-34.180,-35.645,-29.785,-38.086,0.000
1680449288.598,-31.738,-31.738,-27.832,-39.551,0.000
1680449288.601,-30.273,-26.367,-28.809,-43.457,0.000
1680449288.605,-31.738,-26.855,-28.809,-42.480,0.000
1680449288.609,-45.898,-26.855,-30.273,-37.598,0.000
1680449288.613,-49.805,-26.855,-31.250,-41.504,0.000
1680449288.617,-35.645,-25.391,-29.785,-42.480,0.000
1680449288.621,-37.109,-30.273,-33.203,-31.250,0.000
1680449288.625,-50.781,-31.738,-35.645,-25.391,0.000
1680449288.629,-52.734,-28.320,-35.156,-48.828,0.000
1680449288.633,-46.875,-29.785,-35.645,-50.293,0.000
1680449288.637,-38.574,-31.738,-32.227,-39.062,0.000
1680449288.641,-32.715,-28.320,-30.762,-39.062,0.000
1680449288.644,-30.762,-23.438,-34.668,-29.297,0.000
1680449288.648,-32.715,-25.879,-34.180,-23.926,0.000
1680449288.652,-35.645,-31.250,-34.668,-38.086,0.000
1680449288.656,-44.922,-34.180,-34.180,-48.828,0.000
1680449288.660,-48.828,-36.621,-32.715,-32.227,0.000
1680449288.664,-35.156,-36.621,-38.086,-21.973,0.000
1680449288.668,-25.879,-36.621,-40.039,-38.086,0.000
1680449288.672,-35.645,-35.645,-38.086,-43.945,0.000
1680449288.676,-43.945,-32.715,-32.715,-31.250,0.000
1680449288.680,-41.016,-26.855,-28.320,-18.555,0.000
1680449288.684,-47.363,-27.344,-23.926,-20.020,0.000
1680449288.687,-48.340,-26.855,-24.902,-28.320,0.000
1680449288.691,-35.156,-24.414,-27.344,-25.879,0.000
1680449288.695,-21.484,-25.391,-30.762,-1.953,0.000
1680449288.699,-13.184,-22.949,-31.250,-8.789,0.000
1680449288.703,-21.484,-24.902,-28.809,-41.016,0.000
1680449288.707,-29.785,-26.367,-31.250,-50.781,0.000
1680449288.711,-38.574,-24.414,-29.297,-46.387,0.000
1680449288.715,-36.133,-23.926,-24.902,-37.109,0.000
1680449288.719,-32.715,-24.414,-21.484,-26.367,0.000
1680449288.723,-51.270,-30.273,-22.461,-30.273,0.000
1680449288.726,-54.199,-34.180,-23.438,-24.414,0.000
1680449288.730,-39.551,-34.668,-21.973,-20.508,0.000
1680449288.734,-31.738,-33.691,-27.832,-26.855,0.000
1680449288.738,-22.949,-30.273,-25.391,-25.879,0.000
1680449288.742,-12.207,-25.879,-20.996,-21.484,0.000
1680449288.746,-18.555,-26.855,-24.902,-30.762,0.000
1680449288.750,-32.715,-27.832,-29.785,-25.879,0.000
1680449288.754,-48.828,-33.691,-31.250,-33.203,0.000
1680449288.758,-47.363,-32.715,-26.367,-44.434,0.000
1680449288.762,-36.133,-22.949,-22.461,-42.480,0.000
1680449288.766,-38.086,-21.973,-20.996,-28.320,0.000
1680449288.769,-35.156,-27.344,-22.949,-23.926,0.000
1680449288.773,-28.809,-31.738,-19.531,-30.762,0.000
1680449288.777,-29.785,-33.691,-21.484,-16.602,0.000
1680449288.781,-36.133,-33.203,-29.785,-9.277,0.000
1680449288.785,-37.109,-35.645,-33.691,-29.297,0.000
1680449288.789,-42.480,-35.156,-32.715,-29.785,0.000
1680449288.793,-52.734,-30.762,-29.785,-12.207,0.000
1680449288.797,-49.805,-24.902,-25.391,-9.766,0.000
1680449288.801,-41.016,-25.879,-25.391,-4.395,0.000
1680449288.805,-37.109,-30.762,-30.273,-25.391,0.000
1680449288.809,-41.504,-32.715,-33.203,-41.504,0.000
1680449288.812,-47.852,-36.133,-34.180,-28.320,0.000
1680449288.816,-43.457,-34.180,-30.273,-15.137,0.000
1680449288.820,-47.363,-31.250,-25.391,-16.602,0.000
1680449288.824,-51.270,-27.344,-28.809,-38.574,0.000
1680449288.828,-52.734,-26.367,-30.273,-51.270,0.000
1680449288.832,-61.035,-30.273,-29.297,-47.363,0.000
1680449288.836,-61.035,-28.809,-33.203,-46.387,0.000
1680449288.840,-49.805,-27.344,-34.180,-51.758,0.000
1680449288.844,-35.156,-30.273,-31.738,-55.664,0.000
1680449288.848,-41.016,-27.344,-33.203,-57.617,0.000
1680449288.851,-49.316,-28.320,-35.645,-47.852,0.000
1680449288.855,-42.969,-27.832,-33.691,-37.109,0.000
1680449288.859,-33.691,-28.809,-33.691,-42.969,0.000
1680449288.863,-35.645,-31.738,-25.879,-38.574,0.000
1680449288.867,-41.992,-34.180,-28.809,-44.434,0.000
1680449288.871,-37.598,-38.086,-39.062,-57.617,0.000
1680449288.875,-39.062,-39.062,-32.715,-42.969,0.000
1680449288.879,-49.805,-34.668,-22.461,-28.320,0.000
1680449288.883,-48.340,-30.762,-24.902,-29.297,0.000
1680449288.887,-52.734,-35.156,-30.762,-38.086,0.000
1680449288.891,-52.246,-35.645,-30.762,-51.270,0.000
1680449288.894,-42.969,-29.297,-29.297,-45.410,0.000
1680449288.898,-44.922,-32.227,-27.832,-27.344,0.000
1680449288.902,-44.922,-31.738,-29.297,-18.066,0.000
1680449288.906,-52.734,-34.180,-27.832,-37.109,0.000
1680449288.910,-48.340,-39.062,-24.414,-53.223,0.000
1680449288.914,-33.691,-41.016,-29.785,-40.039,0.000
1680449288.918,-32.715,-36.621,-27.344,-29.297,0.000
1680449288.922,-41.992,-36.133,-23.438,-28.320,0.000
1680449288.926,-47.852,-42.480,-29.785,-35.645,0.000
1680449288.930,-46.387,-39.062,-30.273,-42.480,0.000
1680449288.934,-41.992,-30.762,-22.949,-42.969,0.000
1680449288.937,-29.785,-30.273,-18.555,-30.273,0.000
1680449288.941,-30.762,-33.691,-20.020,-15.137,0.000
1680449288.945,-43.457,-35.156,-24.902,-33.691,0.000
1680449288.949,-42.480,-32.715,-25.879,-55.664,0.000
1680449288.953,-44.922,-30.762,-22.461,-45.410,0.000
1680449288.957,-42.969,-30.273,-18.555,-23.438,0.000
1680449288.961,-28.320,-32.715,-24.902,-8.789,0.000
1680449288.965,-36.621,-35.645,-32.227,-4.883,0.000
1680449288.969,-59.082,-33.203,-26.855,-35.645,0.000
1680449288.973,-66.406,-35.156,-31.250,-65.430,0.000
1680449288.976,-64.941,-36.133,-35.156,-50.781,0.000
1680449288.980,-62.988,-33.203,-36.621,-47.852,0.000
1680449288.984,-61.035,-39.551,-41.016,-57.617,0.000
1680449288.988,-45.898,-43.945,-37.109,-55.664,0.000
1680449288.992,-50.293,-43.457,-35.156,-49.805,0.000
1680449288.996,-60.059,-45.410,-36.621,-36.621,0.000
1680449289.000,-52.734,-38.574,-34.668,-30.762,0.000
1680449289.004,-53.223,-36.621,-30.273,-29.297,0.000
1680449289.008,-55.176,-39.062,-27.832,-34.668,0.000
1680449289.012,-47.363,-39.062,-27.832,-57.617,0.000
1680449289.016,-42.480,-40.039,-27.832,-59.570,0.000
1680449289.019,-45.410,-34.668,-32.227,-42.969,0.000
1680449289.023,-41.016,-33.691,-34.668,-33.691,0.000
1680449289.027,-37.598,-41.016,-33.691,-30.762,0.000
1680449289.031,-47.363,-42.480,-36.621,-41.016,0.000
1680449289.035,-44.922,-39.551,-35.645,-38.086,0.000
1680449289.039,-40.527,-37.598,-31.250,-35.645,0.000
1680449289.043,-42.969,-34.180,-29.785,-41.992,0.000
1680449289.047,-46.875,-31.250,-27.344,-41.504,0.000
1680449289.051,-47.852,-32.715,-32.715,-47.363,0.000
1680449289.055,-41.992,-34.180,-31.250,-56.152,0.000
1680449289.058,-38.086,-38.574,-21.973,-39.062,0.000
1680449289.062,-33.691,-34.668,-27.344,-37.109,0.000
1680449289.066,-45.898,-28.320,-30.762,-53.711,0.000
1680449289.070,-33.691,-33.203,-32.227,-51.270,0.000
1680449289.074,-16.113,-34.668,-35.156,-44.434,0.000
1680449289.078,-36.133,-29.297,-30.273,-18.555,0.000
1680449289.082,-41.016,-29.297,-32.715,-22.949,0.000
1680449289.086,-43.457,-35.156,-38.086,-61.523,0.000
1680449289.090,-55.176,-34.668,-37.109,-63.965,0.000
1680449289.094,-51.758,-30.762,-32.715,-42.969,0.000
1680449289.098,-44.434,-28.809,-30.762,-29.785,0.000
1680449289.101,-42.969,-31.738,-34.180,-34.668,0.000
1680449289.105,-38.574,-33.203,-31.250,-48.828,0.000
1680449289.109,-31.738,-28.320,-30.273,-45.410,0.000
1680449289.113,-31.250,-27.344,-30.273,-44.434,0.000
1680449289.117,-38.574,-27.344,-30.273,-43.457,0.000
1680449289.121,-35.156,-28.320,-32.227,-21.973,0.000
1680449289.125,-33.203,-27.344,-36.133,-43.945,0.000
1680449289.129,-21.484,-25.879,-39.062,-66.895,0.000
1680449289.133,-25.391,-28.809,-35.156,-55.176,0.000
1680449289.137,-47.852,-31.250,-33.691,-46.387,0.000
1680449289.141,-38.086,-30.762,-32.227,-36.621,0.000
1680449289.144,-24.414,-26.855,-30.273,-37.598,0.000
1680449289.148,-37.109,-33.691,-25.879,-45.410,0.000
1680449289.152,-49.316,-33.691,-30.762,-41.992,0.000
1680449289.156,-48.828,-27.344,-36.133,-38.086,0.000
1680449289.160,-47.852,-29.785,-29.297,-23.926,0.000
1680449289.164,-44.434,-31.250,-27.344,-8.789,0.000
1680449289.168,-48.828,-34.668,-31.250,-13.672,0.000
1680449289.172,-43.945,-37.598,-31.738,-31.250,0.000
1680449289.176,-41.016,-33.203,-29.297,-42.969,0.000
1680449289.180,-49.805,-26.367,-31.250,-37.109,0.000
1680449289.183,-35.645,-27.344,-30.762,-40.527,0.000
1680449289.187,-29.785,-32.227,-27.832,-43.945,0.000
1680449289.191,-51.270,-36.621,-29.785,-43.945,0.000
1680449289.195,-56.641,-37.598,-27.344,-51.270,0.000
1680449289.199,-46.875,-34.668,-31.250,-54.199,0.000
1680449289.203,-44.922,-31.250,-30.762,-42.969,0.000
1680449289.207,-55.664,-33.691,-33.691,-38.574,0.000
1680449289.211,-60.059,-37.109,-38.086,-53.711,0.000
1680449289.215,-51.758,-35.645,-34.668,-52.734,0.000
1680449289.219,-52.246,-34.180,-34.180,-28.809,0.000
1680449289.223,-54.688,-34.180,-31.738,-16.113,0.000
1680449289.226,-51.270,-37.598,-36.133,-19.043,0.000
1680449289.230,-46.387,-33.203,-37.109,-27.832,0.000
1680449289.234,-38.086,-27.832,-33.691,-52.734,0.000
1680449289.238,-48.340,-30.762,-25.879,-53.711,0.000
1680449289.242,-62.012,-33.203,-29.785,-45.410,0.000
1680449289.246,-49.316,-33.203,-41.016,-53.223,0.000
1680449289.250,-35.156,-37.109,-41.992,-42.480,0.000
1680449289.254,-52.246,-34.180,-39.551,-43.945,0.000
1680449289.258,-52.246,-30.273,-37.109,-48.828,0.000
1680449289.262,-53.711,-37.109,-34.180,-37.598,0.000
1680449289.266,-63.965,-40.039,-35.645,-54.688,0.000
1680449289.269,-52.734,-33.691,-33.203,-60.059,0.000
1680449289.273,-51.758,-32.715,-29.785,-55.664,0.000
1680449289.277,-47.363,-30.273,-30.273,-39.062,0.000
1680449289.281,-46.875,-22.949,-22.461,-29.297,0.000
1680449289.285,-58.105,-30.273,-20.996,-47.852,0.000
1680449289.289,-61.035,-36.133,-28.809,-47.852,0.000
1680449289.293,-49.805,-33.691,-32.227,-43.457,0.000
1680449289.297,-26.367,-34.180,-30.273,-34.668,0.000
1680449289.301,-33.203,-32.227,-29.785,-20.020,0.000
1680449289.305,-35.645,-28.809,-30.762,-33.203,0.000
1680449289.308,-33.203,-30.762,-34.180,-50.781,0.000
1680449289.312,-43.945,-33.691,-31.738,-46.387,0.000
1680449289.316,-37.598,-28.809,-26.367,-48.340,0.000
1680449289.320,-46.875,-27.344,-29.297,-48.828,0.000
1680449289.324,-48.828,-30.273,-31.250,-40.527,0.000
1680449289.328,-31.250,-27.832,-29.297,-38.086,0.000
1680449289.332,-23.438,-30.273,-33.203,-44.922,0.000
1680449289.336,-25.391,-29.785,-32.227,-42.480,0.000
1680449289.340,-28.809,-28.320,-30.762,-20.020,0.000
1680449289.344,-26.855,-38.086,-24.902,-33.691,0.000
1680449289.348,-38.574,-42.480,-35.645,-47.363,0.000
1680449289.351,-36.133,-37.109,-41.016,-42.969,0.000
1680449289.355,-11.719,-29.297,-32.715,-27.832,0.000
1680449289.359,-20.508,-25.879,-32.715,0.000,0.000
1680449289.363,-40.527,-29.297,-31.738,-14.648,0.000
1680449289.367,-40.527,-29.785,-36.621,-50.293,0.000
1680449289.371,-35.156,-30.762,-36.621,-47.852,0.000
1680449289.375,-28.320,-28.809,-32.227,-38.086,0.000
1680449289.379,-36.621,-28.320,-33.203,-40.039,0.000
1680449289.383,-43.945,-31.738,-35.645,-41.992,0.000
1680449289.387,-41.016,-32.227,-30.273,-40.039,0.000
1680449289.391,-40.527,-34.668,-23.926,-30.273,0.000
1680449289.394,-36.621,-36.133,-25.879,-34.180,0.000
1680449289.398,-38.086,-35.156,-26.367,-29.785,0.000
1680449289.402,-44.434,-37.109,-24.414,-24.902,0.000
1680449289.406,-35.645,-36.621,-26.367,-44.922,0.000
1680449289.410,-33.203,-32.715,-28.320,-50.293,0.000
1680449289.414,-37.598,-30.273,-28.809,-27.344,0.000
1680449289.418,-15.625,-28.320,-26.855,-20.508,0.000
1680449289.422,-15.625,-25.391,-24.902,-29.785,0.000
1680449289.426,-50.293,-27.832,-28.809,-32.715,0.000
1680449289.430,-50.781,-35.645,-34.180,-34.668,0.000
1680449289.433,-47.852,-39.062,-21.973,-44.922,0.000
1680449289.437,-51.270,-33.203,-18.066,-41.992,0.000
1680449289.441,-48.340,-26.855,-30.273,-37.109,0.000
1680449289.445,-51.270,-26.367,-34.180,-41.992,0.000
1680449289.449,-51.270,-29.297,-33.203,-38.574,0.000
1680449289.453,-49.805,-28.320,-36.621,-41.992,0.000
1680449289.457,-35.156,-23.926,-40.039,-47.852,0.000
1680449289.461,-27.344,-29.785,-38.574,-41.016,0.000
1680449289.465,-39.551,-36.133,-36.133,-39.062,0.000
1680449289.469,-41.504,-28.809,-35.156,-47.852,0.000
1680449289.473,-40.039,-21.973,-33.203,-49.316,0.000
1680449289.476,-33.203,-22.461,-30.273,-26.367,0.000
1680449289.480,-32.715,-24.902,-29.785,-20.020,0.000
1680449289.484,-45.898,-26.367,-28.809,-22.461,0.000
1680449289.488,-48.828,-28.320,-27.344,-15.137,0.000
1680449289.492,-43.457,-34.180,-26.367,-36.133,0.000
1680449289.496,-35.156,-33.203,-22.461,-37.598,0.000
1680449289.500,-41.504,-28.809,-25.391,-26.367,0.000
1680449289.504,-45.410,-32.227,-33.203,-41.992,0.000
1680449289.508,-47.852,-27.344,-35.156,-46.387,0.000
1680449289.512,-44.922,-26.367,-31.250,-46.875,0.000
1680449289.515,-43.457,-34.668,-34.180,-47.852,0.000
1680449289.519,-52.734,-33.691,-33.691,-37.598,0.000
1680449289.523,-51.270,-38.574,-26.855,-22.949,0.000
1680449289.527,-42.969,-43.457,-34.180,-6.348,0.000
1680449289.531,-43.945,-39.062,-40.527,-25.391,0.000
1680449289.535,-46.387,-36.621,-34.180,-54.688,0.000
1680449289.539,-34.668,-33.691,-35.156,-44.922,0.000
1680449289.543,-36.133,-33.203,-32.227,-28.320,0.000
1680449289.547,-48.828,-39.062,-37.109,-36.133,0.000
1680449289.551,-58.105,-41.504,-40.527,-60.059,0.000
1680449289.555,-67.383,-41.504,-32.715,-49.316,0.000
1680449289.558,-60.547,-39.551,-30.762,-27.832,0.000
1680449289.562,-51.270,-33.691,-33.203,-29.297,0.000
1680449289.566,-49.316,-35.156,-34.668,-34.668,0.000
1680449289.570,-40.039,-37.598,-30.762,-51.270,0.000
1680449289.574,-40.039,-37.109,-30.762,-56.152,0.000
1680449289.578,-39.062,-39.551,-34.180,-36.621,0.000
1680449289.582,-39.062,-39.551,-35.156,-37.598,0.000
1680449289.586,-49.805,-39.551,-33.691,-49.316,0.000
1680449289.590,-60.547,-43.457,-38.086,-39.062,0.000
1680449289.594,-54.199,-42.969,-35.645,-28.320,0.000
1680449289.598,-30.273,-34.668,-30.273,-41.016,0.000
1680449289.601,-18.555,-28.320,-32.715,-37.598,0.000
1680449289.605,-32.227,-29.785,-31.738,-31.738,0.000
1680449289.609,-46.387,-35.645,-24.902,-47.852,0.000
1680449289.613,-39.062,-44.434,-18.555,-48.340,0.000
1680449289.617,-29.297,-47.363,-27.832,-27.344,0.000
1680449289.621,-27.344,-44.434,-32.715,-16.113,0.000
1680449289.625,-33.203,-40.527,-31.738,-28.320,0.000
1680449289.629,-36.133,-35.156,-35.156,-37.598,0.000
1680449289.633,-43.457,-35.645,-36.133,-32.715,0.000
1680449289.637,-40.527,-33.203,-30.273,-33.691,0.000
1680449289.640,-44.922,-34.180,-26.367,-19.043,0.000
1680449289.644,-48.340,-34.180,-31.250,-1.465,0.000
1680449289.648,-34.668,-28.809,-29.785,-16.602,0.000
1680449289.652,-33.691,-33.203,-33.203,-35.156,0.000
1680449289.656,-29.297,-35.156,-35.645,-27.832,0.000
1680449289.660,-39.551,-29.785,-20.996,-9.277,0.000
1680449289.664,-52.246,-31.250,-26.367,-18.066,0.000
1680449289.668,-42.969,-33.691,-32.715,-24.902,0.000
1680449289.672,-37.598,-34.668,-30.762,-40.039,0.000
1680449289.676,-18.555,-30.273,-29.297,-44.922,0.000
1680449289.680,-19.531,-31.738,-28.809,-30.273,0.000
1680449289.683,-42.480,-32.715,-30.273,-20.508,0.000
1680449289.687,-40.527,-31.738,-33.691,-6.348,0.000
1680449289.691,-39.551,-35.156,-32.715,-22.461,0.000
1680449289.695,-34.180,-40.039,-26.367,-38.086,0.000
1680449289.699,-32.227,-34.180,-27.344,-12.695,0.000
1680449289.703,-25.879,-29.785,-21.973,-3.906,0.000
1680449289.707,-17.578,-33.203,-27.832,-40.527,0.000
1680449289.711,-38.574,-41.016,-38.086,-64.941,0.000
1680449289.715,-28.320,-41.504,-33.691,-46.387,0.000
1680449289.719,-21.973,-36.133,-30.273,-27.832,0.000
1680449289.723,-29.785,-38.086,-34.668,-30.762,0.000
1680449289.726,-34.180,-36.621,-38.086,-32.715,0.000
1680449289.730,-42.480,-34.180,-36.133,-31.250,0.000
1680449289.734,-42.969,-35.156,-33.691,-27.344,0.000
1680449289.738,-38.086,-28.320,-28.320,-28.320,0.000
1680449289.742,-21.484,-21.973,-25.391,-32.715,0.000
1680449289.746,-17.578,-25.879,-25.879,-23.438,0.000
1680449289.750,-32.715,-24.902,-20.996,-32.715,0.000
1680449289.754,-31.250,-19.531,-19.043,-38.086,0.000
1680449289.758,-27.832,-17.578,-28.320,-25.879,0.000
1680449289.762,-31.250,-26.367,-30.273,-34.668,0.000
1680449289.765,-25.391,-32.715,-25.879,-44.434,0.000
1680449289.769,-28.809,-26.855,-30.762,-42.480,0.000
1680449289.773,-46.387,-21.973,-29.785,-45.898,0.000
1680449289.777,-47.363,-26.367,-27.344,-39.062,0.000
1680449289.781,-33.203,-30.273,-25.391,-37.109,0.000
1680449289.785,-39.062,-27.344,-23.926,-44.434,0.000
1680449289.789,-48.340,-24.902,-27.832,-44.922,0.000
1680449289.793,-46.875,-26.367,-31.250,-41.992,0.000
1680449289.797,-45.410,-29.785,-32.715,-19.043,0.000
1680449289.801,-49.805,-27.344,-28.320,-24.414,0.000
1680449289.805,-43.457,-28.809,-28.320,-56.152,0.000
1680449289.808,-45.898,-29.297,-25.879,-62.988,0.000
1680449289.812,-49.316,-31.250,-27.832,-56.641,0.000
1680449289.816,-41.992,-33.691,-30.762,-49.316,0.000
1680449289.820,-37.109,-29.297,-27.344,-39.551,0.000
1680449289.824,-52.246,-24.902,-29.297,-28.809,0.000
1680449289.828,-48.340,-22.949,-28.809,-36.621,0.000
1680449289.832,-27.344,-22.461,-27.832,-50.293,0.000
1680449289.836,-40.039,-22.461,-31.738,-42.969,0.000
1680449289.840,-37.598,-21.484,-31.250,-17.090,0.000
1680449289.844,-32.227,-20.996,-22.949,-16.602,0.000
1680449289.848,-35.156,-21.484,-22.949,-44.922,0.000
1680449289.851,-37.598,-23.438,-26.855,-46.875,0.000
1680449289.855,-39.551,-29.785,-24.414,-43.457,0.000
1680449289.859,-39.551,-32.715,-29.785,-42.969,0.000
1680449289.863,-38.574,-28.809,-34.180,-37.109,0.000
1680449289.867,-30.762,-27.344,-33.203,-43.457,0.000
1680449289.871,-33.691,-26.855,-31.738,-44.434,0.000
1680449289.875,-39.062,-21.973,-35.156,-29.785,0.000
1680449289.879,-30.273,-24.902,-36.133,-34.180,0.000
1680449289.883,-29.785,-25.391,-31.738,-29.785,0.000
1680449289.887,-44.922,-29.297,-33.691,-20.020,0.000
1680449289.890,-26.855,-31.250,-36.621,-32.227,0.000
1680449289.894,-24.414,-26.855,-31.738,-33.203,0.000
1680449289.898,-46.387,-33.691,-27.344,-20.020,0.000
1680449289.902,-48.828,-33.203,-28.320,-21.484,0.000
1680449289.906,-29.297,-30.273,-35.645,-48.828,0.000
1680449289.910,-39.551,-32.227,-37.109,-68.359,0.000
1680449289.914,-53.223,-35.645,-33.691,-49.805,0.000
1680449289.918,-40.527,-37.109,-32.715,-36.133,0.000
1680449289.922,-38.086,-32.227,-31.250,-30.273,0.000
1680449289.926,-42.969,-27.832,-29.297,-30.273,0.000
1680449289.930,-38.574,-31.250,-31.250,-42.480,0.000
1680449289.933,-27.344,-28.320,-29.297,-41.016,0.000
1680449289.937,-31.738,-25.879,-26.367,-19.531,0.000
1680449289.941,-27.832,-26.855,-26.855,-22.461,0.000
1680449289.945,-22.461,-28.809,-25.391,-41.992,0.000
1680449289.949,-41.992,-31.738,-31.250,-46.387,0.000
1680449289.953,-42.969,-32.227,-33.691,-37.109,0.000
1680449289.957,-31.250,-29.785,-25.391,-29.297,0.000
1680449289.961,-40.527,-23.926,-22.461,-18.555,0.000
1680449289.965,-45.410,-24.902,-29.297,-4.883,0.000
1680449289.969,-39.551,-30.762,-32.715,-25.879,0.000
1680449289.972,-30.762,-28.320,-31.738,-39.551,0.000
1680449289.976,-29.297,-22.949,-34.668,-31.738,0.000
1680449289.980,-30.762,-21.484,-35.156,-33.203,0.000
1680449289.984,-32.715,-24.902,-27.832,-32.715,0.000
1680449289.988,-36.621,-29.297,-20.020,-26.367,0.000
1680449289.992,-33.203,-29.297,-26.367,-34.668,0.000
1680449289.996,-37.109,-25.879,-30.762,-47.852,0.000
1680449290.000,-46.875,-27.832,-33.203,-49.316,0.000
1680449290.004,-41.504,-32.227,-32.715,-43.457,0.000
1680449290.008,-43.945,-32.715,-29.297,-32.227,0.000
1680449290.012,-45.898,-32.715,-32.227,-38.574,0.000
1680449290.015,-29.785,-31.250,-28.320,-30.273,0.000
1680449290.019,-27.832,-27.344,-22.949,-23.438,0.000
1680449290.023,-23.926,-30.273,-25.391,-33.203,0.000
1680449290.027,-21.484,-33.691,-26.855,-34.180,0.000
1680449290.031,-43.945,-33.691,-26.367,-40.527,0.000
1680449290.035,-49.805,-36.133,-24.414,-34.180,0.000
1680449290.039,-39.551,-36.133,-28.809,-46.875,0.000
1680449290.043,-32.227,-29.297,-33.691,-38.574,0.000
1680449290.047,-34.668,-28.320,-32.227,-14.648,0.000
1680449290.051,-42.480,-29.785,-34.180,-35.156,0.000
1680449290.055,-47.852,-32.227,-33.203,-46.875,0.000
1680449290.058,-31.250,-32.227,-28.809,-29.785,0.000
1680449290.062,-7.812,-29.297,-23.926,-18.555,0.000
1680449290.066,-21.973,-24.902,-23.926,-26.855,0.000
1680449290.070,-35.645,-22.949,-32.227,-59.570,0.000
1680449290.074,-36.621,-25.391,-34.180,-64.941,0.000
1680449290.078,-69.336,-23.438,-29.785,-46.387,0.000
1680449290.082,-73.242,-16.602,-29.785,-54.199,0.000
1680449290.086,-57.129,-16.113,-32.715,-62.500,0.000
1680449290.090,-60.059,-18.555,-27.832,-69.824,0.000
1680449290.094,-45.410,-25.391,-22.949,-93.262,0.000
1680449290.097,-46.875,-27.832,-32.227,-78.613,0.000
1680449290.101,-59.082,-25.879,-35.156,-41.504,0.000
1680449290.105,-41.504,-24.902,-31.250,-43.457,0.000
1680449290.109,-35.645,-25.391,-29.297,-55.664,0.000
1680449290.113,-41.504,-25.879,-31.250,-50.781,0.000
1680449290.117,-38.086,-21.973,-30.273,-35.645,0.000
1680449290.121,-34.180,-21.973,-26.855,-22.461,0.000
1680449290.125,-41.016,-27.832,-29.785,-34.180,0.000
1680449290.129,-44.922,-30.762,-33.691,-49.316,0.000
1680449290.133,-38.086,-31.738,-37.598,-47.852,0.000
1680449290.137,-42.969,-31.250,-33.691,-51.758,0.000
1680449290.140,-52.734,-34.668,-27.344,-47.852,0.000
1680449290.144,-43.945,-40.039,-34.180,-34.180,0.000
1680449290.148,-51.270,-39.551,-35.645,-38.574,0.000
1680449290.152,-57.617,-36.133,-29.785,-50.781,0.000
1680449290.156,-56.152,-35.156,-28.320,-34.668,0.000
1680449290.160,-62.988,-36.621,-23.926,-9.766,0.000
1680449290.164,-65.918,-33.203,-23.438,-19.531,0.000
1680449290.168,-57.129,-28.320,-25.879,-41.016,0.000
1680449290.172,-47.852,-29.785,-30.762,-52.734,0.000
1680449290.176,-39.551,-29.785,-35.156,-55.176,0.000
1680449290.180,-22.461,-22.461,-29.297,-51.758,0.000
1680449290.183,-20.996,-23.926,-19.531,-52.246,0.000
1680449290.187,-22.949,-31.250,-24.414,-58.105,0.000
1680449290.191,-30.762,-31.250,-33.691,-67.871,0.000
1680449290.195,-38.574,-30.762,-35.645,-64.453,0.000
1680449290.199,-33.203,-28.320,-32.227,-38.574,0.000
1680449290.203,-37.598,-30.273,-32.715,-23.926,0.000
1680449290.207,-48.340,-37.598,-34.668,-32.227,0.000
1680449290.211,-35.156,-38.086,-36.133,-33.691,0.000
1680449290.215,-41.504,-35.156,-32.715,-32.227,0.000
1680449290.219,-70.801,-34.180,-27.344,-34.180,0.000
1680449290.222,-48.828,-34.180,-27.832,-24.902,0.000
1680449290.226,-51.270,-37.598,-27.832,-25.391,0.000
1680449290.230,-53.711,-43.457,-22.949,-35.645,0.000
1680449290.234,-36.621,-40.039,-29.297,-50.781,0.000
1680449290.238,-63.965,-35.645,-30.762,-48.340,0.000
1680449290.242,-57.617,-39.062,-30.273,-20.508,0.000
1680449290.246,-27.832,-40.527,-32.715,-22.461,0.000
1680449290.250,-38.574,-43.457,-33.203,-39.551,0.000
1680449290.254,-36.621,-38.574,-31.250,-25.391,0.000
1680449290.258,-16.113,-31.738,-25.879,-21.484,0.000
1680449290.262,-26.367,-29.785,-24.902,-29.297,0.000
1680449290.265,-43.457,-28.809,-25.879,-11.719,0.000
1680449290.269,-33.691,-31.738,-26.855,-2.441,0.000
1680449290.273,-33.203,-30.273,-20.996,-28.809,0.000
1680449290.277,-36.621,-24.902,-23.438,-41.016,0.000
1680449290.281,-33.691,-25.879,-30.762,-26.367,0.000
1680449290.285,-40.039,-28.809,-28.809,-26.855,0.000
1680449290.289,-32.715,-28.320,-30.762,-41.504,0.000
1680449290.293,-28.320,-29.297,-33.203,-50.293,0.000
1680449290.297,-42.480,-30.273,-34.180,-42.969,0.000
1680449290.301,-37.109,-26.367,-31.250,-32.227,0.000
1680449290.305,-53.711,-27.832,-26.855,-30.273,0.000
1680449290.308,-66.406,-38.086,-29.785,-34.668,0.000
1680449290.312,-31.738,-36.621,-28.320,-34.180,0.000
1680449290.316,-35.156,-33.691,-25.879,-29.785,0.000
1680449290.320,-45.410,-37.109,-20.020,-11.719,0.000
1680449290.324,-39.062,-35.156,-22.461,-1.465,0.000
1680449290.328,-45.898,-34.180,-25.879,-8.789,0.000
1680449290.332,-53.711,-33.203,-26.855,-26.855,0.000
1680449290.336,-50.293,-31.738,-27.344,-30.273,0.000
1680449290.340,-45.410,-30.273,-20.020,-24.414,0.000
1680449290.344,-62.500,-32.227,-20.508,-36.621,0.000
1680449290.347,-74.707,-38.086,-27.344,-46.387,0.000
1680449290.351,-28.809,-38.086,-32.227,-42.969,0.000
1680449290.355,-20.996,-35.156,-30.273,-25.879,0.000
1680449290.359,-41.504,-30.273,-25.879,-19.531,0.000
1680449290.363,-35.645,-30.273,-19.531,-37.598,0.000
1680449290.367,-30.762,-31.250,-26.855,-47.852,0.000
1680449290.371,-21.973,-25.879,-31.738,-51.758,0.000
1680449290.375,-21.484,-24.414,-30.273,-50.293,0.000
1680449290.379,-18.066,-30.273,-31.250,-22.949,0.000
1680449290.383,-35.645,-33.203,-32.715,-21.484,0.000
1680449290.387,-34.668,-29.297,-33.691,-37.109,0.000
1680449290.390,-21.484,-27.832,-26.367,-41.504,0.000
1680449290.394,-54.199,-30.762,-25.391,-42.480,0.000
1680449290.398,-61.523,-33.203,-31.250,-35.156,0.000
1680449290.402,-52.734,-38.574,-32.715,-35.156,0.000
1680449290.406,-46.875,-34.668,-28.809,-40.527,0.000
1680449290.410,-37.109,-30.273,-25.879,-51.758,0.000
1680449290.414,-49.805,-32.227,-35.645,-40.039,0.000
1680449290.418,-55.664,-34.668,-33.203,-20.508,0.000
1680449290.422,-40.527,-32.227,-27.344,-15.137,0.000
1680449290.426,-40.527,-33.691,-32.715,-35.645,0.000
1680449290.429,-61.523,-33.691,-38.086,-50.293,0.000
1680449290.433,-57.617,-30.762,-38.086,-46.387,0.000
1680449290.437,-62.012,-29.785,-37.598,-56.152,0.000
1680449290.441,-54.199,-24.902,-37.109,-30.273,0.000
1680449290.445,-44.922,-25.879,-35.645,-37.109,0.000
1680449290.449,-43.457,-24.414,-34.180,-71.289,0.000
1680449290.453,-46.875,-20.508,-31.738,-63.965,0.000
1680449290.457,-32.715,-20.020,-29.297,-48.828,0.000
1680449290.461,-23.438,-27.344,-31.738,-39.551,0.000
1680449290.465,-29.785,-32.715,-33.203,-32.715,0.000
1680449290.469,-45.898,-33.691,-27.832,-46.387,0.000
1680449290.472,-53.711,-34.668,-28.320,-45.410,0.000
1680449290.476,-44.922,-35.645,-28.809,-32.227,0.000
1680449290.480,-38.086,-37.598,-23.438,-35.156,0.000
1680449290.484,-36.133,-34.668,-20.508,-20.508,0.000
1680449290.488,-30.762,-31.250,-19.043,-24.902,0.000
1680449290.492,-31.250,-30.762,-20.996,-52.734,0.000
1680449290.496,-37.598,-29.297,-24.414,-47.363,0.000
1680449290.500,-39.551,-31.738,-20.996,-34.668,0.000
1680449290.504,-41.504,-34.668,-18.555,-27.344,0.000
1680449290.508,-44.434,-30.273,-20.508,-38.574,0.000
1680449290.512,-45.410,-31.738,-20.508,-53.711,0.000
1680449290.515,-52.246,-33.203,-17.090,-62.500,0.000
1680449290.519,-40.527,-25.391,-24.902,-48.828,0.000
1680449290.523,-30.273,-28.809,-26.367,-19.531,0.000
1680449290.527,-43.945,-33.691,-26.367,-23.438,0.000
1680449290.531,-63.477,-34.180,-29.785,-35.645,0.000
1680449290.535,-52.734,-32.715,-30.273,-32.715,0.000
1680449290.539,-33.691,-27.344,-28.320,-36.621,0.000
1680449290.543,-42.480,-21.973,-26.855,-27.832,0.000
1680449290.547,-46.875,-24.414,-25.391,-37.598,0.000
1680449290.551,-46.387,-24.902,-24.902,-41.992,0.000
1680449290.554,-50.781,-23.438,-24.902,-41.504,0.000
1680449290.558,-48.828,-35.156,-19.043,-56.152,0.000
1680449290.562,-55.176,-39.062,-22.461,-45.898,0.000
1680449290.566,-56.641,-33.203,-29.297,-37.598,0.000
1680449290.570,-57.617,-30.273,-27.832,-37.598,0.000
1680449290.574,-51.758,-31.738,-27.344,-38.574,0.000
1680449290.578,-44.922,-37.598,-27.832,-35.156,0.000
1680449290.582,-56.152,-34.668,-29.297,-25.879,0.000
1680449290.586,-61.035,-32.715,-23.926,-28.320,0.000
1680449290.590,-57.617,-31.738,-22.461,-41.016,0.000
1680449290.594,-52.734,-31.250,-25.879,-50.293,0.000
1680449290.597,-61.035,-36.133,-25.879,-34.668,0.000
1680449290.601,-64.941,-37.109,-24.414,-30.273,0.000
1680449290.605,-62.988,-42.969,-25.879,-49.805,0.000
1680449290.609,-62.500,-41.992,-31.738,-45.898,0.000
1680449290.613,-51.270,-38.086,-33.203,-47.852,0.000
1680449290.617,-40.039,-38.574,-33.203,-44.922,0.000
1680449290.621,-39.551,-37.109,-36.133,-37.598,0.000
1680449290.625,-43.457,-31.738,-36.133,-41.992,0.000
1680449290.629,-41.504,-30.273,-37.109,-46.387,0.000
1680449290.633,-37.109,-29.785,-37.109,-51.758,0.000
1680449290.637,-31.738,-25.391,-36.133,-55.664,0.000
1680449290.640,-31.250,-23.926,-33.203,-39.551,0.000
1680449290.644,-28.809,-24.902,-30.273,-28.809,0.000
1680449290.648,-26.367,-29.297,-31.738,-39.551,0.000
1680449290.652,-29.297,-27.344,-37.109,-39.062,0.000
1680449290.656,-28.809,-20.996,-35.156,-37.109,0.000
1680449290.660,-28.320,-25.879,-30.273,-28.809,0.000
1680449290.664,-36.621,-30.762,-34.180,-17.090,0.000
1680449290.668,-41.016,-33.691,-39.062,-35.645,0.000
1680449290.672,-41.992,-38.086,-37.598,-51.270,0.000
1680449290.676,-43.457,-35.645,-30.273,-31.738,0.000
1680449290.679,-33.203,-32.227,-27.344,-25.879,0.000
1680449290.683,-33.691,-32.715,-29.785,-28.809,0.000
1680449290.687,-40.527,-31.250,-32.227,-29.297,0.000
1680449290.691,-37.109,-34.668,-30.762,-39.062,0.000
1680449290.695,-33.203,-37.598,-20.508,-35.645,0.000
1680449290.699,-32.715,-28.320,-20.020,-23.438,0.000
1680449290.703,-23.926,-23.926,-25.879,-14.160,0.000
1680449290.707,-23.438,-23.438,-23.926,-18.555,0.000
1680449290.711,-29.297,-23.438,-23.926,-35.156,0.000
1680449290.715,-24.902,-26.855,-27.344,-35.645,0.000
1680449290.719,-25.879,-30.273,-31.738,-28.809,0.000
1680449290.722,-39.062,-28.809,-31.250,-28.320,0.000
1680449290.726,-45.898,-26.855,-30.762,-26.367,0.000
1680449290.730,-59.082,-26.367,-31.250,-42.969,0.000
1680449290.734,-62.500,-25.391,-29.785,-40.039,0.000
1680449290.738,-48.828,-27.344,-26.367,-22.949,0.000
1680449290.742,-45.410,-25.879,-24.902,-38.086,0.000
1680449290.746,-48.828,-30.273,-31.738,-52.246,0.000
1680449290.750,-37.109,-33.203,-36.133,-51.758,0.000
1680449290.754,-41.992,-28.320,-32.715,-55.176,0.000
1680449290.758,-42.969,-29.297,-30.762,-46.875,0.000
1680449290.762,-37.598,-31.738,-28.320,-31.738,0.000
1680449290.765,-52.734,-34.180,-28.809,-36.133,0.000
1680449290.769,-54.688,-33.203,-29.785,-40.039,0.000
1680449290.773,-52.734,-34.180,-24.414,-35.645,0.000
1680449290.777,-62.500,-37.598,-22.949,-18.066,0.000
1680449290.781,-57.617,-34.180,-22.461,-7.324,0.000
1680449290.785,-53.223,-33.691,-19.043,-32.227,0.000
1680449290.789,-58.105,-41.016,-25.391,-42.480,0.000
1680449290.793,-45.410,-39.551,-33.203,-41.992,0.000
1680449290.797,-43.945,-32.715,-34.180,-39.551,0.000
1680449290.801,-50.781,-29.297,-29.297,-33.203,0.000
1680449290.804,-53.711,-30.273,-24.414,-25.879,0.000
1680449290.808,-51.270,-30.762,-22.461,-22.461,0.000
1680449290.812,-46.387,-30.762,-28.809,-32.227,0.000
1680449290.816,-52.246,-34.180,-30.762,-33.691,0.000
1680449290.820,-46.875,-32.715,-23.926,-35.645,0.000
1680449290.824,-50.781,-38.086,-26.367,-35.156,0.000
1680449290.828,-64.453,-40.039,-28.320,-33.691,0.000
1680449290.832,-57.129,-32.715,-28.320,-54.688,0.000
1680449290.836,-61.035,-34.668,-33.691,-66.406,0.000
1680449290.840,-62.012,-32.227,-33.691,-51.270,0.000
1680449290.844,-59.082,-29.785,-31.250,-45.898,0.000
1680449290.847,-55.664,-24.902,-33.203,-50.293,0.000
1680449290.851,-51.758,-21.973,-31.738,-58.105,0.000
1680449290.855,-50.293,-26.855,-30.273,-53.223,0.000
1680449290.859,-34.668,-29.297,-32.715,-31.738,0.000
1680449290.863,-52.734,-31.250,-32.227,-38.086,0.000
1680449290.867,-55.176,-30.762,-35.156,-51.270,0.000
1680449290.871,-41.504,-35.156,-36.133,-60.547,0.000
1680449290.875,-44.922,-35.645,-33.203,-68.359,0.000
1680449290.879,-43.457,-31.250,-34.180,-64.453,0.000
1680449290.883,-49.316,-33.203,-34.668,-41.016,0.000
1680449290.887,-54.688,-33.203,-33.203,-36.133,0.000
1680449290.890,-60.547,-35.156,-33.203,-53.711,0.000
1680449290.894,-58.105,-32.227,-35.645,-28.809,0.000
1680449290.898,-58.105,-26.367,-36.133,-20.996,0.000
1680449290.902,-58.594,-29.297,-38.574,-52.246,0.000
1680449290.906,-50.293,-30.762,-40.039,-63.965,0.000
1680449290.910,-57.129,-27.832,-40.039,-55.664,0.000
1680449290.914,-64.941,-29.785,-41.016,-58.594,0.000
1680449290.918,-53.223,-27.832,-36.621,-54.688,0.000
1680449290.922,-51.270,-27.344,-35.156,-36.621,0.000
1680449290.926,-65.430,-29.297,-42.969,-43.945,0.000
1680449290.929,-66.406,-35.645,-45.898,-60.547,0.000
1680449290.933,-69.336,-37.598,-33.691,-58.105,0.000
1680449290.937,-68.359,-37.598,-34.180,-52.246,0.000
1680449290.941,-57.617,-35.645,-37.109,-38.574,0.000
1680449290.945,-60.547,-31.738,-34.668,-39.062,0.000
1680449290.949,-62.500,-33.691,-35.645,-50.781,0.000
1680449290.953,-56.641,-38.574,-38.574,-42.480,0.000
1680449290.957,-48.828,-37.109,-35.645,-24.414,0.000
1680449290.961,-48.340,-36.133,-30.273,-25.391,0.000
1680449290.965,-50.781,-32.715,-30.762,-29.297,0.000
1680449290.969,-48.828,-28.320,-26.855,-21.973,0.000
1680449290.972,-51.270,-30.273,-24.902,-28.320,0.000
1680449290.976,-42.480,-32.715,-22.949,-34.668,0.000
1680449290.980,-32.227,-30.273,-20.020,-23.926,0.000
1680449290.984,-39.551,-26.855,-25.879,-23.438,0.000
1680449290.988,-45.410,-29.297,-26.855,-31.250,0.000
1680449290.992,-41.992,-27.832,-25.391,-36.133,0.000
1680449290.996,-40.527,-26.855,-26.855,-41.504,0.000
1680449291.000,-38.086,-28.809,-30.273,-46.387,0.000
1680449291.004,-40.527,-28.809,-31.250,-43.457,0.000
1680449291.008,-35.645,-30.762,-34.668,-42.480,0.000
1680449291.011,-37.109,-29.297,-28.320,-40.527,0.000
1680449291.015,-47.363,-30.762,-24.414,-36.621,0.000
1680449291.019,-40.039,-29.297,-24.414,-23.438,0.000
1680449291.023,-54.688,-25.391,-10.742,-17.578,0.000
1680449291.027,-54.688,-29.785,-12.207,-12.695,0.000
1680449291.031,-35.156,-29.785,-19.043,-20.020,0.000
1680449291.035,-31.250,-29.785,-18.066,-34.180,0.000
1680449291.039,-31.250,-34.668,-20.508,-40.527,0.000
1680449291.043,-37.109,-34.180,-23.926,-35.156,0.000
1680449291.047,-36.621,-25.879,-21.973,-33.691,0.000
1680449291.051,-38.574,-23.438,-21.484,-34.668,0.000
1680449291.054,-37.109,-26.855,-21.484,-20.996,0.000
1680449291.058,-33.203,-27.832,-20.996,-19.043,0.000
1680449291.062,-30.762,-32.227,-27.832,-38.086,0.000
1680449291.066,-30.273,-35.156,-28.809,-38.086,0.000
1680449291.070,-40.527,-34.668,-27.832,-39.062,0.000
1680449291.074,-42.480,-27.832,-32.227,-46.387,0.000
1680449291.078,-34.180,-19.043,-26.855,-24.414,0.000
1680449291.082,-36.133,-21.484,-23.926,-3.906,0.000
1680449291.086,-33.203,-26.367,-22.461,-28.809,0.000
1680449291.090,-16.113,-24.902,-25.391,-46.387,0.000
1680449291.094,-23.926,-24.414,-29.297,-38.086,0.000
1680449291.097,-38.574,-24.414,-25.879,-36.133,0.000
1680449291.101,-37.109,-21.484,-25.391,-35.645,0.000
1680449291.105,-37.109,-21.973,-26.855,-32.715,0.000
1680449291.109,-41.504,-21.973,-27.344,-30.762,0.000
1680449291.113,-37.109,-23.926,-23.438,-29.785,0.000
1680449291.117,-34.668,-29.297,-28.320,-26.855,0.000
1680449291.121,-26.855,-24.414,-33.691,-16.113,0.000
1680449291.125,-27.344,-30.273,-32.715,-20.020,0.000
1680449291.129,-34.180,-34.668,-34.180,-35.645,0.000
1680449291.133,-27.344,-29.785,-29.297,-40.039,0.000
1680449291.136,-16.113,-28.809,-23.438,-34.180,0.000
1680449291.140,-24.414,-27.344,-25.879,-16.602,0.000
1680449291.144,-30.762,-22.949,-23.926,-21.484,0.000
1680449291.148,-25.391,-21.484,-23.926,-37.109,0.000
1680449291.152,-17.578,-20.508,-25.879,-22.949,0.000
1680449291.156,-20.996,-19.043,-21.973,-13.184,0.000
1680449291.160,-32.715,-25.879,-16.602,-27.344,0.000
1680449291.164,-25.879,-26.367,-18.555,-21.484,0.000
1680449291.168,-28.809,-25.391,-21.484,-23.926,0.000
1680449291.172,-50.781,-31.250,-25.879,-34.668,0.000
1680449291.176,-53.711,-29.297,-25.879,-33.203,0.000
1680449291.179,-45.898,-27.832,-21.973,-38.574,0.000
1680449291.183,-55.664,-35.645,-28.320,-41.504,0.000
1680449291.187,-62.988,-37.598,-31.250,-34.180,0.000
1680449291.191,-62.988,-33.691,-28.320,-42.969,0.000
1680449291.195,-62.988,-33.203,-33.691,-62.988,0.000
1680449291.199,-60.059,-35.156,-38.574,-67.871,0.000
1680449291.203,-59.570,-35.156,-31.738,-55.664,0.000
1680449291.207,-57.129,-35.645,-28.809,-45.898,0.000
1680449291.211,-52.734,-35.645,-29.785,-40.527,0.000
1680449291.215,-55.664,-36.621,-31.250,-30.273,0.000
1680449291.219,-51.758,-39.062,-26.367,-24.414,0.000
1680449291.222,-52.734,-36.621,-26.855,-26.855,0.000
1680449291.226,-63.477,-34.668,-36.133,-36.133,0.000
1680449291.230,-54.688,-36.133,-36.621,-40.039,0.000
1680449291.234,-53.711,-36.133,-34.668,-40.527,0.000
1680449291.238,-46.387,-34.180,-36.621,-34.668,0.000
1680449291.242,-32.227,-34.180,-35.156,-20.996,0.000
1680449291.246,-36.133,-33.203,-33.203,-25.391,0.000
1680449291.250,-40.039,-32.227,-35.645,-36.133,0.000
1680449291.254,-34.180,-32.227,-34.668,-37.109,0.000
1680449291.258,-28.320,-32.227,-37.598,-33.203,0.000
1680449291.261,-39.062,-36.133,-37.598,-33.691,0.000
1680449291.265,-39.551,-34.180,-28.320,-33.691,0.000
1680449291.269,-45.410,-22.949,-28.809,-24.414,0.000
1680449291.273,-73.730,-25.879,-32.227,-42.969,0.000
1680449291.277,-65.918,-28.320,-29.785,-33.691,0.000
1680449291.281,-54.688,-19.043,-26.855,-23.926,0.000
1680449291.285,-65.918,-17.090,-28.809,-41.016,0.000
1680449291.289,-65.918,-20.020,-31.250,-45.410,0.000
1680449291.293,-67.383,-25.391,-29.785,-46.875,0.000
1680449291.297,-64.453,-25.391,-29.785,-37.598,0.000
1680449291.301,-58.105,-19.043,-26.855,-22.461,0.000
1680449291.304,-64.453,-24.902,-28.320,-25.879,0.000
1680449291.308,-73.730,-33.691,-28.809,-38.574,0.000
1680449291.312,-70.312,-28.809,-33.203,-25.391,0.000
1680449291.316,-63.477,-21.973,-40.039,-20.508,0.000
1680449291.320,-58.594,-22.949,-34.668,-45.410,0.000
1680449291.324,-60.547,-27.344,-36.133,-45.410,0.000
1680449291.328,-55.664,-30.273,-42.969,-41.016,0.000
1680449291.332,-50.781,-27.344,-42.480,-66.406,0.000
1680449291.336,-55.664,-26.855,-41.504,-69.336,0.000
1680449291.340,-56.152,-28.809,-37.109,-42.969,0.000
1680449291.344,-55.664,-31.738,-31.250,-37.109,0.000
1680449291.347,-53.711,-31.250,-33.691,-45.898,0.000
1680449291.351,-48.828,-29.297,-34.668,-50.293,0.000
1680449291.355,-46.387,-31.738,-28.320,-49.316,0.000
1680449291.359,-39.551,-30.273,-29.297,-39.551,0.000
1680449291.363,-47.852,-31.250,-31.738,-41.992,0.000
1680449291.367,-49.805,-32.227,-29.785,-44.922,0.000
1680449291.371,-56.641,-26.367,-30.273,-39.062,0.000
1680449291.375,-63.477,-25.391,-32.715,-50.781,0.000
1680449291.379,-50.293,-30.762,-28.809,-46.387,0.000
1680449291.383,-43.945,-30.273,-25.391,-23.926,0.000
1680449291.386,-55.176,-29.297,-25.391,-28.320,0.000
1680449291.390,-62.500,-29.785,-33.203,-57.129,0.000
1680449291.394,-48.828,-21.484,-33.203,-59.570,0.000
1680449291.398,-39.551,-26.367,-26.855,-45.410,0.000
1680449291.402,-43.457,-33.691,-30.762,-44.922,0.000
1680449291.406,-45.898,-33.691,-36.133,-56.152,0.000
1680449291.410,-45.898,-32.715,-31.738,-62.988,0.000
1680449291.414,-51.758,-32.715,-27.344,-53.223,0.000
1680449291.418,-52.734,-33.203,-29.297,-33.203,0.000
1680449291.422,-48.340,-31.738,-29.785,-30.762,0.000
1680449291.426,-47.363,-30.762,-29.297,-34.668,0.000
1680449291.429,-47.852,-33.691,-28.809,-27.344,0.000
1680449291.433,-40.527,-29.785,-30.762,-33.203,0.000
1680449291.437,-28.320,-24.414,-33.691,-27.832,0.000
1680449291.441,-37.598,-30.273,-24.902,-17.090,0.000
1680449291.445,-56.152,-37.109,-16.602,-39.551,0.000
1680449291.449,-49.316,-39.551,-24.902,-53.711,0.000
1680449291.453,-44.434,-44.434,-29.297,-56.152,0.000
1680449291.457,-42.480,-40.039,-23.926,-48.340,0.000
1680449291.461,-46.387,-38.574,-25.391,-29.297,0.000
1680449291.465,-55.176,-42.480,-28.320,-26.367,0.000
1680449291.468,-53.711,-42.969,-25.391,-34.180,0.000
1680449291.472,-50.781,-35.645,-21.484,-41.992,0.000
1680449291.476,-41.992,-29.785,-24.902,-42.969,0.000
1680449291.480,-51.270,-34.180,-25.391,-34.180,0.000
1680449291.484,-62.500,-30.273,-25.879,-23.926,0.000
1680449291.488,-48.828,-34.180,-25.391,-27.832,0.000
1680449291.492,-35.156,-38.086,-26.367,-37.109,0.000
1680449291.496,-33.203,-33.691,-33.203,-42.969,0.000
1680449291.500,-45.410,-37.598,-34.180,-47.852,0.000
1680449291.504,-61.523,-41.504,-33.691,-47.363,0.000
1680449291.508,-63.477,-41.504,-32.227,-41.504,0.000
1680449291.511,-51.270,-39.551,-31.250,-33.203,0.000
1680449291.515,-47.852,-38.574,-31.250,-31.250,0.000
1680449291.519,-46.387,-36.621,-25.391,-11.719,0.000
1680449291.523,-54.199,-39.551,-28.809,-16.602,0.000
1680449291.527,-60.059,-37.109,-33.203,-56.152,0.000
1680449291.531,-51.758,-32.227,-28.320,-61.035,0.000
1680449291.535,-45.410,-39.062,-28.320,-49.316,0.000
1680449291.539,-38.086,-36.133,-30.762,-30.762,0.000
1680449291.543,-41.016,-32.715,-29.297,-14.160,0.000
1680449291.547,-43.457,-37.598,-25.879,-19.531,0.000
1680449291.551,-40.039,-33.691,-25.879,-26.855,0.000
1680449291.554,-43.945,-27.344,-25.879,-23.438,0.000
1680449291.558,-38.086,-32.227,-23.926,-17.578,0.000
1680449291.562,-36.133,-33.691,-21.973,-16.602,0.000
1680449291.566,-46.387,-29.297,-24.414,-28.809,0.000
1680449291.570,-45.410,-23.438,-27.832,-34.668,0.000
1680449291.574,-48.828,-27.344,-31.250,-38.086,0.000
1680449291.578,-44.922,-34.668,-29.785,-47.363,0.000
1680449291.582,-43.945,-35.156,-26.855,-35.156,0.000
1680449291.586,-56.152,-37.109,-32.227,-30.762,0.000
1680449291.590,-47.363,-35.645,-33.691,-41.016,0.000
1680449291.593,-40.527,-38.574,-29.297,-48.340,0.000
1680449291.597,-34.668,-36.133,-34.180,-43.457,0.000
1680449291.601,-23.926,-30.273,-32.227,-27.344,0.000
1680449291.605,-29.297,-34.180,-31.738,-32.227,0.000
1680449291.609,-46.875,-39.062,-34.668,-41.016,0.000
1680449291.613,-57.617,-36.621,-28.809,-35.156,0.000
1680449291.617,-51.758,-33.691,-25.391,-38.574,0.000
1680449291.621,-50.293,-37.598,-26.367,-36.133,0.000
1680449291.625,-53.223,-34.668,-22.461,-12.207,0.000
1680449291.629,-48.828,-30.762,-21.484,-14.648,0.000
1680449291.633,-44.434,-25.391,-23.926,-48.340,0.000
1680449291.636,-43.457,-25.879,-22.461,-43.457,0.000
1680449291.640,-44.434,-30.273,-17.578,-23.926,0.000
1680449291.644,-42.480,-25.879,-16.602,-17.090,0.000
1680449291.648,-42.969,-32.227,-23.438,-20.508,0.000
1680449291.652,-50.293,-33.691,-30.762,-39.062,0.000
1680449291.656,-49.805,-32.715,-26.367,-54.688,0.000
1680449291.660,-49.316,-32.715,-23.438,-53.223,0.000
1680449291.664,-39.062,-24.414,-22.949,-41.016,0.000
1680449291.668,-45.898,-25.879,-22.461,-36.133,0.000
1680449291.672,-49.805,-28.320,-23.438,-47.363,0.000
1680449291.676,-43.945,-23.926,-24.414,-34.668,0.000
1680449291.679,-58.105,-26.367,-23.926,-19.531,0.000
1680449291.683,-62.012,-33.691,-18.066,-34.668,0.000
1680449291.687,-54.199,-34.668,-22.949,-46.875,0.000
1680449291.691,-35.645,-23.438,-24.902,-43.457,0.000
1680449291.695,-36.133,-24.414,-24.414,-46.875,0.000
1680449291.699,-41.016,-27.344,-25.391,-43.457,0.000
1680449291.703,-40.527,-27.344,-22.461,-40.039,0.000
1680449291.707,-54.688,-28.809,-22.949,-49.316,0.000
1680449291.711,-63.965,-25.391,-25.391,-45.410,0.000
1680449291.715,-55.664,-21.973,-24.414,-37.109,0.000
1680449291.718,-53.711,-27.832,-28.809,-43.457,0.000
1680449291.722,-52.734,-28.320,-27.832,-31.738,0.000
1680449291.726,-58.594,-29.785,-24.902,-26.855,0.000
1680449291.730,-59.082,-37.109,-23.438,-39.551,0.000
1680449291.734,-60.059,-36.133,-24.902,-34.668,0.000
1680449291.738,-68.848,-34.668,-29.785,-28.320,0.000
1680449291.742,-65.430,-31.250,-26.367,-34.180,0.000
1680449291.746,-64.941,-32.715,-28.809,-49.805,0.000
1680449291.750,-62.012,-37.598,-32.715,-60.059,0.000
1680449291.754,-49.316,-36.621,-29.785,-54.688,0.000
1680449291.758,-44.922,-28.809,-29.785,-47.363,0.000
1680449291.761,-44.922,-25.391,-28.320,-35.156,0.000
1680449291.765,-44.434,-24.902,-20.996,-20.508,0.000
1680449291.769,-51.758,-31.738,-24.902,-22.949,0.000
1680449291.773,-54.199,-34.668,-27.344,-27.344,0.000
1680449291.777,-29.785,-28.320,-21.973,-10.254,0.000
1680449291.781,-23.926,-26.367,-30.273,-14.648,0.000
1680449291.785,-41.016,-25.879,-34.180,-24.414,0.000
1680449291.789,-60.547,-30.273,-34.180,-41.016,0.000
1680449291.793,-57.617,-35.156,-39.062,-47.363,0.000
1680449291.797,-50.781,-32.227,-35.645,-36.621,0.000
1680449291.801,-51.758,-31.738,-34.180,-41.504,0.000
1680449291.804,-43.945,-32.227,-35.645,-46.387,0.000
1680449291.808,-44.922,-32.715,-31.738,-48.340,0.000
1680449291.812,-50.781,-32.227,-33.203,-42.480,0.000
1680449291.816,-45.410,-25.879,-29.297,-33.203,0.000
1680449291.820,-46.875,-25.879,-17.090,-29.785,0.000
1680449291.824,-44.922,-25.879,-27.344,-14.160,0.000
1680449291.828,-37.598,-24.414,-31.738,-12.207,0.000
1680449291.832,-31.250,-20.020,-23.438,-37.109,0.000
1680449291.836,-45.898,-17.090,-28.809,-38.574,0.000
1680449291.840,-54.199,-24.414,-32.227,-34.180,0.000
1680449291.843,-41.992,-28.320,-29.297,-45.410,0.000
1680449291.847,-41.992,-27.832,-32.715,-53.711,0.000
1680449291.851,-45.898,-25.391,-30.762,-52.246,0.000
1680449291.855,-51.758,-27.832,-27.344,-40.039,0.000
1680449291.859,-52.246,-26.855,-28.320,-17.578,0.000
1680449291.863,-48.828,-25.391,-24.414,-18.066,0.000
1680449291.867,-48.340,-31.250,-26.367,-33.691,0.000
1680449291.871,-45.898,-29.297,-27.832,-28.320,0.000
1680449291.875,-34.668,-25.879,-27.344,-28.809,0.000
1680449291.879,-29.785,-22.461,-25.879,-36.621,0.000
1680449291.883,-41.992,-29.785,-30.273,-41.992,0.000
1680449291.886,-39.551,-37.598,-32.715,-43.945,0.000
1680449291.890,-39.551,-31.738,-31.738,-52.246,0.000
1680449291.894,-33.203,-27.344,-35.645,-56.152,0.000
1680449291.898,-37.598,-32.715,-36.621,-52.246,0.000
1680449291.902,-53.711,-29.297,-33.203,-45.410,0.000
1680449291.906,-54.688,-26.855,-30.273,-41.504,0.000
1680449291.910,-53.711,-34.180,-26.855,-41.016,0.000
1680449291.914,-49.316,-31.250,-28.809,-24.902,0.000
1680449291.918,-49.805,-29.297,-32.715,-27.832,0.000
1680449291.922,-57.129,-30.762,-34.180,-47.363,0.000
1680449291.925,-50.293,-27.344,-35.156,-44.434,0.000
1680449291.929,-57.617,-26.367,-35.156,-45.410,0.000
1680449291.933,-64.453,-29.297,-32.715,-61.523,0.000
1680449291.937,-53.711,-29.785,-32.227,-60.547,0.000
1680449291.941,-50.781,-30.762,-31.738,-51.270,0.000
1680449291.945,-62.012,-35.156,-31.738,-40.039,0.000
1680449291.949,-65.918,-36.621,-29.785,-38.086,0.000
1680449291.953,-54.688,-38.574,-30.762,-44.922,0.000
1680449291.957,-42.480,-35.156,-36.621,-36.133,0.000
1680449291.961,-34.180,-27.832,-36.621,-30.273,0.000
1680449291.965,-35.645,-27.344,-37.109,-33.203,0.000
1680449291.968,-39.551,-30.273,-33.691,-35.645,0.000
1680449291.972,-44.922,-32.715,-39.062,-41.992,0.000
1680449291.976,-34.668,-29.785,-42.480,-36.133,0.000
1680449291.980,-24.414,-24.414,-33.203,-33.691,0.000
1680449291.984,-35.645,-28.809,-33.203,-32.227,0.000
1680449291.988,-35.156,-30.762,-37.598,-27.344,0.000
1680449291.992,-23.926,-23.926,-33.691,-21.484,0.000
1680449291.996,-13.184,-26.855,-33.691,-28.809,0.000
1680449292.000,-21.484,-33.203,-43.945,-33.691,0.000
1680449292.004,-46.387,-28.320,-39.551,-27.344,0.000
1680449292.008,-37.598,-25.879,-33.691,-38.086,0.000
1680449292.011,-22.461,-30.762,-32.227,-44.922,0.000
1680449292.015,-30.273,-33.203,-28.320,-40.039,0.000
1680449292.019,-30.762,-24.902,-26.855,-23.926,0.000
1680449292.023,-28.320,-20.996,-21.484,-9.277,0.000
1680449292.027,-28.320,-24.902,-19.531,-13.184,0.000
1680449292.031,-28.320,-26.367,-23.926,-26.855,0.000
1680449292.035,-32.715,-24.902,-24.414,-36.621,0.000
1680449292.039,-39.551,-27.344,-22.461,-21.484,0.000
1680449292.043,-46.875,-25.879,-24.902,-12.207,0.000
1680449292.047,-43.945,-26.367,-29.297,-19.531,0.000
1680449292.050,-41.504,-26.855,-31.250,-36.133,0.000
1680449292.054,-42.969,-26.855,-29.297,-44.434,0.000
1680449292.058,-37.109,-28.809,-24.414,-34.180,0.000
1680449292.062,-40.039,-26.855,-29.785,-31.250,0.000
1680449292.066,-48.340,-29.785,-37.109,-34.668,0.000
1680449292.070,-45.898,-33.203,-37.598,-36.621,0.000
1680449292.074,-37.598,-33.203,-36.133,-29.297,0.000
1680449292.078,-43.457,-30.762,-36.621,-6.836,0.000
1680449292.082,-47.363,-23.438,-36.621,0.488,0.000
1680449292.086,-46.387,-21.973,-37.109,-32.715,0.000
1680449292.090,-48.828,-23.926,-41.016,-69.336,0.000
1680449292.093,-45.410,-26.367,-40.039,-71.289,0.000
1680449292.097,-41.504,-26.855,-37.109,-54.688,0.000
1680449292.101,-39.551,-26.367,-30.762,-33.691,0.000
1680449292.105,-48.340,-32.227,-22.949,-26.855,0.000
1680449292.109,-59.570,-32.227,-29.297,-45.898,0.000
1680449292.113,-46.387,-25.879,-28.809,-55.176,0.000
1680449292.117,-40.039,-28.809,-25.391,-37.598,0.000
1680449292.121,-53.223,-41.016,-28.320,-34.668,0.000
1680449292.125,-51.758,-38.086,-30.273,-29.785,0.000
1680449292.129,-39.551,-30.273,-27.832,-23.438,0.000
1680449292.133,-41.016,-33.691,-28.320,-26.367,0.000
1680449292.136,-45.410,-36.133,-27.832,-18.555,0.000
1680449292.140,-43.945,-35.645,-29.785,-26.367,0.000
1680449292.144,-39.551,-33.691,-31.738,-22.461,0.000
1680449292.148,-34.668,-34.180,-30.273,-16.113,0.000
1680449292.152,-36.133,-33.691,-33.691,-26.367,0.000
1680449292.156,-35.156,-31.738,-29.785,-34.180,0.000
1680449292.160,-33.203,-29.785,-25.879,-26.367,0.000
1680449292.164,-44.922,-29.785,-20.996,-25.391,0.000
1680449292.168,-39.551,-27.832,-24.414,-37.109,0.000
1680449292.172,-33.203,-30.762,-30.762,-41.016,0.000
1680449292.175,-38.086,-33.203,-28.320,-37.598,0.000
1680449292.179,-50.293,-30.762,-30.762,-29.785,0.000
1680449292.183,-54.688,-29.785,-31.250,-28.320,0.000
1680449292.187,-46.875,-29.297,-30.273,-29.297,0.000
1680449292.191,-52.734,-33.203,-30.762,-39.062,0.000
1680449292.195,-56.152,-40.527,-28.320,-57.129,0.000
1680449292.199,-44.922,-33.691,-32.715,-48.828,0.000
1680449292.203,-45.898,-34.180,-37.109,-38.574,0.000
1680449292.207,-52.246,-38.086,-38.086,-38.086,0.000
1680449292.211,-47.363,-37.109,-36.621,-49.805,0.000
1680449292.215,-47.363,-37.598,-33.691,-49.316,0.000
1680449292.218,-59.082,-38.086,-34.180,-41.504,0.000
1680449292.222,-62.988,-37.598,-33.203,-30.273,0.000
1680449292.226,-56.152,-34.668,-33.691,-31.250,0.000
1680449292.230,-49.316,-30.273,-33.203,-43.457,0.000
1680449292.234,-53.223,-30.762,-33.203,-47.363,0.000
1680449292.238,-62.012,-40.527,-26.855,-50.781,0.000
1680449292.242,-58.594,-43.457,-26.367,-36.133,0.000
1680449292.246,-48.340,-37.598,-34.668,-20.996,0.000
1680449292.250,-48.340,-32.715,-37.109,-42.969,0.000
1680449292.254,-41.992,-31.738,-35.645,-53.223,0.000
1680449292.258,-35.645,-27.832,-31.250,-36.133,0.000
1680449292.261,-27.832,-26.855,-28.809,-33.203,0.000
1680449292.265,-23.438,-26.367,-29.785,-36.621,0.000
1680449292.269,-38.086,-24.414,-31.250,-31.250,0.000
1680449292.273,-40.527,-26.367,-34.668,-33.203,0.000
1680449292.277,-35.156,-29.297,-40.527,-47.363,0.000
1680449292.281,-32.715,-25.391,-32.715,-46.387,0.000
1680449292.285,-33.691,-24.902,-19.531,-29.297,0.000
1680449292.289,-50.293,-30.762,-28.320,-33.691,0.000
1680449292.293,-55.664,-33.203,-36.621,-43.457,0.000
1680449292.297,-49.316,-32.715,-32.227,-36.621,0.000
1680449292.300,-50.293,-28.320,-29.785,-24.902,0.000
1680449292.304,-53.711,-26.367,-29.297,-27.832,0.000
1680449292.308,-54.688,-31.250,-29.785,-41.504,0.000
1680449292.312,-43.945,-33.203,-32.715,-46.875,0.000
1680449292.316,-50.781,-34.668,-28.320,-48.340,0.000
1680449292.320,-64.453,-32.227,-30.762,-46.387,0.000
1680449292.324,-58.105,-28.809,-30.273,-28.809,0.000
1680449292.328,-55.176,-28.320,-22.461,-29.785,0.000
1680449292.332,-54.199,-25.879,-24.414,-46.875,0.000
1680449292.336,-48.340,-23.438,-29.297,-45.410,0.000
1680449292.340,-41.016,-25.391,-29.297,-34.180,0.000
1680449292.343,-25.879,-24.902,-25.391,-39.062,0.000
1680449292.347,-34.180,-25.879,-26.367,-43.945,0.000
1680449292.351,-49.805,-27.832,-32.227,-49.805,0.000
1680449292.355,-46.875,-26.855,-32.715,-47.363,0.000
1680449292.359,-43.457,-29.785,-23.438,-22.949,0.000
1680449292.363,-39.062,-30.273,-28.809,-19.043,0.000
1680449292.367,-43.945,-29.785,-37.109,-39.551,0.000
1680449292.371,-38.086,-30.273,-34.180,-43.457,0.000
1680449292.375,-41.016,-24.414,-28.320,-35.156,0.000
1680449292.379,-56.641,-28.320,-29.297,-22.461,0.000
1680449292.382,-52.734,-31.250,-32.715,-17.090,0.000
1680449292.386,-37.598,-27.344,-29.785,-29.297,0.000
1680449292.390,-35.645,-31.250,-27.832,-49.805,0.000
1680449292.394,-46.387,-30.762,-34.668,-62.988,0.000
1680449292.398,-41.016,-27.344,-34.180,-53.223,0.000
1680449292.402,-26.367,-31.250,-32.715,-36.133,0.000
1680449292.406,-32.715,-29.785,-30.762,-42.480,0.000
1680449292.410,-38.574,-27.344,-33.691,-45.410,0.000
1680449292.414,-39.062,-28.809,-35.645,-42.969,0.000
1680449292.418,-40.527,-27.344,-29.297,-39.062,0.000
1680449292.422,-36.621,-24.902,-27.344,-25.879,0.000
1680449292.425,-41.016,-29.785,-32.227,-23.438,0.000
1680449292.429,-50.293,-35.156,-31.250,-28.809,0.000
1680449292.433,-46.875,-38.086,-21.973,-24.414,0.000
1680449292.437,-32.227,-33.203,-25.879,-23.926,0.000
1680449292.441,-34.180,-27.832,-33.691,-29.785,0.000
1680449292.445,-31.738,-30.273,-30.273,-38.086,0.000
1680449292.449,-25.879,-29.297,-30.273,-55.664,0.000
1680449292.453,-29.785,-30.273,-33.691,-59.082,0.000
1680449292.457,-38.574,-31.250,-32.715,-50.781,0.000
1680449292.461,-34.668,-29.297,-30.273,-38.086,0.000
1680449292.465,-29.785,-27.344,-24.414,-18.555,0.000
1680449292.468,-42.969,-22.949,-26.367,-19.043,0.000
1680449292.472,-40.039,-27.344,-33.691,-45.410,0.000
1680449292.476,-35.156,-34.180,-25.879,-43.457,0.000
1680449292.480,-46.875,-37.598,-21.484,-30.273,0.000
1680449292.484,-41.504,-33.691,-31.738,-29.785,0.000
1680449292.488,-39.062,-25.879,-29.297,-31.250,0.000
1680449292.492,-47.363,-30.762,-29.297,-37.109,0.000
1680449292.496,-42.480,-33.691,-29.785,-44.434,0.000
1680449292.500,-28.320,-33.691,-26.855,-35.645,0.000
1680449292.504,-33.203,-30.273,-26.367,-18.555,0.000
1680449292.507,-41.504,-29.785,-25.879,-8.789,0.000
1680449292.511,-31.250,-29.297,-30.273,-12.207,0.000
1680449292.515,-34.668,-27.344,-30.762,-25.879,0.000
1680449292.519,-36.621,-27.344,-25.391,-28.320,0.000
1680449292.523,-24.414,-28.320,-18.066,-31.250,0.000
1680449292.527,-23.926,-26.855,-20.020,-23.926,0.000
1680449292.531,-31.738,-25.391,-34.668,-32.227,0.000
1680449292.535,-35.156,-21.973,-31.738,-50.293,0.000
1680449292.539,-34.668,-25.879,-31.250,-44.434,0.000
1680449292.543,-33.691,-29.297,-35.645,-27.344,0.000
1680449292.547,-34.668,-29.297,-30.762,-20.508,0.000
1680449292.550,-34.180,-24.414,-31.250,-31.250,0.000
1680449292.554,-35.156,-22.949,-34.668,-41.992,0.000
1680449292.558,-31.738,-25.391,-35.645,-32.715,0.000
1680449292.562,-33.691,-25.879,-36.133,-22.461,0.000
1680449292.566,-39.062,-25.391,-32.227,-21.484,0.000
1680449292.570,-37.598,-25.879,-25.879,-34.668,0.000
1680449292.574,-41.016,-27.344,-33.691,-43.945,0.000
1680449292.578,-36.621,-25.391,-36.133,-45.410,0.000
1680449292.582,-33.203,-25.391,-32.227,-42.480,0.000
1680449292.586,-35.156,-33.203,-35.156,-35.156,0.000
1680449292.590,-34.668,-34.668,-32.715,-30.762,0.000
1680449292.593,-44.922,-36.133,-34.180,-30.762,0.000
1680449292.597,-50.293,-38.574,-37.109,-39.062,0.000
1680449292.601,-47.363,-40.039,-34.668,-29.785,0.000
1680449292.605,-49.316,-40.527,-33.203,-26.855,0.000
1680449292.609,-50.781,-37.109,-32.715,-43.945,0.000
1680449292.613,-46.387,-38.086,-29.297,-54.688,0.000
1680449292.617,-32.715,-35.645,-25.391,-49.316,0.000
1680449292.621,-20.508,-28.320,-28.320,-29.297,0.000
1680449292.625,-29.297,-29.297,-32.227,-21.973,0.000
1680449292.629,-45.898,-29.785,-27.832,-25.879,0.000
1680449292.632,-49.316,-30.273,-30.762,-29.297,0.000
1680449292.636,-47.363,-26.855,-30.762,-20.020,0.000
1680449292.640,-45.410,-21.973,-24.414,3.906,0.000
1680449292.644,-43.945,-22.461,-25.879,1.465,0.000
1680449292.648,-39.551,-22.949,-26.367,-28.809,0.000
1680449292.652,-36.133,-24.902,-28.809,-46.875,0.000
1680449292.656,-35.156,-26.367,-25.391,-28.320,0.000
1680449292.660,-33.691,-31.738,-18.555,-15.137,0.000
1680449292.664,-37.598,-33.203,-30.273,-26.855,0.000
1680449292.668,-41.504,-29.785,-36.621,-39.551,0.000
1680449292.672,-33.691,-30.273,-29.297,-48.340,0.000
1680449292.675,-34.668,-33.203,-25.879,-36.133,0.000
1680449292.679,-31.738,-34.180,-28.809,-25.391,0.000
1680449292.683,-33.203,-32.227,-32.227,-21.484,0.000
1680449292.687,-39.062,-33.203,-29.297,-16.113,0.000
1680449292.691,-40.527,-31.250,-26.367,-25.879,0.000
1680449292.695,-44.434,-29.297,-30.273,-34.668,0.000
1680449292.699,-42.480,-28.320,-34.180,-40.039,0.000
1680449292.703,-39.551,-23.926,-24.902,-38.086,0.000
1680449292.707,-39.062,-27.832,-21.973,-19.043,0.000
1680449292.711,-33.203,-35.645,-31.738,-26.367,0.000
1680449292.715,-33.691,-32.715,-27.832,-48.340,0.000
1680449292.718,-34.180,-34.180,-18.555,-27.344,0.000
1680449292.722,-36.133,-29.297,-19.043,-22.949,0.000
1680449292.726,-48.340,-22.461,-20.020,-41.504,0.000
1680449292.730,-47.363,-21.973,-25.391,-52.734,0.000
1680449292.734,-41.016,-27.344,-31.738,-49.316,0.000
1680449292.738,-41.016,-31.738,-29.297,-32.715,0.000
1680449292.742,-48.340,-32.227,-28.809,-25.391,0.000
1680449292.746,-43.457,-29.785,-30.273,-22.949,0.000
1680449292.750,-20.508,-22.949,-25.391,-16.113,0.000
1680449292.754,-27.832,-23.926,-25.879,-32.227,0.000
1680449292.757,-39.551,-27.344,-31.250,-44.922,0.000
1680449292.761,-41.992,-29.297,-30.273,-24.902,0.000
1680449292.765,-45.898,-36.621,-24.414,-8.789,0.000
1680449292.769,-37.109,-33.203,-25.879,-0.977,0.000
1680449292.773,-32.715,-25.879,-27.344,-12.695,0.000
1680449292.777,-30.273,-27.344,-27.832,-49.805,0.000
1680449292.781,-25.879,-26.367,-25.391,-50.293,0.000
1680449292.785,-38.574,-27.344,-25.391,-39.062,0.000
1680449292.789,-37.598,-30.273,-27.832,-43.457,0.000
1680449292.793,-22.461,-29.785,-27.344,-41.992,0.000
1680449292.797,-30.762,-29.785,-27.832,-37.109,0.000
1680449292.800,-43.457,-26.855,-26.855,-41.992,0.000
1680449292.804,-34.180,-25.391,-28.809,-48.340,0.000
1680449292.808,-36.133,-33.691,-29.297,-43.457,0.000
1680449292.812,-39.062,-36.133,-32.715,-38.086,0.000
1680449292.816,-38.086,-33.203,-39.551,-50.293,0.000
