timestamps,TP9,AF7,AF8,TP10,Right AUX
1680451581.233,-44.922,-28.809,-38.086,-41.504,0.000
1680451581.237,-43.457,-24.414,-37.109,-30.762,0.000
1680451581.241,-38.086,-23.926,-44.922,-31.738,0.000
1680451581.245,-22.949,-26.367,-47.363,-22.949,0.000
1680451581.248,-27.832,-28.320,-36.133,-25.879,0.000
1680451581.252,-44.434,-26.367,-23.926,-34.180,0.000
1680451581.256,-33.691,-32.227,-21.973,-22.949,0.000
1680451581.260,-7.812,-39.062,-23.438,-3.418,0.000
1680451581.264,-22.461,-29.785,-33.691,-26.855,0.000
1680451581.268,-32.227,-23.438,-20.020,-48.340,0.000
1680451581.272,-34.180,-26.855,-18.066,-37.598,0.000
1680451581.276,-57.617,-27.832,-42.480,-43.945,0.000
1680451581.280,-56.641,-26.855,-37.109,-38.086,0.000
1680451581.284,-35.645,-25.879,-30.273,-22.949,0.000
1680451581.287,-38.086,-30.273,-38.574,-40.039,0.000
1680451581.291,-48.828,-28.320,-44.434,-57.617,0.000
1680451581.295,-55.176,-27.344,-36.621,-60.059,0.000
1680451581.299,-44.922,-26.367,-31.738,-47.363,0.000
1680451581.303,-37.598,-25.879,-29.297,-35.156,0.000
1680451581.307,-47.852,-32.227,-27.344,-38.086,0.000
1680451581.311,-48.340,-36.133,-23.926,-46.875,0.000
1680451581.315,-44.922,-33.203,-12.695,-52.734,0.000
1680451581.319,-45.410,-24.902,-29.297,-40.527,0.000
1680451581.323,-33.691,-25.879,-39.551,-22.461,0.000
1680451581.327,-32.227,-28.809,-33.203,-26.855,0.000
1680451581.330,-34.180,-28.320,-33.203,-31.250,0.000
1680451581.334,-26.855,-33.691,-35.645,-25.391,0.000
1680451581.338,-17.578,-32.715,-35.156,-20.508,0.000
1680451581.342,-16.602,-33.203,-31.250,-17.578,0.000
1680451581.346,-27.344,-41.504,-32.227,-21.484,0.000
1680451581.350,-26.855,-44.922,-33.691,-25.391,0.000
1680451581.354,-42.480,-41.016,-41.992,-46.387,0.000
1680451581.358,-45.898,-35.645,-32.227,-50.293,0.000
1680451581.362,-36.133,-33.203,-20.996,-35.645,0.000
1680451581.366,-55.664,-36.621,-34.180,-51.270,0.000
1680451581.369,-66.895,-43.945,-33.691,-66.406,0.000
1680451581.373,-59.570,-43.945,-34.180,-61.523,0.000
1680451581.377,-51.270,-37.109,-35.645,-62.988,0.000
1680451581.381,-45.410,-27.344,-40.527,-66.406,0.000
1680451581.385,-40.527,-23.926,-41.016,-69.824,0.000
1680451581.389,-41.016,-31.738,-36.133,-79.590,0.000
1680451581.393,-60.059,-37.598,-30.273,-79.590,0.000
1680451581.397,-58.594,-32.227,-27.832,-70.801,0.000
1680451581.401,-52.734,-29.785,-29.297,-60.059,0.000
1680451581.405,-49.316,-29.297,-29.785,-49.316,0.000
1680451581.409,-58.594,-22.949,-25.391,-50.781,0.000
1680451581.412,-74.219,-29.297,-25.391,-58.105,0.000
1680451581.416,-73.242,-31.738,-28.809,-52.246,0.000
1680451581.420,-62.012,-28.809,-28.320,-36.133,0.000
1680451581.424,-45.410,-27.344,-29.297,-28.809,0.000
1680451581.428,-50.781,-23.926,-31.738,-47.852,0.000
1680451581.432,-52.734,-27.832,-35.156,-52.734,0.000
1680451581.436,-54.199,-32.227,-36.133,-49.316,0.000
1680451581.440,-61.523,-27.344,-27.832,-56.152,0.000
1680451581.444,-49.805,-28.320,-22.461,-55.664,0.000
1680451581.448,-65.430,-33.691,-21.484,-65.430,0.000
1680451581.452,-85.449,-42.480,-20.508,-73.730,0.000
1680451581.455,-69.824,-35.156,-22.949,-69.824,0.000
1680451581.459,-51.270,-19.531,-24.902,-61.523,0.000
1680451581.463,-62.500,-20.508,-27.832,-68.359,0.000
1680451581.467,-82.520,-27.344,-27.832,-87.891,0.000
1680451581.471,-97.656,-28.809,-29.785,-96.680,0.000
1680451581.475,-92.773,-32.715,-26.855,-89.355,0.000
1680451581.479,-84.473,-36.133,-23.926,-81.543,0.000
1680451581.483,-62.988,-28.809,-26.855,-58.594,0.000
1680451581.487,-53.223,-21.484,-27.344,-58.594,0.000
1680451581.491,-74.219,-20.508,-24.902,-78.125,0.000
1680451581.494,-77.637,-30.762,-32.715,-80.566,0.000
1680451581.498,-64.941,-32.227,-32.227,-54.688,0.000
1680451581.502,-39.551,-22.461,-24.902,-29.785,0.000
1680451581.506,-51.758,-25.391,-20.020,-49.316,0.000
1680451581.510,-74.707,-30.273,-20.020,-59.570,0.000
1680451581.514,-54.688,-32.227,-23.438,-47.852,0.000
1680451581.518,-39.062,-30.273,-24.414,-35.156,0.000
1680451581.522,-37.109,-26.367,-25.879,-29.297,0.000
1680451581.526,-39.062,-31.250,-29.297,-38.574,0.000
1680451581.530,-45.898,-30.273,-41.504,-60.059,0.000
1680451581.534,-47.852,-28.320,-45.410,-76.172,0.000
1680451581.537,-59.082,-35.645,-37.109,-63.477,0.000
1680451581.541,-47.363,-33.203,-31.738,-44.434,0.000
1680451581.545,-39.551,-32.715,-31.738,-42.480,0.000
1680451581.549,-68.848,-38.086,-31.738,-67.871,0.000
1680451581.553,-82.031,-38.086,-34.180,-82.031,0.000
1680451581.557,-73.730,-37.109,-29.297,-58.105,0.000
1680451581.561,-37.109,-30.762,-25.391,-40.527,0.000
1680451581.565,-20.996,-24.902,-30.273,-39.062,0.000
1680451581.569,-53.711,-33.203,-38.086,-61.523,0.000
1680451581.573,-71.777,-42.969,-34.668,-78.613,0.000
1680451581.577,-65.918,-43.945,-28.809,-62.988,0.000
1680451581.580,-48.340,-29.785,-25.391,-45.410,0.000
1680451581.584,-41.992,-27.344,-27.832,-40.527,0.000
1680451581.588,-50.781,-29.785,-31.738,-58.105,0.000
1680451581.592,-71.777,-29.297,-28.809,-62.012,0.000
1680451581.596,-75.195,-31.250,-22.949,-46.875,0.000
1680451581.600,-48.828,-26.367,-23.438,-41.016,0.000
1680451581.604,-35.645,-28.320,-28.809,-36.621,0.000
1680451581.608,-26.367,-28.809,-27.344,-21.973,0.000
1680451581.612,-20.020,-31.250,-22.949,-15.137,0.000
1680451581.616,-26.855,-37.598,-23.926,-20.996,0.000
1680451581.619,-34.668,-32.715,-28.320,-27.344,0.000
1680451581.623,-31.250,-24.414,-35.645,-36.621,0.000
1680451581.627,-13.672,-20.020,-40.039,-34.668,0.000
1680451581.631,-29.297,-24.902,-37.598,-43.457,0.000
1680451581.635,-63.965,-41.016,-33.691,-54.199,0.000
1680451581.639,-53.711,-48.340,-31.250,-29.297,0.000
1680451581.643,-44.922,-39.551,-36.133,-27.344,0.000
1680451581.647,-47.363,-31.738,-43.457,-43.457,0.000
1680451581.651,-43.457,-33.203,-43.945,-40.039,0.000
1680451581.655,-58.105,-31.250,-39.551,-50.781,0.000
1680451581.659,-68.359,-29.785,-35.156,-63.477,0.000
1680451581.662,-58.105,-31.738,-36.621,-49.805,0.000
1680451581.666,-41.016,-33.203,-33.691,-42.480,0.000
1680451581.670,-41.504,-28.320,-33.203,-45.410,0.000
1680451581.674,-49.805,-21.973,-33.691,-41.992,0.000
1680451581.678,-51.270,-28.809,-31.250,-37.598,0.000
1680451581.682,-55.176,-31.250,-31.250,-39.551,0.000
1680451581.686,-44.434,-30.273,-25.391,-36.133,0.000
1680451581.690,-41.992,-37.598,-20.996,-36.621,0.000
1680451581.694,-40.527,-36.133,-31.738,-40.039,0.000
1680451581.698,-36.133,-35.645,-36.621,-26.367,0.000
1680451581.702,-41.016,-41.504,-28.320,-22.949,0.000
1680451581.705,-32.227,-36.621,-22.949,-21.484,0.000
1680451581.709,-45.898,-35.645,-25.391,-23.438,0.000
1680451581.713,-62.012,-38.086,-30.762,-43.457,0.000
1680451581.717,-52.246,-33.691,-38.086,-51.270,0.000
1680451581.721,-39.062,-29.297,-41.504,-38.574,0.000
1680451581.725,-44.922,-27.832,-40.527,-44.434,0.000
1680451581.729,-62.988,-35.645,-42.480,-62.012,0.000
1680451581.733,-59.570,-45.410,-24.902,-51.758,0.000
1680451581.737,-56.152,-41.992,-14.648,-35.156,0.000
1680451581.741,-49.805,-33.203,-40.039,-30.273,0.000
1680451581.744,-47.363,-31.738,-46.387,-40.039,0.000
1680451581.748,-57.617,-35.645,-38.574,-52.734,0.000
1680451581.752,-65.918,-34.668,-35.156,-57.617,0.000
1680451581.756,-56.641,-34.668,-34.180,-46.387,0.000
1680451581.760,-41.504,-36.133,-26.855,-18.555,0.000
1680451581.764,-45.410,-33.691,-27.832,-21.973,0.000
1680451581.768,-67.871,-35.645,-31.738,-48.828,0.000
1680451581.772,-71.289,-35.645,-30.273,-45.410,0.000
1680451581.776,-47.852,-40.527,-25.391,-29.297,0.000
1680451581.780,-35.156,-41.504,-17.090,-18.555,0.000
1680451581.784,-35.645,-38.574,-21.973,-20.020,0.000
1680451581.787,-30.762,-37.598,-22.949,-19.531,0.000
1680451581.791,-23.438,-37.109,-17.090,-11.719,0.000
1680451581.795,-31.250,-39.551,-21.484,-18.066,0.000
1680451581.799,-29.785,-32.227,-33.203,-37.598,0.000
1680451581.803,-15.137,-22.461,-39.551,-43.945,0.000
1680451581.807,-41.016,-29.785,-34.180,-45.410,0.000
1680451581.811,-68.359,-40.039,-28.809,-62.500,0.000
1680451581.815,-78.125,-36.621,-29.785,-71.289,0.000
1680451581.819,-62.988,-33.691,-30.762,-46.875,0.000
1680451581.823,-43.945,-33.203,-20.020,-30.273,0.000
1680451581.826,-49.316,-37.598,-24.414,-41.016,0.000
1680451581.830,-53.711,-35.645,-38.574,-50.781,0.000
1680451581.834,-62.500,-32.715,-32.715,-56.641,0.000
1680451581.838,-61.523,-37.598,-33.203,-55.664,0.000
1680451581.842,-43.457,-37.109,-26.367,-41.992,0.000
1680451581.846,-36.621,-32.715,-24.902,-30.762,0.000
1680451581.850,-43.945,-35.645,-29.785,-29.297,0.000
1680451581.854,-44.434,-32.715,-27.832,-36.133,0.000
1680451581.858,-23.926,-19.531,-27.832,-23.926,0.000
1680451581.862,-24.902,-19.043,-28.320,-20.508,0.000
1680451581.866,-44.434,-26.855,-20.996,-32.715,0.000
1680451581.869,-55.176,-31.250,-14.648,-45.410,0.000
1680451581.873,-58.105,-38.086,-30.273,-47.852,0.000
1680451581.877,-44.922,-41.504,-34.668,-20.020,0.000
1680451581.881,-28.809,-36.133,-31.250,-8.789,0.000
1680451581.885,-35.645,-36.621,-36.133,-37.109,0.000
1680451581.889,-65.430,-42.969,-40.527,-66.406,0.000
1680451581.893,-64.941,-47.852,-34.668,-56.641,0.000
1680451581.897,-38.086,-38.086,-26.855,-37.598,0.000
1680451581.901,-43.945,-25.391,-33.203,-68.359,0.000
1680451581.905,-46.387,-32.715,-37.598,-76.172,0.000
1680451581.909,-37.598,-33.691,-45.898,-60.547,0.000
1680451581.912,-44.434,-34.668,-39.551,-84.473,0.000
1680451581.916,-44.434,-38.574,-32.715,-75.195,0.000
1680451581.920,-26.367,-29.297,-43.457,-35.156,0.000
1680451581.924,-20.508,-24.902,-37.109,-26.367,0.000
1680451581.928,-41.016,-28.809,-33.203,-44.922,0.000
1680451581.932,-45.410,-30.762,-33.691,-52.734,0.000
1680451581.936,-42.480,-34.180,-26.367,-38.574,0.000
1680451581.940,-49.316,-32.715,-26.367,-36.621,0.000
1680451581.944,-34.180,-34.180,-32.227,-39.062,0.000
1680451581.948,-23.926,-33.691,-42.480,-24.902,0.000
1680451581.951,-35.645,-29.297,-52.246,-27.344,0.000
1680451581.955,-52.734,-28.809,-47.363,-43.457,0.000
1680451581.959,-56.641,-28.320,-42.480,-43.457,0.000
1680451581.963,-38.086,-37.598,-38.086,-20.996,0.000
1680451581.967,-11.230,-43.457,-38.574,-6.836,0.000
1680451581.971,-27.832,-32.715,-43.945,-32.227,0.000
1680451581.975,-65.918,-27.832,-43.457,-59.570,0.000
1680451581.979,-47.363,-31.250,-36.621,-44.434,0.000
1680451581.983,-10.742,-22.949,-41.504,-28.320,0.000
1680451581.987,-16.602,-23.926,-49.805,-39.062,0.000
1680451581.991,-68.359,-42.480,-41.504,-65.918,0.000
1680451581.994,-87.402,-43.945,-37.109,-74.219,0.000
1680451581.998,-72.266,-32.227,-35.156,-52.246,0.000
1680451582.002,-50.781,-30.273,-45.898,-37.109,0.000
1680451582.006,-29.297,-32.227,-48.340,-36.133,0.000
1680451582.010,-40.527,-35.645,-35.156,-45.898,0.000
1680451582.014,-53.223,-36.133,-34.180,-43.945,0.000
1680451582.018,-46.875,-29.297,-31.738,-28.809,0.000
1680451582.022,-46.387,-29.785,-31.738,-31.738,0.000
1680451582.026,-45.410,-35.645,-34.668,-31.250,0.000
1680451582.030,-28.809,-34.668,-39.062,-26.367,0.000
1680451582.034,-32.715,-26.855,-39.551,-35.156,0.000
1680451582.037,-45.898,-31.250,-33.691,-38.574,0.000
1680451582.041,-35.156,-34.180,-28.320,-29.785,0.000
1680451582.045,-30.273,-34.180,-31.738,-21.484,0.000
1680451582.049,-28.320,-36.621,-32.715,-24.902,0.000
1680451582.053,-18.066,-28.809,-35.645,-35.645,0.000
1680451582.057,-21.973,-29.785,-40.039,-31.250,0.000
1680451582.061,-45.410,-37.598,-29.785,-31.250,0.000
1680451582.065,-41.016,-39.062,-24.414,-32.227,0.000
1680451582.069,-24.414,-37.598,-27.832,-31.738,0.000
1680451582.073,-43.945,-29.785,-35.156,-55.176,0.000
1680451582.076,-52.734,-27.832,-41.992,-55.664,0.000
1680451582.080,-47.363,-34.180,-41.992,-51.758,0.000
1680451582.084,-72.754,-37.109,-36.621,-68.848,0.000
1680451582.088,-64.941,-38.086,-29.297,-62.988,0.000
1680451582.092,-49.316,-41.016,-24.902,-50.293,0.000
1680451582.096,-60.059,-36.133,-28.320,-56.152,0.000
1680451582.100,-46.875,-27.344,-30.762,-54.688,0.000
1680451582.104,-38.086,-20.020,-29.297,-43.945,0.000
1680451582.108,-41.016,-24.414,-37.598,-39.062,0.000
1680451582.112,-57.129,-39.062,-39.062,-51.270,0.000
1680451582.116,-72.266,-41.992,-32.227,-58.105,0.000
1680451582.119,-52.734,-38.086,-39.062,-46.875,0.000
1680451582.123,-27.344,-34.180,-36.621,-34.180,0.000
1680451582.127,-24.414,-28.809,-32.715,-27.344,0.000
1680451582.131,-36.133,-29.297,-31.250,-30.762,0.000
1680451582.135,-58.594,-37.598,-28.809,-37.598,0.000
1680451582.139,-64.453,-41.504,-20.020,-38.574,0.000
1680451582.143,-39.551,-38.086,-17.090,-22.461,0.000
1680451582.147,-28.809,-34.180,-28.809,-16.602,0.000
1680451582.151,-38.086,-35.156,-26.855,-27.344,0.000
1680451582.155,-49.316,-32.715,-12.695,-35.645,0.000
1680451582.159,-59.570,-28.320,-22.461,-40.039,0.000
1680451582.162,-58.594,-31.738,-27.832,-38.086,0.000
1680451582.166,-40.039,-35.156,-25.879,-29.785,0.000
1680451582.170,-32.227,-36.621,-29.297,-34.180,0.000
1680451582.174,-54.199,-38.574,-32.227,-50.293,0.000
1680451582.178,-65.430,-36.621,-32.715,-51.270,0.000
1680451582.182,-50.293,-31.250,-33.203,-45.410,0.000
1680451582.186,-49.316,-29.785,-29.297,-43.457,0.000
1680451582.190,-65.430,-38.086,-30.762,-56.152,0.000
1680451582.194,-67.383,-41.016,-30.762,-55.176,0.000
1680451582.198,-52.734,-41.504,-30.273,-38.574,0.000
1680451582.201,-37.109,-41.016,-38.574,-32.715,0.000
1680451582.205,-31.250,-39.551,-34.668,-32.715,0.000
1680451582.209,-34.180,-36.133,-30.273,-39.551,0.000
1680451582.213,-41.992,-34.180,-31.250,-42.480,0.000
1680451582.217,-40.039,-38.086,-24.414,-29.297,0.000
1680451582.221,-22.461,-31.250,-26.855,-15.625,0.000
1680451582.225,0.000,-29.297,-34.668,-11.719,0.000
1680451582.229,-9.277,-31.250,-33.203,-21.973,0.000
1680451582.233,-43.945,-34.180,-26.367,-43.945,0.000
1680451582.237,-51.758,-33.691,-26.855,-46.387,0.000
1680451582.241,-21.484,-28.809,-30.273,-23.926,0.000
1680451582.244,-15.137,-37.109,-32.715,-22.461,0.000
1680451582.248,-40.527,-39.551,-32.227,-35.156,0.000
1680451582.252,-40.039,-34.180,-27.832,-39.062,0.000
1680451582.256,-27.832,-37.598,-27.832,-40.527,0.000
1680451582.260,-29.297,-34.668,-29.785,-32.715,0.000
1680451582.264,-38.574,-33.691,-32.715,-34.180,0.000
1680451582.268,-45.898,-32.715,-37.598,-45.898,0.000
1680451582.272,-40.527,-28.809,-45.410,-45.898,0.000
1680451582.276,-41.992,-35.156,-45.410,-51.270,0.000
1680451582.280,-62.012,-40.527,-36.621,-57.617,0.000
1680451582.283,-52.246,-43.457,-41.992,-47.363,0.000
1680451582.287,-31.250,-51.758,-42.969,-35.645,0.000
1680451582.291,-39.551,-45.898,-36.621,-39.062,0.000
1680451582.295,-42.480,-31.738,-41.504,-53.711,0.000
1680451582.299,-18.066,-25.879,-45.410,-45.898,0.000
1680451582.303,-2.441,-23.438,-41.016,-18.555,0.000
1680451582.307,-34.180,-29.297,-37.598,-24.414,0.000
1680451582.311,-50.293,-39.551,-35.645,-38.086,0.000
1680451582.315,-35.645,-39.062,-32.715,-14.160,0.000
1680451582.319,-24.414,-31.738,-37.598,-9.277,0.000
1680451582.323,-12.695,-27.832,-38.574,-19.531,0.000
1680451582.326,-11.719,-30.273,-42.480,-19.531,0.000
1680451582.330,-33.691,-31.250,-46.387,-30.762,0.000
1680451582.334,-49.316,-34.668,-42.969,-43.945,0.000
1680451582.338,-41.016,-38.086,-44.434,-38.086,0.000
1680451582.342,-19.043,-41.016,-39.062,-21.484,0.000
1680451582.346,-19.531,-36.621,-36.621,-18.066,0.000
1680451582.350,-35.156,-32.715,-42.480,-34.180,0.000
1680451582.354,-51.270,-37.598,-41.992,-57.129,0.000
1680451582.358,-58.105,-38.574,-37.109,-52.734,0.000
1680451582.362,-39.551,-33.203,-38.086,-37.598,0.000
1680451582.366,-42.480,-32.227,-43.945,-45.410,0.000
1680451582.369,-52.246,-35.645,-46.387,-49.805,0.000
1680451582.373,-41.504,-37.109,-50.293,-44.434,0.000
1680451582.377,-32.715,-42.480,-45.898,-26.855,0.000
1680451582.381,-13.672,-43.945,-38.086,-13.184,0.000
1680451582.385,-12.207,-34.668,-41.992,-20.508,0.000
1680451582.389,-30.273,-42.480,-35.645,-22.949,0.000
1680451582.393,-20.508,-46.875,-29.297,-1.465,0.000
1680451582.397,-6.836,-31.250,-40.527,0.488,0.000
1680451582.401,-6.348,-29.297,-47.363,-9.277,0.000
1680451582.405,-12.695,-30.762,-45.410,-17.578,0.000
1680451582.408,-21.973,-30.273,-48.828,-30.273,0.000
1680451582.412,-15.137,-35.645,-47.852,-11.230,0.000
1680451582.416,-6.836,-44.434,-40.527,2.441,0.000
1680451582.420,-14.160,-49.316,-40.527,-1.465,0.000
1680451582.424,-29.785,-41.992,-45.898,-23.926,0.000
1680451582.428,-24.902,-40.527,-50.781,-41.992,0.000
1680451582.432,-15.137,-48.340,-51.758,-31.738,0.000
1680451582.436,-2.441,-41.016,-40.527,-22.461,0.000
1680451582.440,13.672,-35.645,-28.809,-7.324,0.000
1680451582.444,15.625,-29.785,-38.574,-11.230,0.000
1680451582.448,-4.883,-23.926,-49.805,-31.250,0.000
1680451582.451,-9.766,-28.320,-50.293,-29.297,0.000
1680451582.455,-5.859,-28.809,-44.922,-9.277,0.000
1680451582.459,-11.719,-40.527,-39.062,1.465,0.000
1680451582.463,0.977,-43.457,-37.109,-1.953,0.000
1680451582.467,-29.297,-37.109,-45.898,-29.785,0.000
1680451582.471,-43.945,-34.180,-45.410,-24.902,0.000
1680451582.475,-12.207,-39.062,-38.574,1.953,0.000
1680451582.479,-0.977,-35.645,-40.527,-1.953,0.000
1680451582.483,-1.953,-30.762,-39.551,-19.043,0.000
1680451582.487,-1.465,-32.227,-37.109,-9.766,0.000
1680451582.491,8.301,-29.297,-46.875,1.465,0.000
1680451582.494,5.859,-28.320,-47.852,-8.301,0.000
1680451582.498,9.277,-37.109,-32.227,11.230,0.000
1680451582.502,24.414,-42.969,-26.855,34.180,0.000
1680451582.506,16.113,-36.621,-40.039,12.207,0.000
1680451582.510,-5.371,-36.133,-45.898,-18.066,0.000
1680451582.514,1.465,-32.715,-42.969,-2.441,0.000
1680451582.518,20.996,-28.809,-37.109,18.555,0.000
1680451582.522,17.578,-32.715,-31.738,16.602,0.000
1680451582.526,9.277,-39.551,-20.508,11.230,0.000
1680451582.530,-9.766,-45.410,-13.672,-3.906,0.000
1680451582.533,-15.625,-42.480,-34.180,-9.766,0.000
1680451582.537,-12.207,-34.180,-42.969,-5.371,0.000
1680451582.541,-2.441,-35.645,-41.016,-13.184,0.000
1680451582.545,9.766,-36.621,-46.875,-20.020,0.000
1680451582.549,0.488,-34.180,-48.828,-19.043,0.000
1680451582.553,-10.254,-37.598,-41.016,-19.531,0.000
1680451582.557,-9.766,-41.016,-36.133,-13.672,0.000
1680451582.561,-3.418,-41.992,-35.645,-0.977,0.000
1680451582.565,4.883,-35.645,-36.621,-1.953,0.000
1680451582.569,-6.348,-35.156,-48.340,-15.625,0.000
1680451582.573,-25.879,-48.340,-30.762,-19.043,0.000
1680451582.576,-19.531,-50.293,-16.602,-11.719,0.000
1680451582.580,2.930,-38.086,-32.227,3.906,0.000
1680451582.584,15.625,-27.344,-29.297,11.230,0.000
1680451582.588,15.137,-26.367,-33.691,6.348,0.000
1680451582.592,7.812,-33.203,-33.691,-2.441,0.000
1680451582.596,-5.371,-37.109,-33.203,-8.301,0.000
1680451582.600,0.000,-36.133,-33.691,-3.418,0.000
1680451582.604,-3.906,-31.250,-33.691,-12.207,0.000
1680451582.608,-16.602,-34.180,-40.039,-29.785,0.000
1680451582.612,-16.602,-34.668,-41.016,-24.414,0.000
1680451582.616,-5.859,-32.227,-44.434,-22.949,0.000
1680451582.619,0.977,-35.645,-36.621,-20.996,0.000
1680451582.623,1.465,-35.645,-37.598,-9.766,0.000
1680451582.627,-5.859,-32.227,-45.898,-22.949,0.000
1680451582.631,-17.578,-36.133,-35.156,-32.715,0.000
1680451582.635,-12.207,-41.504,-33.203,-14.648,0.000
1680451582.639,1.465,-31.738,-36.621,-3.418,0.000
1680451582.643,0.000,-22.949,-41.016,-12.207,0.000
1680451582.647,-6.836,-24.902,-42.969,-19.043,0.000
1680451582.651,-12.695,-33.203,-43.457,-26.855,0.000
1680451582.655,-21.973,-38.086,-42.480,-27.344,0.000
1680451582.658,-14.160,-32.715,-32.227,-15.137,0.000
1680451582.662,-11.719,-40.039,-29.297,-8.301,0.000
1680451582.666,-8.301,-41.992,-29.785,-20.996,0.000
1680451582.670,-7.812,-32.227,-35.156,-27.344,0.000
1680451582.674,-36.133,-43.945,-41.504,-35.645,0.000
1680451582.678,-24.902,-44.434,-39.062,-30.273,0.000
1680451582.682,-6.836,-35.156,-32.227,-7.812,0.000
1680451582.686,-17.090,-33.203,-30.762,-15.625,0.000
1680451582.690,-17.578,-32.227,-32.715,-22.461,0.000
1680451582.694,-16.602,-40.527,-30.273,-22.949,0.000
1680451582.698,-14.648,-45.410,-29.785,-27.344,0.000
1680451582.701,-9.277,-42.480,-33.203,-12.695,0.000
1680451582.705,-23.438,-42.969,-31.250,-27.832,0.000
1680451582.709,-54.199,-51.758,-23.438,-48.828,0.000
1680451582.713,-44.922,-51.758,-30.273,-32.227,0.000
1680451582.717,-27.832,-38.086,-35.156,-25.391,0.000
1680451582.721,-16.602,-34.668,-35.645,-17.090,0.000
1680451582.725,-20.020,-34.668,-38.574,-14.648,0.000
1680451582.729,-36.621,-31.738,-36.133,-26.367,0.000
1680451582.733,-37.598,-33.203,-37.109,-31.250,0.000
1680451582.737,-27.832,-31.250,-40.039,-24.414,0.000
1680451582.740,-13.672,-33.691,-31.250,-3.418,0.000
1680451582.744,-17.578,-33.203,-31.250,-4.883,0.000
1680451582.748,-28.320,-38.574,-41.504,-34.668,0.000
1680451582.752,-27.344,-41.504,-23.438,-36.621,0.000
1680451582.756,-20.508,-35.156,-23.438,-27.344,0.000
1680451582.760,-16.602,-35.645,-40.039,-27.344,0.000
1680451582.764,-18.555,-35.645,-40.039,-20.020,0.000
1680451582.768,-23.926,-34.180,-28.809,-30.273,0.000
1680451582.772,-29.297,-32.715,-23.926,-44.434,0.000
1680451582.776,-23.926,-30.762,-37.598,-40.039,0.000
1680451582.780,-19.043,-23.438,-40.039,-21.484,0.000
1680451582.783,-24.902,-22.949,-37.598,-14.648,0.000
1680451582.787,-33.203,-34.180,-41.504,-32.715,0.000
1680451582.791,-34.180,-43.945,-41.992,-40.527,0.000
1680451582.795,-21.484,-39.062,-39.551,-32.227,0.000
1680451582.799,-22.461,-28.809,-36.621,-24.414,0.000
1680451582.803,-26.367,-32.227,-33.691,-13.184,0.000
1680451582.807,-26.855,-34.668,-43.457,-10.254,0.000
1680451582.811,-39.551,-30.762,-39.551,-30.273,0.000
1680451582.815,-49.805,-38.086,-10.742,-48.828,0.000
1680451582.819,-42.480,-41.016,-27.344,-40.039,0.000
1680451582.823,-25.391,-31.738,-47.852,-21.484,0.000
1680451582.826,-33.203,-33.203,-34.668,-33.203,0.000
1680451582.830,-38.086,-41.504,-34.668,-41.016,0.000
1680451582.834,-41.504,-43.457,-49.316,-33.691,0.000
1680451582.838,-39.551,-39.551,-46.875,-27.832,0.000
1680451582.842,-16.113,-36.133,-41.992,-22.461,0.000
1680451582.846,-5.371,-28.809,-38.086,-18.555,0.000
1680451582.850,-21.484,-31.250,-34.180,-26.855,0.000
1680451582.854,-32.227,-46.387,-43.457,-40.039,0.000
1680451582.858,-23.438,-46.387,-22.949,-31.250,0.000
1680451582.862,-7.812,-41.016,-12.207,-22.461,0.000
1680451582.865,-16.113,-39.062,-40.527,-25.879,0.000
1680451582.869,-25.391,-36.621,-42.480,-27.832,0.000
1680451582.873,-26.367,-38.574,-41.016,-28.809,0.000
1680451582.877,-32.227,-35.645,-38.086,-37.109,0.000
1680451582.881,-26.367,-31.250,-36.133,-28.320,0.000
1680451582.885,-19.531,-39.062,-37.109,-22.949,0.000
1680451582.889,-42.969,-46.875,-39.551,-39.062,0.000
1680451582.893,-64.941,-44.922,-45.898,-40.039,0.000
1680451582.897,-46.387,-37.598,-43.457,-34.180,0.000
1680451582.901,-27.344,-37.598,-45.410,-30.273,0.000
1680451582.905,-38.574,-42.969,-55.664,-37.109,0.000
1680451582.908,-39.551,-36.133,-40.039,-36.621,0.000
1680451582.912,-44.922,-35.645,-27.832,-27.344,0.000
1680451582.916,-42.480,-41.016,-34.180,-25.391,0.000
1680451582.920,-23.438,-33.203,-32.715,-18.066,0.000
1680451582.924,-27.344,-26.367,-33.203,-27.832,0.000
1680451582.928,-34.180,-34.180,-39.062,-39.062,0.000
1680451582.932,-38.574,-44.922,-41.016,-38.574,0.000
1680451582.936,-59.570,-51.270,-40.527,-42.969,0.000
1680451582.940,-41.504,-40.039,-38.574,-24.414,0.000
1680451582.944,-20.020,-34.180,-43.945,-15.137,0.000
1680451582.948,-35.645,-41.504,-38.086,-38.574,0.000
1680451582.951,-46.875,-41.504,-32.227,-49.805,0.000
1680451582.955,-53.223,-32.227,-38.086,-41.992,0.000
1680451582.959,-32.715,-33.691,-38.574,-40.039,0.000
1680451582.963,-17.578,-35.156,-40.527,-46.875,0.000
1680451582.967,-18.066,-30.762,-39.551,-50.781,0.000
1680451582.971,-40.527,-30.273,-36.621,-49.316,0.000
1680451582.975,-52.246,-31.738,-34.180,-43.457,0.000
1680451582.979,-28.320,-36.621,-35.156,-39.062,0.000
1680451582.983,-34.668,-40.039,-35.156,-32.227,0.000
1680451582.987,-51.270,-42.969,-35.645,-29.297,0.000
1680451582.990,-53.223,-43.457,-33.203,-32.227,0.000
1680451582.994,-46.875,-47.363,-12.695,-23.926,0.000
1680451582.998,-37.109,-44.434,-16.602,-19.043,0.000
1680451583.002,-32.227,-36.621,-30.762,-18.066,0.000
1680451583.006,-40.527,-31.738,-26.855,-21.484,0.000
1680451583.010,-51.758,-31.738,-29.297,-36.133,0.000
1680451583.014,-52.246,-38.086,-35.645,-43.945,0.000
1680451583.018,-43.945,-40.527,-37.598,-37.109,0.000
1680451583.022,-33.203,-34.668,-32.715,-24.902,0.000
1680451583.026,-28.809,-32.227,-31.250,-21.973,0.000
1680451583.030,-38.086,-28.809,-30.762,-37.109,0.000
1680451583.033,-40.527,-26.367,-41.016,-42.969,0.000
1680451583.037,-40.039,-33.203,-6.836,-42.969,0.000
1680451583.041,-41.992,-37.109,16.113,-46.387,0.000
1680451583.045,-49.805,-40.527,-39.551,-46.387,0.000
1680451583.049,-56.152,-46.875,-45.898,-56.641,0.000
1680451583.053,-58.594,-48.828,-43.945,-63.477,0.000
1680451583.057,-66.895,-48.828,-49.805,-61.035,0.000
1680451583.061,-53.223,-46.387,-44.922,-44.922,0.000
1680451583.065,-44.922,-43.945,-42.969,-43.457,0.000
1680451583.069,-55.176,-45.898,-40.039,-52.734,0.000
1680451583.073,-51.270,-51.758,-41.016,-52.246,0.000
1680451583.076,-47.852,-52.734,-48.340,-44.922,0.000
1680451583.080,-35.156,-41.504,-45.410,-30.762,0.000
1680451583.084,-26.855,-39.551,-25.879,-31.738,0.000
1680451583.088,-39.551,-47.363,-28.809,-43.457,0.000
1680451583.092,-47.852,-51.270,-45.898,-49.805,0.000
1680451583.096,-33.691,-49.316,-41.504,-36.621,0.000
1680451583.100,-18.066,-41.504,-33.691,-25.879,0.000
1680451583.104,-24.902,-40.039,-39.062,-33.691,0.000
1680451583.108,-25.879,-35.156,-37.109,-27.832,0.000
1680451583.112,-45.410,-36.621,-27.832,-30.273,0.000
1680451583.115,-62.012,-42.480,-31.250,-44.434,0.000
1680451583.119,-46.875,-36.133,-41.504,-36.621,0.000
1680451583.123,-28.320,-37.109,-41.504,-28.809,0.000
1680451583.127,-32.227,-41.992,-41.016,-36.621,0.000
1680451583.131,-53.223,-44.922,-38.574,-48.340,0.000
1680451583.135,-55.664,-40.527,-36.621,-41.992,0.000
1680451583.139,-46.387,-36.133,-38.574,-36.621,0.000
1680451583.143,-36.621,-31.738,-30.273,-32.715,0.000
1680451583.147,-36.621,-29.297,-24.414,-31.250,0.000
1680451583.151,-39.551,-38.574,-31.738,-38.574,0.000
1680451583.155,-37.109,-41.016,-32.715,-40.039,0.000
1680451583.158,-33.691,-39.062,-33.691,-35.645,0.000
1680451583.162,-20.020,-37.598,-36.133,-24.902,0.000
1680451583.166,-25.879,-32.227,-33.203,-16.113,0.000
1680451583.170,-41.992,-34.668,-30.762,-30.762,0.000
1680451583.174,-41.016,-38.086,-24.414,-36.621,0.000
1680451583.178,-40.039,-34.668,-25.879,-23.926,0.000
1680451583.182,-35.156,-31.738,-32.227,-21.973,0.000
1680451583.186,-33.203,-40.527,-41.992,-39.551,0.000
1680451583.190,-39.551,-41.504,-45.410,-50.293,0.000
1680451583.194,-40.039,-37.598,-35.156,-43.457,0.000
1680451583.197,-40.039,-41.504,-33.691,-31.738,0.000
1680451583.201,-33.203,-43.457,-43.457,-29.785,0.000
1680451583.205,-36.133,-36.621,-42.480,-34.180,0.000
1680451583.209,-51.758,-36.621,-37.109,-46.387,0.000
1680451583.213,-52.246,-39.062,-33.203,-50.293,0.000
1680451583.217,-42.480,-37.598,-32.715,-38.086,0.000
1680451583.221,-35.156,-39.062,-37.598,-34.180,0.000
1680451583.225,-38.574,-41.016,-41.016,-41.992,0.000
1680451583.229,-46.387,-40.039,-36.621,-50.293,0.000
1680451583.233,-46.387,-39.551,-41.016,-53.223,0.000
1680451583.237,-41.504,-41.992,-43.457,-47.363,0.000
1680451583.240,-29.785,-39.062,-32.227,-31.250,0.000
1680451583.244,-29.297,-39.062,-31.250,-35.645,0.000
1680451583.248,-30.273,-35.645,-34.180,-40.527,0.000
1680451583.252,-37.598,-37.109,-35.156,-41.992,0.000
1680451583.256,-50.781,-41.504,-30.762,-44.434,0.000
1680451583.260,-42.969,-40.039,-37.598,-34.180,0.000
1680451583.264,-29.297,-40.039,-39.062,-30.762,0.000
1680451583.268,-26.855,-34.180,-34.668,-36.133,0.000
1680451583.272,-28.809,-32.227,-35.645,-39.062,0.000
1680451583.276,-31.738,-42.969,-34.180,-41.016,0.000
1680451583.280,-41.504,-45.410,-31.738,-36.621,0.000
1680451583.283,-41.992,-32.715,-30.762,-33.691,0.000
1680451583.287,-45.410,-34.180,-29.785,-47.363,0.000
1680451583.291,-58.105,-41.016,-31.250,-46.875,0.000
1680451583.295,-53.711,-39.551,-35.645,-43.457,0.000
1680451583.299,-47.852,-38.086,-34.180,-42.480,0.000
1680451583.303,-41.992,-31.250,-27.832,-40.039,0.000
1680451583.307,-39.551,-25.879,-25.879,-41.992,0.000
1680451583.311,-52.734,-32.715,-29.297,-55.664,0.000
1680451583.315,-55.176,-32.715,-29.785,-53.223,0.000
1680451583.319,-47.363,-29.785,-31.738,-31.738,0.000
1680451583.322,-40.039,-37.598,-37.598,-33.691,0.000
1680451583.326,-39.062,-39.062,-36.621,-48.340,0.000
1680451583.330,-53.711,-41.992,-41.016,-51.758,0.000
1680451583.334,-53.711,-46.387,-41.504,-48.828,0.000
1680451583.338,-40.527,-42.969,-42.969,-38.574,0.000
1680451583.342,-37.598,-35.645,-47.363,-31.250,0.000
1680451583.346,-31.250,-33.203,-43.457,-30.273,0.000
1680451583.350,-33.203,-41.016,-38.574,-39.551,0.000
1680451583.354,-47.852,-44.922,-36.621,-48.340,0.000
1680451583.358,-46.387,-44.434,-38.086,-36.133,0.000
1680451583.362,-32.227,-41.992,-35.156,-22.461,0.000
1680451583.365,-44.434,-42.969,-35.645,-40.527,0.000
1680451583.369,-62.012,-49.805,-34.668,-60.547,0.000
1680451583.373,-54.688,-48.828,-27.832,-50.293,0.000
1680451583.377,-46.387,-39.551,-37.109,-41.992,0.000
1680451583.381,-45.898,-37.598,-29.297,-46.387,0.000
1680451583.385,-41.504,-44.434,-5.859,-48.340,0.000
1680451583.389,-48.340,-39.551,-22.461,-54.688,0.000
1680451583.393,-50.781,-32.715,-37.109,-64.453,0.000
1680451583.397,-42.969,-35.645,-38.574,-53.223,0.000
1680451583.401,-40.039,-40.039,-38.086,-41.016,0.000
1680451583.405,-19.531,-41.016,-33.203,-23.438,0.000
1680451583.408,-3.906,-39.062,-40.527,-4.395,0.000
1680451583.412,-36.133,-43.457,-6.348,-42.480,0.000
1680451583.416,-73.730,-41.504,2.930,-74.707,0.000
1680451583.420,-40.527,-32.227,-44.434,-47.363,0.000
1680451583.424,-10.742,-25.391,-46.875,-20.996,0.000
1680451583.428,-25.391,-30.762,-42.480,-26.367,0.000
1680451583.432,-16.113,-34.180,-35.156,-25.879,0.000
1680451583.436,-12.207,-36.133,-27.832,-16.113,0.000
1680451583.440,-11.719,-35.156,-33.203,-15.137,0.000
1680451583.444,-11.719,-30.273,-39.551,-30.273,0.000
1680451583.447,-25.879,-33.203,-41.504,-41.016,0.000
1680451583.451,-35.645,-39.551,-41.504,-33.691,0.000
1680451583.455,-30.273,-36.133,-35.156,-22.461,0.000
1680451583.459,-30.762,-29.297,-15.625,-16.602,0.000
1680451583.463,-17.578,-23.926,-24.414,-23.438,0.000
1680451583.467,-6.348,-25.391,-41.504,-22.949,0.000
1680451583.471,-42.480,-30.273,-31.250,-34.180,0.000
1680451583.475,-69.824,-31.250,-24.902,-58.594,0.000
1680451583.479,-44.922,-30.273,-30.273,-33.691,0.000
1680451583.483,-17.578,-21.484,-31.738,-24.902,0.000
1680451583.487,-17.578,-17.090,-27.832,-48.828,0.000
1680451583.490,-23.438,-27.344,-28.809,-49.316,0.000
1680451583.494,-27.344,-27.344,-36.621,-45.410,0.000
1680451583.498,-28.320,-24.414,-50.293,-43.457,0.000
1680451583.502,-17.090,-25.879,-7.324,-26.855,0.000
1680451583.506,-10.742,-31.250,7.324,-11.719,0.000
1680451583.510,-26.855,-37.109,-42.480,-20.508,0.000
1680451583.514,-39.551,-34.668,-45.410,-31.250,0.000
1680451583.518,-23.438,-31.250,-32.715,-9.277,0.000
1680451583.522,1.465,-23.926,-32.715,7.812,0.000
1680451583.526,-2.930,-24.414,-43.457,1.465,0.000
1680451583.530,-12.207,-31.250,-41.992,-1.953,0.000
1680451583.533,-36.133,-41.016,-38.086,-10.254,0.000
1680451583.537,-40.527,-37.598,-37.598,-14.160,0.000
1680451583.541,-13.672,-28.320,-41.992,-12.695,0.000
1680451583.545,-9.766,-25.879,-35.156,-16.602,0.000
1680451583.549,-24.902,-21.973,-32.227,-24.414,0.000
1680451583.553,-32.715,-34.668,-31.250,-15.137,0.000
1680451583.557,-35.645,-35.645,-31.250,-13.672,0.000
1680451583.561,-32.227,-31.250,-25.391,-24.414,0.000
1680451583.565,-34.180,-35.645,-8.789,-24.414,0.000
1680451583.569,-44.434,-35.156,-25.879,-34.180,0.000
1680451583.572,-47.852,-35.645,-39.551,-35.645,0.000
1680451583.576,-38.574,-35.645,-38.086,-31.738,0.000
1680451583.580,-26.855,-29.297,-35.645,-25.879,0.000
1680451583.584,-24.902,-25.391,-34.668,-14.648,0.000
1680451583.588,-29.297,-30.762,-36.133,-20.020,0.000
1680451583.592,-29.297,-25.879,-31.738,-20.508,0.000
1680451583.596,-24.414,-21.973,-28.320,-12.207,0.000
1680451583.600,-14.160,-28.320,-33.691,-5.859,0.000
1680451583.604,-18.555,-30.762,-43.945,-14.648,0.000
1680451583.608,-19.531,-31.250,-8.789,-32.227,0.000
1680451583.612,-31.250,-35.156,7.324,-39.062,0.000
1680451583.615,-45.898,-31.738,-34.180,-36.621,0.000
1680451583.619,-23.926,-25.391,-42.480,-26.855,0.000
1680451583.623,-16.602,-24.902,-36.133,-23.926,0.000
1680451583.627,-42.480,-33.691,-34.668,-35.645,0.000
1680451583.631,-60.059,-39.062,-40.039,-52.734,0.000
1680451583.635,-50.781,-32.715,-37.598,-51.270,0.000
1680451583.639,-34.180,-29.297,-33.203,-41.016,0.000
1680451583.643,-44.434,-31.738,-30.762,-51.270,0.000
1680451583.647,-55.664,-35.156,-40.527,-58.594,0.000
1680451583.651,-48.828,-38.574,-32.227,-56.641,0.000
1680451583.655,-48.340,-41.504,17.090,-54.199,0.000
1680451583.658,-38.574,-33.203,-4.395,-41.504,0.000
1680451583.662,-34.668,-33.691,-36.621,-41.504,0.000
1680451583.666,-46.387,-40.039,-32.227,-44.434,0.000
1680451583.670,-39.551,-34.668,-31.738,-39.551,0.000
1680451583.674,-33.691,-30.762,-33.691,-34.668,0.000
1680451583.678,-26.367,-29.297,-37.598,-27.344,0.000
1680451583.682,-20.508,-30.762,-34.668,-20.508,0.000
1680451583.686,-18.066,-35.645,-33.691,-27.344,0.000
1680451583.690,-28.809,-32.227,-37.598,-38.086,0.000
1680451583.694,-41.504,-32.715,-38.574,-34.180,0.000
1680451583.697,-26.367,-40.039,-37.598,-27.344,0.000
1680451583.701,-23.926,-36.621,-36.621,-20.996,0.000
1680451583.705,-35.645,-34.668,-36.621,-28.809,0.000
1680451583.709,-39.551,-34.668,-34.668,-38.086,0.000
1680451583.713,-49.316,-40.527,-37.598,-45.410,0.000
1680451583.717,-49.316,-34.668,-42.969,-45.898,0.000
1680451583.721,-26.367,-23.926,-41.016,-36.133,0.000
1680451583.725,-37.109,-31.738,-38.086,-36.133,0.000
1680451583.729,-61.035,-40.527,-37.109,-47.363,0.000
1680451583.733,-66.895,-39.551,-31.738,-55.664,0.000
1680451583.737,-60.059,-33.203,-33.691,-49.805,0.000
1680451583.740,-43.945,-33.203,-26.855,-36.621,0.000
1680451583.744,-44.922,-38.086,-2.441,-38.574,0.000
1680451583.748,-51.758,-36.133,-23.438,-44.922,0.000
1680451583.752,-59.570,-43.457,-52.246,-51.270,0.000
1680451583.756,-54.688,-47.852,-45.410,-48.340,0.000
1680451583.760,-35.156,-43.945,-40.527,-31.738,0.000
1680451583.764,-29.297,-39.551,-41.504,-26.855,0.000
1680451583.768,-32.715,-35.156,-45.410,-41.992,0.000
1680451583.772,-31.250,-36.621,-38.574,-46.875,0.000
1680451583.776,-28.320,-36.621,-31.250,-33.203,0.000
1680451583.779,-20.508,-29.785,-35.156,-20.996,0.000
1680451583.783,-15.625,-20.508,-37.598,-17.578,0.000
1680451583.787,-28.320,-32.227,-23.438,-38.086,0.000
1680451583.791,-43.945,-40.039,-14.160,-51.270,0.000
1680451583.795,-36.621,-33.691,-31.738,-37.109,0.000
1680451583.799,-36.621,-36.133,-41.016,-33.203,0.000
1680451583.803,-42.480,-38.086,-37.598,-36.621,0.000
1680451583.807,-50.781,-40.039,-33.691,-43.457,0.000
1680451583.811,-53.223,-34.668,-36.133,-54.688,0.000
1680451583.815,-46.387,-33.203,-39.551,-53.223,0.000
1680451583.819,-49.316,-36.621,-39.062,-41.992,0.000
1680451583.822,-49.316,-34.668,-33.691,-41.992,0.000
1680451583.826,-48.828,-31.250,-40.039,-50.293,0.000
1680451583.830,-50.293,-26.367,-36.621,-47.852,0.000
1680451583.834,-47.852,-30.762,9.277,-40.039,0.000
1680451583.838,-37.598,-33.691,-8.301,-28.320,0.000
1680451583.842,-38.086,-26.367,-45.410,-27.832,0.000
1680451583.846,-40.527,-24.902,-32.715,-31.250,0.000
1680451583.850,-39.551,-19.043,-33.203,-35.645,0.000
1680451583.854,-41.504,-22.949,-44.434,-43.457,0.000
1680451583.858,-44.922,-26.367,-49.316,-42.480,0.000
1680451583.862,-28.320,-23.926,-41.016,-25.391,0.000
1680451583.865,-23.438,-30.762,-35.156,-24.902,0.000
1680451583.869,-39.062,-32.227,-33.203,-37.598,0.000
1680451583.873,-42.480,-30.762,-41.504,-30.273,0.000
1680451583.877,-39.062,-30.273,-1.465,-28.320,0.000
1680451583.881,-36.133,-35.156,12.695,-38.086,0.000
1680451583.885,-33.691,-34.180,-42.480,-39.062,0.000
1680451583.889,-40.039,-33.691,-47.363,-48.828,0.000
1680451583.893,-46.875,-35.156,-38.086,-62.012,0.000
1680451583.897,-45.898,-34.180,-41.016,-58.105,0.000
1680451583.901,-34.668,-35.645,-46.387,-44.922,0.000
1680451583.904,-40.039,-35.645,-48.340,-41.504,0.000
1680451583.908,-52.246,-30.762,-43.945,-43.945,0.000
1680451583.912,-60.547,-30.762,-38.086,-46.387,0.000
1680451583.916,-54.688,-32.715,-41.016,-42.480,0.000
1680451583.920,-45.410,-27.344,-37.109,-43.457,0.000
1680451583.924,-40.039,-24.414,-21.484,-47.852,0.000
1680451583.928,-41.992,-30.273,-30.762,-50.293,0.000
1680451583.932,-48.340,-34.668,-45.410,-53.223,0.000
1680451583.936,-39.062,-31.738,-24.902,-39.551,0.000
1680451583.940,-28.320,-30.273,2.441,-29.297,0.000
1680451583.944,-24.414,-30.762,-22.461,-30.762,0.000
1680451583.947,-19.043,-33.691,-37.109,-27.344,0.000
1680451583.951,-18.066,-31.738,-30.762,-28.320,0.000
1680451583.955,-27.344,-31.250,-29.785,-38.086,0.000
1680451583.959,-9.277,-32.227,-32.715,-26.367,0.000
1680451583.963,-6.836,-25.879,-33.203,-21.484,0.000
1680451583.967,-33.691,-35.645,-34.180,-39.551,0.000
1680451583.971,-41.992,-40.039,-33.691,-38.574,0.000
1680451583.975,-44.434,-35.156,-32.227,-40.527,0.000
1680451583.979,-26.367,-36.133,-39.062,-32.715,0.000
1680451583.983,-28.320,-34.668,-10.254,-32.227,0.000
1680451583.987,-49.316,-32.227,0.488,-35.156,0.000
1680451583.990,-52.734,-30.273,-36.621,-41.504,0.000
1680451583.994,-62.500,-38.574,-36.621,-56.152,0.000
1680451583.998,-53.711,-38.574,-29.297,-49.805,0.000
1680451584.002,-41.016,-29.297,-25.879,-44.434,0.000
1680451584.006,-40.527,-29.297,-30.273,-51.758,0.000
1680451584.010,-37.598,-30.273,-37.598,-56.641,0.000
1680451584.014,-44.434,-34.180,-36.133,-55.664,0.000
1680451584.018,-46.387,-33.203,-32.715,-46.387,0.000
1680451584.022,-22.461,-21.484,-34.668,-40.039,0.000
1680451584.026,7.812,-20.508,-33.691,-45.898,0.000
1680451584.029,-7.812,-27.344,-16.602,-47.852,0.000
1680451584.033,-16.602,-24.414,-22.949,-39.551,0.000
1680451584.037,3.418,-19.531,-38.086,-22.461,0.000
1680451584.041,-18.555,-27.832,-27.832,-13.672,0.000
1680451584.045,-38.574,-37.598,-17.090,-12.695,0.000
1680451584.049,-32.715,-41.992,-15.625,-16.113,0.000
1680451584.053,-37.598,-39.551,-27.344,-27.344,0.000
1680451584.057,-54.199,-33.203,-33.691,-28.809,0.000
1680451584.061,-65.918,-37.109,-26.367,-39.062,0.000
1680451584.065,-54.199,-40.039,-23.438,-41.992,0.000
1680451584.069,-45.898,-37.598,-32.715,-32.715,0.000
1680451584.072,-56.152,-37.598,-30.762,-41.504,0.000
1680451584.076,-76.660,-47.363,-27.832,-63.965,0.000
1680451584.080,-73.242,-41.016,-34.180,-58.105,0.000
1680451584.084,-64.453,-32.227,-25.391,-48.340,0.000
1680451584.088,-87.891,-36.621,-21.973,-72.266,0.000
1680451584.092,-100.098,-40.527,-23.926,-76.660,0.000
1680451584.096,-80.566,-36.133,-22.949,-54.688,0.000
1680451584.100,-83.496,-26.855,-22.949,-55.664,0.000
1680451584.104,-100.586,-27.832,-21.973,-71.777,0.000
1680451584.108,-100.586,-34.668,-25.391,-77.637,0.000
1680451584.112,-97.656,-37.598,-27.832,-76.660,0.000
1680451584.115,-86.914,-36.133,-26.855,-63.477,0.000
1680451584.119,-72.754,-38.086,-16.113,-56.641,0.000
1680451584.123,-84.473,-40.527,-20.508,-60.547,0.000
1680451584.127,-88.867,-38.574,-24.902,-64.453,0.000
1680451584.131,-68.848,-37.109,-19.043,-64.941,0.000
1680451584.135,-67.383,-36.621,-25.879,-61.523,0.000
1680451584.139,-80.566,-40.527,-33.203,-68.848,0.000
1680451584.143,-77.148,-42.969,-29.297,-63.477,0.000
1680451584.147,-70.801,-42.969,-23.438,-63.965,0.000
1680451584.151,-76.172,-45.898,-26.855,-77.148,0.000
1680451584.154,-83.984,-45.898,-32.227,-71.289,0.000
1680451584.158,-75.195,-39.062,-33.203,-58.105,0.000
1680451584.162,-69.336,-41.992,-13.672,-62.012,0.000
1680451584.166,-74.219,-49.316,-5.859,-80.566,0.000
1680451584.170,-81.055,-46.387,-32.715,-83.984,0.000
1680451584.174,-72.754,-40.039,-36.133,-63.965,0.000
1680451584.178,-65.918,-35.645,-32.715,-56.641,0.000
1680451584.182,-84.961,-35.645,-33.691,-78.613,0.000
1680451584.186,-83.496,-38.574,-27.832,-74.707,0.000
1680451584.190,-74.707,-42.480,-19.531,-62.988,0.000
1680451584.194,-68.359,-39.062,-21.973,-67.871,0.000
1680451584.197,-55.664,-31.738,-28.809,-61.035,0.000
1680451584.201,-58.105,-31.250,-31.250,-60.547,0.000
1680451584.205,-67.383,-29.297,-30.273,-76.172,0.000
1680451584.209,-70.801,-32.227,-26.855,-77.148,0.000
1680451584.213,-63.965,-38.574,-23.438,-64.941,0.000
1680451584.217,-45.410,-41.992,-23.926,-42.969,0.000
1680451584.221,-29.297,-33.203,-25.879,-17.090,0.000
1680451584.225,-23.926,-18.555,-27.832,-20.020,0.000
1680451584.229,-29.785,-19.043,-28.809,-38.086,0.000
1680451584.233,-49.316,-31.738,-24.902,-53.711,0.000
1680451584.236,-55.664,-31.738,-21.973,-53.711,0.000
1680451584.240,-41.992,-34.180,-17.578,-43.457,0.000
1680451584.244,-22.949,-36.621,-22.461,-35.156,0.000
1680451584.248,-15.137,-31.738,-36.133,-34.180,0.000
1680451584.252,-42.480,-34.668,-26.367,-47.363,0.000
1680451584.256,-59.570,-36.621,-17.578,-53.223,0.000
1680451584.260,-57.129,-36.133,-26.855,-54.688,0.000
1680451584.264,-62.988,-41.016,-28.809,-56.641,0.000
1680451584.268,-71.777,-41.504,-33.203,-48.828,0.000
1680451584.272,-60.547,-41.016,-30.762,-45.410,0.000
1680451584.276,-55.176,-38.086,-26.855,-45.410,0.000
1680451584.279,-58.594,-32.715,-29.297,-47.852,0.000
1680451584.283,-75.195,-35.645,-32.227,-62.500,0.000
1680451584.287,-66.895,-34.668,-30.762,-61.035,0.000
1680451584.291,-62.500,-37.598,-24.414,-50.293,0.000
1680451584.295,-62.500,-41.016,-18.555,-37.598,0.000
1680451584.299,-36.621,-38.086,-16.113,-19.531,0.000
1680451584.303,-35.156,-31.250,-20.508,-22.461,0.000
1680451584.307,-55.176,-34.180,-29.785,-40.527,0.000
1680451584.311,-77.637,-40.039,-20.996,-54.688,0.000
1680451584.315,-64.941,-37.598,0.977,-42.969,0.000
1680451584.319,-29.297,-31.738,-20.508,-15.137,0.000
1680451584.322,-40.527,-25.879,-34.668,-10.742,0.000
1680451584.326,-74.219,-32.227,-23.926,-35.156,0.000
1680451584.330,-78.613,-36.133,-25.391,-48.828,0.000
1680451584.334,-73.730,-33.203,-30.762,-33.203,0.000
1680451584.338,-68.359,-26.367,-29.785,-23.438,0.000
1680451584.342,-70.801,-25.391,-27.832,-30.273,0.000
1680451584.346,-80.566,-29.785,-27.344,-35.645,0.000
1680451584.350,-92.773,-36.133,-28.320,-43.945,0.000
1680451584.354,-86.914,-42.969,-39.551,-33.691,0.000
1680451584.358,-75.195,-43.945,1.465,-13.672,0.000
1680451584.361,-55.176,-36.621,14.648,-8.789,0.000
1680451584.365,-64.941,-24.414,-36.621,-20.508,0.000
1680451584.369,-90.820,-22.461,-39.062,-39.062,0.000
1680451584.373,-83.984,-29.785,-35.645,-41.016,0.000
1680451584.377,-72.754,-28.320,-37.598,-32.227,0.000
1680451584.381,-60.059,-25.879,-42.969,-27.832,0.000
1680451584.385,-59.082,-28.809,-40.527,-34.668,0.000
1680451584.389,-78.613,-37.598,-32.227,-46.387,0.000
1680451584.393,-74.219,-42.480,-33.203,-41.016,0.000
1680451584.397,-54.688,-34.180,-41.016,-35.156,0.000
1680451584.401,-45.410,-20.020,-34.668,-31.738,0.000
1680451584.404,-50.293,-22.949,-20.508,-50.293,0.000
1680451584.408,-68.848,-36.133,-31.250,-77.148,0.000
1680451584.412,-77.148,-33.203,-39.551,-77.148,0.000
1680451584.416,-70.801,-40.039,-21.484,-57.129,0.000
1680451584.420,-44.434,-36.621,-11.719,-43.457,0.000
1680451584.424,-34.180,-20.508,-42.969,-58.105,0.000
1680451584.428,-61.035,-26.855,-50.781,-74.219,0.000
1680451584.432,-97.656,-32.227,-39.062,-86.914,0.000
1680451584.436,-97.168,-29.297,-34.180,-83.496,0.000
1680451584.440,-76.660,-30.273,-32.715,-59.570,0.000
1680451584.444,-68.848,-30.762,-38.086,-48.340,0.000
1680451584.447,-66.895,-37.598,-6.836,-58.105,0.000
1680451584.451,-68.848,-39.062,4.883,-56.152,0.000
1680451584.455,-64.453,-29.297,-32.227,-52.246,0.000
1680451584.459,-44.922,-23.438,-31.250,-47.363,0.000
1680451584.463,-41.504,-25.879,-28.809,-40.039,0.000
1680451584.467,-54.688,-29.785,-33.203,-47.852,0.000
1680451584.471,-45.410,-25.391,-33.691,-42.969,0.000
1680451584.475,-52.246,-26.855,-33.203,-43.945,0.000
1680451584.479,-63.477,-39.551,-28.809,-39.551,0.000
1680451584.483,-34.668,-45.898,-26.855,-18.555,0.000
1680451584.486,-31.738,-31.738,-37.109,-33.203,0.000
1680451584.490,-49.805,-23.438,-42.969,-58.594,0.000
1680451584.494,-43.457,-33.691,-28.809,-50.781,0.000
1680451584.498,-49.316,-34.180,-32.227,-50.293,0.000
1680451584.502,-51.270,-28.320,-38.574,-60.547,0.000
1680451584.506,-42.480,-29.297,-30.273,-49.805,0.000
1680451584.510,-39.062,-38.086,-22.949,-39.551,0.000
1680451584.514,-33.691,-37.598,-28.809,-33.691,0.000
1680451584.518,-41.016,-20.020,-38.086,-38.086,0.000
1680451584.522,-46.875,-23.926,-30.762,-43.457,0.000
1680451584.526,-69.824,-35.156,-29.297,-58.594,0.000
1680451584.529,-87.891,-37.598,-30.273,-65.918,0.000
1680451584.533,-62.500,-39.551,-24.414,-40.039,0.000
1680451584.537,-29.297,-32.715,-22.461,-20.508,0.000
1680451584.541,-14.648,-23.926,-25.879,-21.973,0.000
1680451584.545,-19.043,-20.508,-33.691,-30.273,0.000
1680451584.549,-22.949,-20.020,-38.574,-38.086,0.000
1680451584.553,-14.160,-16.602,-43.945,-39.062,0.000
1680451584.557,-14.160,-22.949,-34.668,-37.598,0.000
1680451584.561,-28.809,-25.879,-30.762,-34.668,0.000
1680451584.565,-24.902,-28.809,-35.645,-18.066,0.000
1680451584.569,-22.461,-40.527,-38.086,-18.555,0.000
1680451584.572,-41.016,-41.504,-34.668,-25.391,0.000
1680451584.576,-33.203,-38.086,-28.320,-14.648,0.000
1680451584.580,-20.508,-32.715,-27.832,-6.836,0.000
1680451584.584,-21.973,-28.320,-34.668,-14.648,0.000
1680451584.588,-40.527,-39.551,-37.598,-35.645,0.000
1680451584.592,-69.336,-43.945,-39.062,-60.059,0.000
1680451584.596,-62.012,-34.180,-41.016,-54.688,0.000
1680451584.600,-43.945,-37.598,-37.109,-37.109,0.000
1680451584.604,-43.945,-41.016,-40.527,-40.039,0.000
1680451584.608,-59.570,-42.480,-46.875,-49.805,0.000
1680451584.611,-66.406,-42.480,-42.969,-58.594,0.000
1680451584.615,-74.219,-39.062,-41.504,-64.453,0.000
1680451584.619,-65.918,-41.504,-43.945,-53.711,0.000
1680451584.623,-44.434,-43.945,-40.527,-49.316,0.000
1680451584.627,-51.758,-36.621,-37.598,-44.922,0.000
1680451584.631,-66.895,-39.062,-37.109,-38.574,0.000
1680451584.635,-50.293,-51.270,-40.527,-17.578,0.000
1680451584.639,-20.996,-42.480,-41.992,-3.906,0.000
1680451584.643,-32.227,-27.832,-33.203,-35.156,0.000
1680451584.647,-47.852,-25.879,-31.250,-50.293,0.000
1680451584.651,-47.363,-29.785,-51.758,-47.363,0.000
1680451584.654,-43.945,-32.227,-54.199,-37.598,0.000
1680451584.658,-29.785,-30.273,-47.363,-24.414,0.000
1680451584.662,-24.902,-32.715,-51.758,-27.832,0.000
1680451584.666,-27.344,-37.598,-47.852,-29.297,0.000
1680451584.670,-35.156,-39.551,-41.504,-33.691,0.000
1680451584.674,-21.484,-37.598,-35.156,-30.273,0.000
1680451584.678,4.395,-31.738,-34.180,-23.926,0.000
1680451584.682,-22.949,-39.551,-42.969,-36.621,0.000
1680451584.686,-40.527,-50.293,-39.551,-40.039,0.000
1680451584.690,-29.785,-42.969,-28.320,-44.434,0.000
1680451584.693,-37.109,-38.574,-38.086,-45.410,0.000
1680451584.697,-31.250,-41.504,-45.410,-26.367,0.000
1680451584.701,-20.020,-39.062,-40.039,-18.066,0.000
1680451584.705,-32.715,-37.598,-39.062,-31.738,0.000
1680451584.709,-62.012,-45.898,-31.738,-45.898,0.000
1680451584.713,-62.988,-47.363,-22.461,-41.016,0.000
1680451584.717,-41.016,-41.992,-23.438,-24.902,0.000
1680451584.721,-38.574,-27.832,-30.273,-27.832,0.000
1680451584.725,-36.621,-14.160,-36.621,-37.598,0.000
1680451584.729,-46.875,-24.902,-37.598,-51.758,0.000
1680451584.733,-80.566,-34.180,-6.348,-62.012,0.000
1680451584.736,-69.336,-33.691,-0.977,-46.875,0.000
1680451584.740,-32.715,-29.785,-31.250,-33.691,0.000
1680451584.744,-29.297,-30.273,-26.367,-36.621,0.000
1680451584.748,-39.062,-30.762,-22.461,-36.133,0.000
1680451584.752,-47.363,-24.902,-26.855,-41.504,0.000
1680451584.756,-44.434,-21.973,-35.645,-47.363,0.000
1680451584.760,-24.414,-18.555,-35.156,-37.598,0.000
1680451584.764,-37.109,-17.578,-32.715,-42.480,0.000
1680451584.768,-57.617,-21.973,-32.715,-63.965,0.000
1680451584.772,-58.594,-25.879,-36.621,-62.500,0.000
1680451584.776,-44.434,-27.832,-35.645,-46.387,0.000
1680451584.779,-49.316,-31.738,-5.371,-47.852,0.000
1680451584.783,-61.523,-30.762,-13.184,-67.383,0.000
1680451584.787,-82.520,-30.273,-32.227,-78.613,0.000
1680451584.791,-79.590,-40.039,-20.020,-53.223,0.000
1680451584.795,-30.273,-38.086,-20.996,-25.879,0.000
1680451584.799,-28.320,-21.973,-32.227,-30.273,0.000
1680451584.803,-45.410,-19.043,-37.109,-45.410,0.000
1680451584.807,-41.016,-23.438,-35.645,-52.734,0.000
1680451584.811,-66.406,-32.715,-33.691,-53.711,0.000
1680451584.815,-83.008,-30.762,-27.832,-57.129,0.000
1680451584.818,-62.988,-23.926,-25.391,-48.828,0.000
1680451584.822,-49.316,-24.902,-14.648,-41.992,0.000
1680451584.826,-45.410,-25.391,-13.184,-41.016,0.000
1680451584.830,-46.387,-20.996,-28.809,-41.504,0.000
1680451584.834,-50.293,-20.508,-23.926,-49.316,0.000
1680451584.838,-50.293,-25.391,-20.996,-39.062,0.000
1680451584.842,-48.828,-26.855,-19.531,-40.039,0.000
1680451584.846,-45.898,-26.367,-21.484,-47.852,0.000
1680451584.850,-34.668,-21.484,-20.508,-38.574,0.000
1680451584.854,-31.738,-15.137,-21.973,-41.016,0.000
1680451584.858,-44.434,-14.160,-33.691,-45.410,0.000
1680451584.861,-41.992,-15.625,-28.320,-39.551,0.000
1680451584.865,-48.340,-23.926,-24.414,-44.922,0.000
1680451584.869,-66.406,-34.180,-31.738,-62.988,0.000
1680451584.873,-68.359,-31.250,-41.016,-75.195,0.000
1680451584.877,-52.246,-29.785,-40.039,-49.805,0.000
1680451584.881,-41.992,-34.180,-35.156,-29.785,0.000
1680451584.885,-49.805,-32.715,-35.645,-40.527,0.000
1680451584.889,-61.035,-28.809,-31.738,-58.105,0.000
1680451584.893,-75.195,-23.926,-34.668,-65.918,0.000
1680451584.897,-67.871,-27.832,-32.715,-55.664,0.000
1680451584.901,-44.922,-26.855,-30.273,-31.738,0.000
1680451584.904,-45.410,-23.926,-32.715,-33.203,0.000
1680451584.908,-54.199,-20.020,-37.598,-47.852,0.000
1680451584.912,-45.898,-23.438,-9.277,-30.762,0.000
1680451584.916,-41.504,-26.367,5.859,-28.809,0.000
1680451584.920,-45.410,-21.484,-25.879,-38.086,0.000
1680451584.924,-43.457,-26.855,-28.320,-38.574,0.000
1680451584.928,-45.410,-24.414,-30.273,-50.781,0.000
1680451584.932,-47.852,-20.996,-36.133,-50.293,0.000
1680451584.936,-36.133,-21.973,-34.668,-38.086,0.000
1680451584.940,-35.645,-22.949,-27.832,-38.574,0.000
1680451584.943,-32.715,-26.367,-17.090,-29.785,0.000
1680451584.947,-41.504,-24.902,-23.926,-38.574,0.000
1680451584.951,-57.617,-21.973,-35.645,-57.617,0.000
1680451584.955,-47.852,-23.926,-32.715,-48.340,0.000
1680451584.959,-43.945,-34.180,-14.648,-47.363,0.000
1680451584.963,-55.176,-37.109,-19.043,-46.875,0.000
1680451584.967,-59.570,-37.109,-34.668,-42.480,0.000
1680451584.971,-58.594,-39.551,-31.250,-41.992,0.000
1680451584.975,-63.477,-32.227,-34.180,-42.480,0.000
1680451584.979,-53.711,-25.391,-36.621,-39.062,0.000
1680451584.983,-43.457,-32.227,-30.273,-31.250,0.000
1680451584.986,-49.805,-28.809,-35.156,-47.852,0.000
1680451584.990,-46.387,-25.879,-42.969,-57.617,0.000
1680451584.994,-40.039,-33.691,-43.457,-40.039,0.000
1680451584.998,-52.246,-36.133,-44.922,-42.969,0.000
1680451585.002,-52.734,-39.551,-30.762,-57.129,0.000
1680451585.006,-48.828,-41.016,-23.926,-50.781,0.000
1680451585.010,-43.945,-37.109,-37.109,-36.133,0.000
1680451585.014,-30.273,-31.738,-43.945,-23.926,0.000
1680451585.018,-38.086,-32.715,-6.348,-25.879,0.000
1680451585.022,-30.762,-31.738,3.418,-32.227,0.000
1680451585.025,-14.160,-36.133,-32.715,-29.785,0.000
1680451585.029,-32.227,-41.504,-32.227,-36.621,0.000
1680451585.033,-44.922,-38.086,-26.855,-40.039,0.000
1680451585.037,-47.363,-34.668,-24.902,-35.156,0.000
1680451585.041,-52.734,-30.762,-32.227,-33.691,0.000
1680451585.045,-35.645,-26.367,-38.574,-31.738,0.000
1680451585.049,-38.086,-30.273,-26.367,-33.691,0.000
1680451585.053,-72.266,-41.016,-24.902,-49.316,0.000
1680451585.057,-79.590,-41.504,-30.762,-54.688,0.000
1680451585.061,-49.805,-41.016,-18.066,-39.062,0.000
1680451585.065,-36.621,-38.086,-4.883,-36.133,0.000
1680451585.068,-45.410,-25.879,-32.715,-45.410,0.000
1680451585.072,-54.199,-26.855,-42.480,-52.734,0.000
1680451585.076,-69.824,-32.227,-32.715,-65.430,0.000
1680451585.080,-51.758,-26.855,-36.133,-56.641,0.000
1680451585.084,-14.648,-27.344,-36.133,-38.086,0.000
1680451585.088,-19.531,-28.809,-40.527,-41.992,0.000
1680451585.092,-42.969,-29.297,-44.434,-49.805,0.000
1680451585.096,-57.617,-31.250,-40.039,-45.410,0.000
1680451585.100,-45.410,-29.297,-39.062,-33.203,0.000
1680451585.104,-25.879,-27.344,-48.340,-21.973,0.000
1680451585.108,-43.457,-34.180,-25.391,-29.785,0.000
1680451585.111,-66.895,-40.527,-14.160,-44.434,0.000
1680451585.115,-65.918,-36.133,-35.645,-39.551,0.000
1680451585.119,-47.363,-38.086,-34.180,-20.020,0.000
1680451585.123,-34.180,-38.086,-28.809,-13.184,0.000
1680451585.127,-53.711,-40.039,-30.273,-37.109,0.000
1680451585.131,-64.941,-44.922,-38.574,-46.387,0.000
1680451585.135,-62.500,-42.480,-43.457,-47.852,0.000
1680451585.139,-51.270,-35.645,-36.621,-45.410,0.000
1680451585.143,-37.598,-30.273,-34.180,-35.645,0.000
1680451585.147,-41.016,-27.832,-36.621,-41.992,0.000
1680451585.150,-52.734,-31.738,-38.574,-48.340,0.000
1680451585.154,-46.387,-36.621,-34.668,-43.945,0.000
1680451585.158,-56.152,-30.762,-27.344,-45.898,0.000
1680451585.162,-58.594,-31.738,-28.320,-41.992,0.000
1680451585.166,-33.691,-35.645,-32.715,-25.391,0.000
1680451585.170,-24.902,-32.227,-34.180,-21.973,0.000
1680451585.174,-36.621,-30.273,-24.902,-27.832,0.000
1680451585.178,-47.363,-31.250,-24.902,-42.480,0.000
1680451585.182,-48.828,-37.109,-29.785,-38.574,0.000
1680451585.186,-46.875,-41.016,-30.273,-35.645,0.000
1680451585.190,-43.457,-40.039,-35.156,-44.922,0.000
1680451585.193,-47.363,-37.109,-47.363,-37.109,0.000
1680451585.197,-43.945,-39.551,-7.324,-34.180,0.000
1680451585.201,-45.898,-45.898,8.301,-46.875,0.000
1680451585.205,-42.969,-43.457,-39.062,-39.062,0.000
1680451585.209,-39.551,-41.016,-38.574,-30.762,0.000
1680451585.213,-60.547,-37.109,-42.480,-50.293,0.000
1680451585.217,-62.500,-27.832,-45.898,-55.664,0.000
1680451585.221,-51.758,-31.250,-42.480,-39.551,0.000
1680451585.225,-43.457,-39.551,-41.992,-34.668,0.000
1680451585.229,-38.086,-37.109,-40.039,-42.480,0.000
1680451585.233,-63.477,-36.621,-33.203,-56.152,0.000
1680451585.236,-71.289,-33.203,-28.809,-48.828,0.000
1680451585.240,-45.410,-30.762,-31.250,-32.715,0.000
1680451585.244,-30.762,-33.691,-1.465,-36.133,0.000
1680451585.248,-37.109,-37.109,-13.672,-36.621,0.000
1680451585.252,-49.316,-32.227,-43.457,-37.109,0.000
1680451585.256,-50.781,-34.180,-34.668,-41.992,0.000
1680451585.260,-41.504,-38.574,-31.250,-27.832,0.000
1680451585.264,-29.785,-31.738,-31.250,-20.020,0.000
1680451585.268,-36.621,-29.785,-34.180,-33.691,0.000
1680451585.272,-45.410,-32.715,-28.320,-30.273,0.000
1680451585.275,-32.715,-33.203,-25.391,-17.090,0.000
1680451585.279,-8.789,-30.273,-27.344,-10.742,0.000
1680451585.283,-7.324,-21.973,-37.598,-10.742,0.000
1680451585.287,-29.785,-20.996,-12.207,-32.715,0.000
1680451585.291,-53.711,-31.250,4.395,-51.270,0.000
1680451585.295,-50.293,-36.133,-30.273,-41.016,0.000
1680451585.299,-31.250,-33.203,-30.273,-20.508,0.000
1680451585.303,-28.809,-31.738,-24.414,-20.020,0.000
1680451585.307,-51.758,-30.273,-29.785,-39.062,0.000
1680451585.311,-72.754,-36.621,-35.645,-57.129,0.000
1680451585.315,-66.406,-41.016,-30.762,-41.504,0.000
1680451585.318,-38.086,-35.645,-26.367,-15.625,0.000
1680451585.322,-37.598,-37.109,-33.691,-28.809,0.000
1680451585.326,-47.852,-38.574,-41.504,-54.688,0.000
1680451585.330,-54.688,-39.551,-35.156,-57.129,0.000
1680451585.334,-61.523,-46.875,-13.184,-45.898,0.000
1680451585.338,-45.898,-41.504,-20.996,-33.691,0.000
1680451585.342,-32.227,-34.668,-38.574,-28.809,0.000
1680451585.346,-30.762,-37.598,-33.203,-36.621,0.000
1680451585.350,-36.621,-31.738,-30.762,-52.246,0.000
1680451585.354,-29.297,-26.855,-35.645,-52.246,0.000
1680451585.358,-26.855,-23.438,-37.598,-32.715,0.000
1680451585.361,-37.598,-26.367,-28.809,-24.414,0.000
1680451585.365,-28.809,-30.762,-24.902,-25.391,0.000
1680451585.369,-29.785,-26.367,-31.738,-35.156,0.000
1680451585.373,-41.992,-23.438,-35.156,-35.645,0.000
1680451585.377,-26.367,-18.066,-29.785,-23.926,0.000
1680451585.381,-26.855,-17.090,-25.879,-35.645,0.000
1680451585.385,-54.688,-26.855,-30.762,-47.363,0.000
1680451585.389,-60.547,-33.691,-34.668,-44.922,0.000
1680451585.393,-58.594,-32.715,-32.715,-50.781,0.000
1680451585.397,-48.828,-29.297,-31.738,-56.641,0.000
1680451585.400,-45.410,-32.715,-33.691,-48.828,0.000
1680451585.404,-49.316,-31.250,-32.715,-47.852,0.000
1680451585.408,-49.316,-24.902,-34.180,-55.664,0.000
1680451585.412,-53.711,-25.879,-35.645,-54.199,0.000
1680451585.416,-47.363,-27.832,-36.621,-47.363,0.000
1680451585.420,-41.504,-23.438,-34.180,-42.969,0.000
1680451585.424,-53.223,-22.949,-27.832,-52.734,0.000
1680451585.428,-63.477,-31.738,-30.762,-70.312,0.000
1680451585.432,-50.781,-38.086,-31.738,-57.617,0.000
1680451585.436,-36.621,-41.504,-13.672,-19.043,0.000
1680451585.440,-25.879,-34.180,9.766,-13.672,0.000
1680451585.443,-35.156,-27.832,-14.648,-36.621,0.000
1680451585.447,-42.480,-32.227,-37.109,-45.898,0.000
1680451585.451,-48.828,-37.598,-32.227,-48.828,0.000
1680451585.455,-47.852,-40.039,-28.809,-41.992,0.000
1680451585.459,-20.020,-36.621,-31.250,-12.695,0.000
1680451585.463,-4.883,-32.715,-29.785,-0.488,0.000
1680451585.467,-18.066,-29.297,-33.203,-20.020,0.000
1680451585.471,-35.645,-28.320,-29.297,-35.156,0.000
1680451585.475,-47.363,-34.180,-28.809,-46.387,0.000
1680451585.479,-49.316,-33.203,-43.457,-43.457,0.000
1680451585.482,-29.785,-31.738,-3.418,-29.785,0.000
1680451585.486,-34.668,-33.691,20.508,-38.086,0.000
1680451585.490,-49.805,-33.203,-24.414,-48.340,0.000
1680451585.494,-48.340,-28.320,-31.250,-49.316,0.000
1680451585.498,-32.227,-20.508,-32.227,-41.992,0.000
1680451585.502,-25.879,-21.973,-39.551,-41.016,0.000
1680451585.506,-54.199,-28.320,-41.016,-60.059,0.000
1680451585.510,-68.359,-31.738,-36.621,-68.359,0.000
1680451585.514,-72.754,-39.551,-32.715,-60.059,0.000
1680451585.518,-53.223,-35.156,-31.738,-43.457,0.000
1680451585.522,-25.391,-28.320,-34.180,-23.926,0.000
1680451585.525,-31.738,-34.180,-40.039,-34.180,0.000
1680451585.529,-43.457,-34.668,-10.742,-51.270,0.000
1680451585.533,-44.922,-29.297,-11.230,-46.875,0.000
1680451585.537,-37.109,-25.879,-31.250,-29.785,0.000
1680451585.541,-26.367,-29.297,-24.902,-15.137,0.000
1680451585.545,-12.207,-29.297,-22.461,-7.324,0.000
1680451585.549,-15.625,-19.531,-30.762,-15.137,0.000
1680451585.553,-28.320,-19.531,-46.387,-25.391,0.000
1680451585.557,-36.621,-27.344,-40.527,-33.691,0.000
1680451585.561,-39.062,-30.273,-30.762,-41.016,0.000
1680451585.565,-33.691,-26.367,-27.832,-33.691,0.000
1680451585.568,-42.480,-31.738,-36.621,-43.457,0.000
1680451585.572,-56.641,-40.527,-2.441,-53.711,0.000
1680451585.576,-46.387,-41.504,26.367,-41.992,0.000
1680451585.580,-25.879,-33.203,-17.578,-26.855,0.000
1680451585.584,-31.250,-25.391,-31.738,-32.227,0.000
1680451585.588,-54.688,-26.367,-34.180,-67.383,0.000
1680451585.592,-72.754,-35.156,-36.133,-86.914,0.000
1680451585.596,-65.918,-36.621,-33.691,-66.406,0.000
1680451585.600,-38.086,-33.203,-34.668,-48.828,0.000
1680451585.604,-31.738,-33.203,-36.133,-53.711,0.000
1680451585.607,-45.410,-33.691,-36.133,-67.871,0.000
1680451585.611,-62.500,-31.738,-41.504,-66.895,0.000
1680451585.615,-55.664,-32.715,-39.062,-49.316,0.000
1680451585.619,-32.227,-35.156,-16.113,-44.922,0.000
1680451585.623,-27.832,-36.621,-21.484,-35.156,0.000
1680451585.627,-38.574,-35.645,-37.109,-32.715,0.000
1680451585.631,-38.574,-34.180,-35.645,-30.762,0.000
1680451585.635,-30.273,-29.297,-43.457,-13.184,0.000
1680451585.639,-11.719,-20.020,-48.340,-0.977,0.000
1680451585.643,-20.508,-28.809,-45.410,-10.742,0.000
1680451585.647,-40.527,-37.109,-41.992,-30.273,0.000
1680451585.650,-54.199,-36.621,-38.086,-35.645,0.000
1680451585.654,-49.316,-38.086,-40.039,-26.367,0.000
1680451585.658,-22.949,-35.156,-39.062,-12.207,0.000
1680451585.662,-14.648,-35.645,-32.715,-10.254,0.000
1680451585.666,-41.504,-43.945,-32.227,-38.086,0.000
1680451585.670,-57.129,-44.922,-36.133,-61.035,0.000
1680451585.674,-48.340,-42.969,-31.738,-56.152,0.000
1680451585.678,-36.621,-41.016,-34.668,-42.480,0.000
1680451585.682,-30.273,-34.668,-43.945,-42.969,0.000
1680451585.686,-34.668,-29.785,-38.086,-51.270,0.000
1680451585.690,-48.828,-34.180,-27.832,-49.316,0.000
1680451585.693,-56.641,-38.086,-29.297,-44.434,0.000
1680451585.697,-41.504,-31.250,-36.133,-31.738,0.000
1680451585.701,-28.809,-28.320,-39.551,-33.691,0.000
1680451585.705,-45.898,-25.391,-37.598,-58.105,0.000
1680451585.709,-68.359,-26.855,-21.484,-67.383,0.000
1680451585.713,-51.758,-33.691,-22.461,-55.664,0.000
1680451585.717,-30.273,-32.227,-32.227,-32.715,0.000
1680451585.721,-20.508,-24.414,-23.438,-21.973,0.000
1680451585.725,-32.227,-23.438,-19.531,-31.250,0.000
1680451585.729,-52.246,-30.273,-22.949,-38.086,0.000
1680451585.732,-39.551,-32.715,-24.902,-29.297,0.000
1680451585.736,-27.832,-26.855,-20.508,-13.672,0.000
1680451585.740,-28.320,-22.949,-20.508,-20.020,0.000
1680451585.744,-27.832,-33.691,-25.879,-30.273,0.000
1680451585.748,-42.480,-40.039,-37.109,-41.992,0.000
1680451585.752,-42.480,-32.227,-8.301,-51.270,0.000
1680451585.756,-34.668,-29.785,0.488,-53.223,0.000
1680451585.760,-46.875,-33.203,-34.668,-55.664,0.000
1680451585.764,-48.340,-38.574,-40.527,-59.082,0.000
1680451585.768,-52.246,-41.504,-35.645,-64.453,0.000
1680451585.772,-34.668,-32.715,-29.785,-50.293,0.000
1680451585.775,-19.043,-25.879,-41.992,-38.574,0.000
1680451585.779,-34.180,-27.832,-41.016,-52.734,0.000
1680451585.783,-57.617,-35.156,-34.180,-61.035,0.000
1680451585.787,-51.758,-39.062,-31.738,-48.828,0.000
1680451585.791,-40.039,-39.062,-35.156,-45.898,0.000
1680451585.795,-44.922,-40.527,-35.645,-49.316,0.000
1680451585.799,-38.086,-35.645,-23.438,-35.645,0.000
1680451585.803,-26.367,-28.809,-25.879,-27.344,0.000
1680451585.807,-30.762,-32.715,-31.250,-38.086,0.000
1680451585.811,-52.246,-41.504,-20.508,-44.922,0.000
1680451585.815,-63.477,-45.898,-1.465,-45.410,0.000
1680451585.818,-38.574,-37.598,-17.090,-28.809,0.000
1680451585.822,-13.184,-35.156,-29.785,-5.371,0.000
1680451585.826,-26.367,-45.410,-28.320,-23.926,0.000
1680451585.830,-46.387,-45.410,-29.785,-44.434,0.000
1680451585.834,-41.504,-43.457,-33.691,-45.410,0.000
1680451585.838,-34.180,-40.527,-30.762,-36.133,0.000
1680451585.842,-49.805,-41.504,-30.273,-43.457,0.000
1680451585.846,-63.965,-39.551,-33.691,-59.082,0.000
1680451585.850,-53.223,-38.086,-33.691,-54.199,0.000
1680451585.854,-46.875,-37.598,-41.016,-49.805,0.000
1680451585.857,-59.570,-39.551,-21.484,-53.223,0.000
1680451585.861,-74.219,-39.551,-10.742,-55.176,0.000
1680451585.865,-64.453,-38.086,-37.109,-51.758,0.000
1680451585.869,-59.570,-41.992,-31.738,-47.852,0.000
1680451585.873,-69.824,-42.969,-24.902,-50.781,0.000
1680451585.877,-57.617,-39.551,-29.297,-41.992,0.000
1680451585.881,-39.551,-39.551,-33.203,-36.621,0.000
1680451585.885,-55.176,-40.039,-38.574,-53.711,0.000
1680451585.889,-56.641,-41.504,-36.133,-58.105,0.000
1680451585.893,-34.180,-41.016,-29.297,-35.156,0.000
1680451585.897,-33.203,-36.621,-32.227,-15.137,0.000
1680451585.900,-37.598,-33.691,-34.668,-18.555,0.000
1680451585.904,-35.156,-34.180,-24.902,-35.645,0.000
1680451585.908,-48.340,-34.668,-25.879,-42.480,0.000
1680451585.912,-59.082,-36.133,-32.227,-33.203,0.000
1680451585.916,-41.992,-39.551,-31.738,-17.578,0.000
1680451585.920,-33.691,-31.250,-34.180,-14.160,0.000
1680451585.924,-40.527,-22.949,-35.645,-35.645,0.000
1680451585.928,-56.641,-29.785,-33.691,-55.664,0.000
1680451585.932,-65.430,-31.250,-28.320,-49.316,0.000
1680451585.936,-59.570,-28.320,-26.855,-38.574,0.000
1680451585.939,-45.898,-24.414,-25.391,-32.227,0.000
1680451585.943,-39.062,-19.043,-33.691,-33.203,0.000
1680451585.947,-57.129,-26.855,-15.625,-48.828,0.000
1680451585.951,-66.406,-32.715,0.488,-53.711,0.000
1680451585.955,-47.852,-28.320,-24.414,-40.527,0.000
1680451585.959,-35.156,-25.879,-30.762,-36.133,0.000
1680451585.963,-44.434,-24.902,-32.227,-44.922,0.000
1680451585.967,-56.641,-26.367,-34.180,-57.617,0.000
1680451585.971,-51.270,-29.297,-33.203,-46.387,0.000
1680451585.975,-33.691,-31.250,-28.809,-17.578,0.000
1680451585.979,-18.066,-26.367,-29.785,-13.672,0.000
1680451585.982,-18.066,-21.484,-37.598,-34.180,0.000
1680451585.986,-27.832,-20.508,-43.457,-46.387,0.000
1680451585.990,-36.133,-19.043,-38.574,-35.156,0.000
1680451585.994,-48.828,-22.461,-1.465,-32.227,0.000
1680451585.998,-43.945,-21.484,-0.977,-28.320,0.000
1680451586.002,-16.602,-18.066,-28.809,-15.625,0.000
1680451586.006,-1.465,-12.207,-31.738,-19.043,0.000
1680451586.010,-29.297,-12.695,-31.738,-35.645,0.000
1680451586.014,-62.500,-22.949,-37.109,-47.852,0.000
1680451586.018,-51.758,-18.555,-31.250,-40.527,0.000
1680451586.022,-30.762,-17.090,-24.414,-33.203,0.000
1680451586.025,-23.438,-19.531,-26.367,-27.344,0.000
1680451586.029,-40.527,-15.625,-32.227,-35.156,0.000
1680451586.033,-60.547,-14.160,-42.480,-48.828,0.000
1680451586.037,-50.293,-19.043,-19.531,-50.293,0.000
1680451586.041,-40.527,-25.391,-6.836,-41.016,0.000
1680451586.045,-49.805,-25.391,-35.645,-46.387,0.000
1680451586.049,-49.316,-23.438,-41.016,-54.199,0.000
1680451586.053,-44.434,-26.855,-36.133,-47.363,0.000
1680451586.057,-51.758,-32.715,-30.273,-48.828,0.000
1680451586.061,-63.965,-26.855,-28.320,-59.082,0.000
1680451586.064,-48.340,-21.973,-31.738,-51.758,0.000
1680451586.068,-35.156,-27.832,-31.738,-38.574,0.000
1680451586.072,-57.129,-33.203,-26.855,-47.852,0.000
1680451586.076,-48.828,-28.809,-24.414,-44.922,0.000
1680451586.080,-25.391,-22.461,-24.414,-19.043,0.000
1680451586.084,-26.855,-29.297,-16.113,-15.137,0.000
1680451586.088,-45.410,-29.785,-25.879,-37.598,0.000
1680451586.092,-51.758,-25.879,-46.387,-42.480,0.000
1680451586.096,-33.203,-28.320,-40.527,-22.461,0.000
1680451586.100,-18.066,-21.973,-31.738,-7.812,0.000
1680451586.104,-26.855,-26.855,-32.715,-20.508,0.000
1680451586.107,-54.688,-38.086,-37.109,-48.828,0.000
1680451586.111,-54.688,-36.621,-37.109,-50.293,0.000
1680451586.115,-40.527,-36.133,-33.203,-31.738,0.000
1680451586.119,-32.715,-33.203,-32.715,-30.762,0.000
1680451586.123,-20.996,-30.762,-34.668,-37.109,0.000
1680451586.127,-17.090,-31.250,-23.926,-33.691,0.000
1680451586.131,-24.414,-31.738,-11.230,-36.133,0.000
1680451586.135,-25.879,-30.273,-17.578,-28.809,0.000
1680451586.139,-23.438,-32.227,-14.648,-20.020,0.000
1680451586.143,-26.855,-28.809,-11.230,-30.762,0.000
1680451586.147,-39.062,-31.250,-13.184,-37.109,0.000
1680451586.150,-52.246,-41.016,-13.672,-39.062,0.000
1680451586.154,-54.199,-42.969,-12.695,-35.645,0.000
1680451586.158,-44.434,-40.527,-12.695,-23.438,0.000
1680451586.162,-37.598,-40.527,-14.160,-21.484,0.000
1680451586.166,-20.996,-41.016,-9.277,-24.902,0.000
1680451586.170,-29.297,-44.434,-9.766,-20.020,0.000
1680451586.174,-40.527,-38.086,-15.625,-22.949,0.000
1680451586.178,-38.574,-39.062,-13.672,-28.809,0.000
1680451586.182,-56.641,-43.457,-12.207,-27.832,0.000
1680451586.186,-56.641,-45.410,-16.113,-26.855,0.000
1680451586.189,-45.898,-51.270,-29.785,-36.621,0.000
1680451586.193,-41.504,-45.898,-28.809,-41.016,0.000
1680451586.197,-42.480,-43.457,-18.066,-46.387,0.000
1680451586.201,-50.781,-42.480,-18.066,-57.129,0.000
1680451586.205,-44.922,-39.551,-21.973,-54.199,0.000
1680451586.209,-47.363,-41.992,-19.531,-45.898,0.000
1680451586.213,-53.223,-41.992,-12.695,-39.062,0.000
1680451586.217,-49.805,-43.457,-13.672,-38.574,0.000
1680451586.221,-30.273,-30.762,-15.625,-24.902,0.000
1680451586.225,-26.855,-28.320,-21.973,-30.762,0.000
1680451586.229,-61.035,-45.898,-23.438,-59.570,0.000
1680451586.232,-73.242,-50.781,-27.344,-58.594,0.000
1680451586.236,-52.734,-40.527,-30.762,-42.969,0.000
1680451586.240,-24.414,-31.738,-18.555,-29.297,0.000
1680451586.244,-30.762,-37.598,-15.625,-20.020,0.000
1680451586.248,-46.875,-43.945,-20.020,-38.574,0.000
1680451586.252,-45.898,-42.969,-16.113,-44.434,0.000
1680451586.256,-56.152,-45.898,-17.578,-42.969,0.000
1680451586.260,-48.828,-45.898,-20.996,-42.480,0.000
1680451586.264,-28.320,-41.992,-19.043,-30.273,0.000
1680451586.268,-30.762,-42.480,-20.996,-32.715,0.000
1680451586.272,-39.551,-40.039,-23.438,-39.062,0.000
1680451586.275,-42.969,-42.969,-26.367,-35.645,0.000
1680451586.279,-29.297,-48.340,-31.250,-31.738,0.000
1680451586.283,-15.137,-47.852,-26.367,-22.461,0.000
1680451586.287,-30.273,-44.922,-25.879,-30.762,0.000
1680451586.291,-50.293,-47.852,-30.273,-48.340,0.000
1680451586.295,-42.969,-42.969,-28.320,-38.086,0.000
1680451586.299,-21.484,-27.344,-31.250,-28.320,0.000
1680451586.303,-29.297,-25.879,-30.762,-35.645,0.000
1680451586.307,-53.223,-35.156,-31.738,-57.129,0.000
1680451586.311,-57.129,-37.598,-32.715,-65.918,0.000
1680451586.314,-49.805,-30.273,-32.227,-49.316,0.000
1680451586.318,-36.133,-29.297,-30.762,-31.250,0.000
1680451586.322,-44.434,-38.086,-29.297,-40.039,0.000
1680451586.326,-53.223,-40.527,-27.832,-52.246,0.000
1680451586.330,-46.875,-33.691,-26.367,-43.457,0.000
1680451586.334,-43.457,-30.273,-28.809,-34.668,0.000
1680451586.338,-38.574,-37.598,-32.715,-27.344,0.000
1680451586.342,-37.598,-31.738,-33.203,-30.762,0.000
1680451586.346,-40.527,-33.691,-34.180,-35.156,0.000
1680451586.350,-36.133,-42.480,-36.133,-31.738,0.000
1680451586.354,-32.227,-37.109,-39.062,-23.926,0.000
1680451586.357,-23.926,-34.180,-37.109,-21.973,0.000
1680451586.361,-28.809,-28.809,-29.297,-34.180,0.000
1680451586.365,-41.016,-35.156,-25.879,-47.363,0.000
1680451586.369,-53.711,-43.457,-33.691,-49.805,0.000
1680451586.373,-40.527,-44.434,-41.016,-41.504,0.000
1680451586.377,-22.461,-45.898,-32.715,-32.715,0.000
1680451586.381,-35.645,-44.434,-28.320,-30.762,0.000
1680451586.385,-49.316,-33.691,-36.133,-37.598,0.000
1680451586.389,-57.129,-30.273,-39.551,-50.293,0.000
1680451586.393,-64.941,-38.086,-34.668,-49.805,0.000
1680451586.397,-54.199,-34.180,-35.645,-38.086,0.000
1680451586.400,-41.016,-26.367,-39.062,-35.156,0.000
1680451586.404,-46.387,-26.367,-36.621,-45.898,0.000
1680451586.408,-57.617,-24.902,-29.297,-54.688,0.000
1680451586.412,-70.312,-32.227,-43.457,-45.898,0.000
1680451586.416,-48.340,-34.668,-53.711,-32.227,0.000
1680451586.420,-27.344,-29.785,-35.156,-21.484,0.000
1680451586.424,-45.410,-32.227,-31.250,-28.809,0.000
1680451586.428,-57.617,-36.621,-30.273,-38.574,0.000
1680451586.432,-56.152,-39.062,-29.297,-38.574,0.000
1680451586.436,-41.992,-32.227,-28.320,-25.879,0.000
1680451586.439,-24.414,-24.414,-24.902,-1.953,0.000
1680451586.443,-15.625,-30.762,-25.391,-3.906,0.000
1680451586.447,-24.414,-41.016,-25.879,-18.555,0.000
1680451586.451,-42.480,-41.016,-26.855,-26.855,0.000
1680451586.455,-42.969,-25.879,-29.785,-26.367,0.000
1680451586.459,-14.160,-20.020,-31.738,-25.391,0.000
1680451586.463,-22.949,-24.902,-31.738,-32.715,0.000
1680451586.467,-52.734,-24.902,-28.809,-48.340,0.000
1680451586.471,-60.059,-29.785,-27.832,-50.781,0.000
1680451586.475,-45.410,-31.738,-24.902,-41.504,0.000
1680451586.479,-26.855,-23.926,-29.785,-39.062,0.000
1680451586.482,-29.785,-16.602,-41.992,-42.969,0.000
1680451586.486,-46.387,-22.949,-40.527,-56.641,0.000
1680451586.490,-76.660,-35.156,-30.273,-71.289,0.000
1680451586.494,-76.660,-33.203,-25.391,-64.453,0.000
1680451586.498,-46.387,-29.785,-28.809,-45.410,0.000
1680451586.502,-38.086,-32.227,-18.066,-36.133,0.000
1680451586.506,-51.270,-27.344,-17.090,-33.691,0.000
1680451586.510,-58.105,-24.902,-30.273,-37.598,0.000
1680451586.514,-55.176,-32.715,-31.738,-46.387,0.000
1680451586.518,-62.500,-33.691,-30.762,-49.805,0.000
1680451586.521,-51.758,-38.086,-29.785,-37.109,0.000
1680451586.525,-28.809,-35.645,-34.180,-20.996,0.000
1680451586.529,-29.297,-28.320,-33.203,-27.344,0.000
1680451586.533,-40.527,-23.438,-34.180,-39.551,0.000
1680451586.537,-38.086,-26.367,-37.598,-28.320,0.000
1680451586.541,-27.832,-32.227,-37.109,-25.391,0.000
1680451586.545,-45.410,-40.527,-38.574,-40.039,0.000
1680451586.549,-47.363,-39.551,-43.945,-44.922,0.000
1680451586.553,-29.297,-26.855,-46.875,-39.062,0.000
1680451586.557,-16.602,-25.391,-40.527,-48.828,0.000
1680451586.561,-19.043,-27.832,-33.691,-48.828,0.000
1680451586.564,-37.109,-23.926,-32.227,-37.598,0.000
1680451586.568,-46.387,-28.320,-37.109,-44.922,0.000
1680451586.572,-61.035,-37.109,-39.062,-49.805,0.000
1680451586.576,-67.871,-35.645,-36.621,-48.340,0.000
1680451586.580,-49.316,-31.250,-28.320,-40.039,0.000
1680451586.584,-41.992,-33.691,-23.926,-38.086,0.000
1680451586.588,-47.852,-32.715,-26.855,-45.898,0.000
1680451586.592,-46.387,-28.320,-25.391,-45.898,0.000
1680451586.596,-48.828,-20.020,-26.367,-41.504,0.000
1680451586.600,-24.414,-20.020,-29.785,-31.738,0.000
1680451586.604,-18.066,-27.832,-26.855,-28.809,0.000
1680451586.607,-32.227,-29.297,-26.367,-35.156,0.000
1680451586.611,-29.785,-24.902,-22.949,-25.391,0.000
1680451586.615,-24.902,-21.484,-21.973,-18.066,0.000
1680451586.619,-18.555,-26.367,-27.344,-11.230,0.000
1680451586.623,-15.625,-27.344,-29.785,-8.301,0.000
1680451586.627,-17.578,-33.691,-25.391,-15.137,0.000
1680451586.631,-21.973,-41.992,-26.367,-16.113,0.000
1680451586.635,-10.742,-32.227,-32.715,-6.836,0.000
1680451586.639,-2.441,-25.879,-32.715,-7.812,0.000
1680451586.643,-19.531,-22.949,-32.715,-18.555,0.000
1680451586.646,-30.762,-23.926,-37.109,-37.598,0.000
1680451586.650,-31.738,-33.203,-44.434,-54.199,0.000
1680451586.654,-21.973,-32.227,-54.199,-36.621,0.000
1680451586.658,-9.766,-32.227,-47.852,-34.668,0.000
1680451586.662,-25.391,-35.156,-37.598,-60.547,0.000
1680451586.666,-38.086,-34.668,-39.551,-68.359,0.000
1680451586.670,-34.668,-33.691,-41.016,-53.711,0.000
1680451586.674,-19.043,-27.832,-34.180,-22.949,0.000
1680451586.678,-19.043,-20.996,-32.227,-19.531,0.000
1680451586.682,-41.992,-28.809,-34.180,-43.457,0.000
1680451586.686,-57.129,-35.645,-27.344,-49.316,0.000
1680451586.689,-42.480,-33.203,-22.461,-31.250,0.000
1680451586.693,-32.715,-33.203,-28.809,-30.273,0.000
1680451586.697,-25.879,-32.227,-33.203,-25.879,0.000
1680451586.701,-23.926,-32.227,-35.645,-13.672,0.000
1680451586.705,-34.180,-35.156,-31.250,-24.902,0.000
1680451586.709,-29.785,-42.480,-17.578,-22.461,0.000
1680451586.713,-28.320,-37.109,-22.949,-16.602,0.000
1680451586.717,-20.996,-21.973,-39.062,-11.719,0.000
1680451586.721,-9.766,-15.137,-41.504,-9.277,0.000
1680451586.725,-34.180,-23.438,-36.621,-46.875,0.000
1680451586.729,-55.176,-33.203,-30.273,-57.617,0.000
1680451586.732,-29.785,-36.133,-29.785,-27.344,0.000
1680451586.736,-16.113,-22.461,-30.273,-17.578,0.000
1680451586.740,-40.527,-17.578,-26.367,-33.203,0.000
1680451586.744,-37.109,-33.203,-20.996,-41.504,0.000
1680451586.748,-24.902,-38.574,-23.926,-33.691,0.000
1680451586.752,-20.020,-34.180,-30.273,-25.879,0.000
1680451586.756,-17.578,-27.344,-35.156,-32.227,0.000
1680451586.760,-28.809,-24.902,-37.109,-38.574,0.000
1680451586.764,-23.438,-22.461,-36.621,-38.086,0.000
1680451586.768,-30.762,-22.949,-35.645,-36.133,0.000
1680451586.771,-39.062,-30.273,-32.715,-32.715,0.000
1680451586.775,-35.645,-32.715,-33.203,-33.691,0.000
1680451586.779,-35.645,-35.156,-34.180,-28.320,0.000
1680451586.783,-29.785,-33.203,-30.762,-24.902,0.000
1680451586.787,-30.273,-31.738,-26.367,-32.715,0.000
1680451586.791,-31.738,-37.109,-26.855,-31.738,0.000
1680451586.795,-30.762,-36.133,-27.344,-33.691,0.000
1680451586.799,-20.508,-35.645,-24.902,-28.809,0.000
1680451586.803,-1.953,-32.715,-24.414,-19.043,0.000
1680451586.807,-10.742,-37.598,-23.926,-21.484,0.000
1680451586.811,-24.902,-39.062,-21.973,-28.320,0.000
1680451586.814,-19.043,-36.133,-20.020,-15.137,0.000
1680451586.818,-20.020,-32.227,-30.762,-16.602,0.000
1680451586.822,-13.184,-23.926,-40.039,-29.785,0.000
1680451586.826,-11.230,-29.297,-34.668,-36.133,0.000
1680451586.830,-47.852,-31.738,-31.250,-52.734,0.000
1680451586.834,-58.105,-33.691,-29.785,-54.688,0.000
1680451586.838,-33.691,-34.668,-27.344,-32.715,0.000
1680451586.842,-10.742,-29.297,-26.855,-22.949,0.000
1680451586.846,-15.137,-29.297,-36.621,-26.855,0.000
1680451586.850,-33.203,-29.785,-38.574,-32.227,0.000
1680451586.853,-45.410,-31.738,-26.855,-42.969,0.000
1680451586.857,-53.711,-32.227,-28.320,-50.293,0.000
1680451586.861,-34.180,-25.879,-31.738,-37.598,0.000
1680451586.865,-17.578,-28.320,-28.320,-29.785,0.000
1680451586.869,-42.969,-32.227,-27.832,-43.945,0.000
1680451586.873,-50.781,-31.738,-28.320,-41.504,0.000
1680451586.877,-31.738,-31.738,-31.250,-18.555,0.000
1680451586.881,-20.020,-35.645,-34.180,-13.672,0.000
1680451586.885,-23.438,-37.598,-32.715,-22.949,0.000
1680451586.889,-38.086,-33.691,-33.691,-28.809,0.000
1680451586.893,-39.062,-33.203,-33.691,-23.926,0.000
1680451586.896,-41.992,-33.691,-32.227,-27.832,0.000
1680451586.900,-45.898,-37.109,-27.832,-41.504,0.000
1680451586.904,-30.273,-39.551,-26.367,-31.250,0.000
1680451586.908,-22.949,-33.691,-28.320,-21.484,0.000
1680451586.912,-50.293,-31.738,-32.715,-36.133,0.000
1680451586.916,-68.359,-29.297,-36.133,-44.434,0.000
1680451586.920,-55.176,-28.809,-30.273,-47.363,0.000
1680451586.924,-43.457,-20.996,-33.203,-49.316,0.000
1680451586.928,-33.691,-17.090,-41.992,-47.852,0.000
1680451586.932,-43.457,-30.273,-38.086,-62.500,0.000
1680451586.936,-74.707,-34.668,-27.344,-79.102,0.000
1680451586.939,-68.848,-28.809,-15.137,-71.777,0.000
1680451586.943,-53.711,-29.785,-19.043,-62.988,0.000
1680451586.947,-55.664,-33.691,-24.414,-55.664,0.000
1680451586.951,-41.504,-32.227,-21.973,-39.062,0.000
1680451586.955,-33.691,-27.344,-18.555,-29.297,0.000
1680451586.959,-41.504,-30.762,-20.508,-38.086,0.000
1680451586.963,-32.227,-31.738,-24.902,-41.504,0.000
1680451586.967,-16.113,-29.297,-22.949,-29.785,0.000
1680451586.971,-23.438,-21.484,-22.461,-28.809,0.000
1680451586.975,-50.293,-22.461,-24.902,-34.180,0.000
1680451586.978,-37.109,-25.391,-31.250,-24.414,0.000
1680451586.982,-27.344,-24.414,-28.320,-23.926,0.000
1680451586.986,-41.992,-23.438,-20.508,-37.598,0.000
1680451586.990,-50.781,-20.996,-20.996,-39.062,0.000
1680451586.994,-51.758,-24.902,-21.484,-36.133,0.000
1680451586.998,-39.062,-19.531,-25.879,-30.762,0.000
1680451587.002,-32.227,-16.602,-26.855,-26.855,0.000
1680451587.006,-40.527,-29.297,-31.250,-49.316,0.000
1680451587.010,-57.617,-36.133,-34.180,-65.918,0.000
1680451587.014,-54.199,-34.180,-29.785,-41.504,0.000
1680451587.018,-29.297,-30.762,-30.273,-27.344,0.000
1680451587.021,-36.621,-26.367,-32.227,-49.805,0.000
1680451587.025,-69.824,-32.227,-30.762,-61.523,0.000
1680451587.029,-73.242,-36.621,-38.574,-62.012,0.000
1680451587.033,-49.805,-32.227,-34.668,-53.711,0.000
1680451587.037,-38.086,-31.738,-25.879,-39.062,0.000
1680451587.041,-33.203,-32.715,-26.367,-28.320,0.000
1680451587.045,-41.016,-32.715,-23.438,-33.203,0.000
1680451587.049,-56.641,-36.621,-27.832,-51.758,0.000
1680451587.053,-52.734,-38.086,-32.227,-50.781,0.000
1680451587.057,-37.598,-32.715,-32.715,-35.645,0.000
1680451587.061,-21.484,-32.227,-26.855,-17.578,0.000
1680451587.064,-20.020,-30.762,-19.043,-19.531,0.000
1680451587.068,-36.621,-31.738,-24.902,-35.645,0.000
1680451587.072,-48.340,-36.133,-26.367,-36.621,0.000
1680451587.076,-34.668,-32.715,-21.484,-27.344,0.000
1680451587.080,-31.738,-32.227,-23.438,-31.738,0.000
1680451587.084,-30.762,-31.738,-19.531,-35.156,0.000
1680451587.088,-33.691,-35.645,-25.879,-31.250,0.000
1680451587.092,-52.734,-39.551,-28.809,-36.133,0.000
1680451587.096,-51.758,-30.273,-23.926,-33.203,0.000
1680451587.100,-36.133,-31.250,-25.879,-25.879,0.000
1680451587.103,-45.898,-42.480,-26.367,-37.598,0.000
1680451587.107,-70.801,-40.039,-27.344,-61.523,0.000
1680451587.111,-63.477,-33.691,-19.043,-60.059,0.000
1680451587.115,-42.480,-33.691,-16.113,-40.039,0.000
1680451587.119,-41.504,-39.551,-30.273,-42.480,0.000
1680451587.123,-38.574,-44.434,-27.832,-44.922,0.000
1680451587.127,-43.457,-41.504,-16.602,-40.039,0.000
1680451587.131,-63.477,-41.504,-21.484,-52.734,0.000
1680451587.135,-45.410,-41.992,-24.414,-49.316,0.000
1680451587.139,-24.902,-41.504,-23.438,-31.738,0.000
1680451587.143,-32.715,-37.598,-19.531,-25.391,0.000
1680451587.146,-34.668,-38.574,-21.484,-27.344,0.000
1680451587.150,-51.758,-41.016,-20.996,-33.203,0.000
1680451587.154,-60.547,-35.645,-14.648,-24.414,0.000
1680451587.158,-44.922,-33.691,-19.043,-14.160,0.000
1680451587.162,-39.551,-41.016,-20.996,-16.113,0.000
1680451587.166,-34.180,-41.504,-22.949,-14.648,0.000
1680451587.170,-34.180,-31.738,-29.297,-18.555,0.000
1680451587.174,-43.945,-33.691,-22.461,-21.484,0.000
1680451587.178,-44.434,-37.109,-22.461,-28.320,0.000
1680451587.182,-45.410,-34.668,-29.785,-42.480,0.000
1680451587.186,-38.086,-37.109,-23.926,-38.086,0.000
1680451587.189,-21.484,-33.203,-26.367,-28.320,0.000
1680451587.193,-15.137,-25.879,-38.086,-31.738,0.000
1680451587.197,-11.230,-22.461,-33.203,-31.250,0.000
1680451587.201,-26.367,-26.855,-29.785,-40.039,0.000
1680451587.205,-45.898,-32.227,-30.762,-63.477,0.000
1680451587.209,-48.340,-34.668,-22.461,-59.082,0.000
1680451587.213,-37.598,-39.551,-20.996,-44.434,0.000
1680451587.217,-32.227,-42.480,-30.273,-29.297,0.000
1680451587.221,-38.086,-41.016,-31.738,-17.090,0.000
1680451587.225,-47.363,-36.133,-27.832,-31.738,0.000
1680451587.228,-53.711,-41.504,-23.438,-41.016,0.000
1680451587.232,-43.945,-46.875,-20.020,-31.250,0.000
1680451587.236,-32.227,-43.945,-24.902,-21.973,0.000
1680451587.240,-33.691,-45.898,-33.691,-12.207,0.000
1680451587.244,-24.902,-40.039,-38.086,-11.719,0.000
1680451587.248,-34.180,-35.156,-37.598,-22.949,0.000
1680451587.252,-55.176,-34.668,-32.227,-33.203,0.000
1680451587.256,-41.504,-36.621,-32.227,-35.156,0.000
1680451587.260,-20.996,-37.109,-40.039,-32.227,0.000
1680451587.264,-28.809,-36.621,-42.969,-34.180,0.000
1680451587.268,-36.621,-37.598,-39.551,-41.504,0.000
1680451587.271,-39.062,-38.086,-33.691,-38.574,0.000
1680451587.275,-35.645,-40.039,-36.133,-31.738,0.000
1680451587.279,-30.762,-36.133,-33.691,-29.297,0.000
1680451587.283,-37.598,-32.715,-28.809,-35.645,0.000
1680451587.287,-33.691,-38.574,-32.227,-36.621,0.000
1680451587.291,-30.762,-41.992,-29.297,-31.738,0.000
1680451587.295,-26.367,-34.180,-28.320,-36.133,0.000
1680451587.299,-23.926,-28.809,-26.855,-31.738,0.000
1680451587.303,-41.992,-38.086,-26.855,-38.086,0.000
1680451587.307,-41.504,-42.480,-31.738,-43.457,0.000
1680451587.311,-23.438,-36.133,-35.156,-33.203,0.000
1680451587.314,-20.020,-35.156,-40.527,-31.250,0.000
1680451587.318,-34.668,-39.551,-35.645,-41.992,0.000
1680451587.322,-37.109,-39.062,-33.691,-50.293,0.000
1680451587.326,-27.832,-39.062,-38.086,-45.898,0.000
1680451587.330,-21.973,-42.969,-34.668,-29.297,0.000
1680451587.334,-32.715,-41.504,-34.668,-27.344,0.000
1680451587.338,-37.109,-37.598,-35.645,-32.715,0.000
1680451587.342,-19.043,-32.227,-35.156,-30.273,0.000
1680451587.346,-25.879,-31.250,-30.762,-33.691,0.000
1680451587.350,-50.293,-33.691,-29.785,-44.922,0.000
1680451587.353,-35.645,-32.715,-28.320,-34.668,0.000
1680451587.357,-20.020,-34.668,-41.016,-27.344,0.000
1680451587.361,-29.785,-39.062,-48.828,-22.949,0.000
1680451587.365,-28.320,-37.109,-28.320,-15.137,0.000
1680451587.369,-22.461,-30.273,-28.809,-20.996,0.000
1680451587.373,-37.109,-25.391,-30.762,-40.039,0.000
1680451587.377,-46.387,-28.320,-30.762,-49.805,0.000
1680451587.381,-47.363,-33.691,-32.715,-47.363,0.000
1680451587.385,-49.316,-39.551,-38.574,-55.664,0.000
1680451587.389,-41.504,-37.598,-38.086,-58.594,0.000
1680451587.393,-48.828,-37.109,-32.227,-59.082,0.000
1680451587.396,-49.805,-39.551,-33.203,-54.199,0.000
1680451587.400,-32.715,-38.086,-37.109,-44.434,0.000
1680451587.404,-24.414,-40.039,-52.734,-42.969,0.000
1680451587.408,-36.621,-40.039,-48.340,-62.988,0.000
1680451587.412,-59.570,-41.016,-37.598,-66.406,0.000
1680451587.416,-51.270,-45.898,-40.527,-43.945,0.000
1680451587.420,-33.691,-42.969,-38.574,-35.645,0.000
1680451587.424,-30.762,-32.715,-37.109,-33.691,0.000
1680451587.428,-41.504,-28.809,-36.133,-36.621,0.000
1680451587.432,-40.527,-30.762,-37.109,-34.180,0.000
1680451587.435,-30.762,-29.297,-37.598,-28.320,0.000
1680451587.439,-27.344,-24.902,-29.297,-32.715,0.000
1680451587.443,-20.996,-24.902,-19.043,-32.227,0.000
1680451587.447,-28.809,-31.250,-31.738,-36.133,0.000
1680451587.451,-36.621,-35.645,-37.598,-32.715,0.000
1680451587.455,-34.180,-38.574,-24.414,-25.391,0.000
1680451587.459,-41.016,-42.480,-25.879,-34.180,0.000
1680451587.463,-52.246,-40.527,-25.879,-46.387,0.000
1680451587.467,-69.824,-36.621,-22.461,-59.082,0.000
1680451587.471,-78.613,-45.898,-29.297,-67.383,0.000
1680451587.475,-35.645,-46.875,-31.738,-33.203,0.000
1680451587.478,-21.484,-34.180,-23.926,-16.602,0.000
1680451587.482,-57.617,-39.551,-24.414,-58.105,0.000
1680451587.486,-64.453,-51.270,-20.508,-69.824,0.000
1680451587.490,-68.848,-50.781,-23.926,-62.500,0.000
1680451587.494,-72.266,-44.922,-20.020,-56.152,0.000
1680451587.498,-63.477,-39.551,-14.648,-42.480,0.000
1680451587.502,-54.688,-39.551,-21.973,-39.551,0.000
1680451587.506,-44.922,-39.062,-18.555,-42.480,0.000
1680451587.510,-42.480,-42.480,-18.066,-43.457,0.000
1680451587.514,-46.387,-45.410,-24.902,-42.480,0.000
1680451587.518,-41.504,-42.480,-25.391,-39.551,0.000
1680451587.521,-44.922,-41.992,-20.020,-39.551,0.000
1680451587.525,-49.316,-45.410,-20.020,-41.504,0.000
1680451587.529,-50.293,-54.688,-22.461,-37.598,0.000
1680451587.533,-52.246,-47.363,-19.531,-36.133,0.000
1680451587.537,-48.340,-46.387,-29.297,-42.480,0.000
1680451587.541,-39.551,-54.688,-39.551,-41.992,0.000
1680451587.545,-37.109,-52.734,-28.809,-43.457,0.000
1680451587.549,-36.133,-49.805,-26.855,-43.945,0.000
1680451587.553,-52.246,-48.340,-29.297,-48.828,0.000
1680451587.557,-68.359,-48.340,-28.320,-52.246,0.000
1680451587.560,-49.316,-46.387,-20.996,-43.457,0.000
1680451587.564,-43.945,-43.457,-23.438,-41.992,0.000
1680451587.568,-59.082,-43.457,-30.273,-48.828,0.000
1680451587.572,-59.570,-44.434,-21.973,-49.316,0.000
1680451587.576,-57.129,-39.062,-21.973,-44.434,0.000
1680451587.580,-47.852,-31.738,-27.832,-43.457,0.000
1680451587.584,-51.270,-37.598,-24.902,-51.758,0.000
1680451587.588,-66.406,-45.410,-28.320,-55.664,0.000
1680451587.592,-52.246,-47.363,-27.832,-40.527,0.000
1680451587.596,-32.715,-46.875,-26.367,-23.438,0.000
1680451587.600,-30.273,-39.062,-53.711,-15.137,0.000
1680451587.603,-26.367,-28.320,-50.293,-18.555,0.000
1680451587.607,-43.457,-32.227,-28.809,-39.062,0.000
1680451587.611,-59.570,-37.598,-26.367,-47.852,0.000
1680451587.615,-50.293,-29.785,-29.297,-40.039,0.000
1680451587.619,-39.062,-24.414,-29.297,-38.086,0.000
1680451587.623,-46.387,-32.715,-24.902,-46.875,0.000
1680451587.627,-62.500,-39.062,-28.809,-52.734,0.000
1680451587.631,-52.734,-37.598,-30.273,-44.922,0.000
1680451587.635,-38.086,-35.645,-23.438,-34.180,0.000
1680451587.639,-33.203,-31.250,-15.137,-28.809,0.000
1680451587.643,-55.664,-32.227,-32.715,-47.852,0.000
1680451587.646,-75.195,-38.086,-42.480,-65.918,0.000
1680451587.650,-65.918,-38.086,-22.949,-62.012,0.000
1680451587.654,-42.480,-32.227,-19.531,-41.016,0.000
1680451587.658,-46.387,-36.621,-23.926,-44.922,0.000
1680451587.662,-73.730,-45.898,-26.855,-71.777,0.000
1680451587.666,-65.430,-51.270,-23.926,-65.430,0.000
1680451587.670,-51.270,-55.176,-26.367,-47.852,0.000
1680451587.674,-32.227,-44.922,-28.320,-27.344,0.000
1680451587.678,-31.738,-28.320,-31.250,-30.273,0.000
1680451587.682,-67.383,-31.250,-34.180,-59.082,0.000
1680451587.685,-66.895,-39.551,-32.227,-55.176,0.000
1680451587.689,-55.664,-40.039,-47.363,-44.922,0.000
1680451587.693,-63.965,-39.062,-41.504,-46.387,0.000
1680451587.697,-55.176,-32.715,-27.344,-44.434,0.000
1680451587.701,-32.715,-26.367,-26.367,-35.645,0.000
1680451587.705,-37.109,-29.785,-29.785,-36.133,0.000
1680451587.709,-58.105,-38.086,-33.691,-48.828,0.000
1680451587.713,-65.430,-38.574,-29.297,-55.664,0.000
1680451587.717,-43.457,-33.203,-26.367,-41.992,0.000
1680451587.721,-18.555,-22.949,-31.250,-35.645,0.000
1680451587.725,-40.039,-21.484,-35.156,-58.594,0.000
1680451587.728,-52.246,-29.785,-29.297,-67.383,0.000
1680451587.732,-43.457,-33.203,-34.180,-62.988,0.000
1680451587.736,-51.270,-30.273,-43.457,-67.383,0.000
1680451587.740,-53.711,-28.320,-32.715,-63.477,0.000
1680451587.744,-43.945,-28.320,-25.391,-58.105,0.000
1680451587.748,-31.250,-25.391,-29.785,-61.035,0.000
1680451587.752,-44.922,-22.949,-35.156,-56.641,0.000
1680451587.756,-56.641,-23.926,-30.273,-45.410,0.000
1680451587.760,-58.594,-30.762,-31.250,-51.270,0.000
1680451587.764,-62.500,-36.621,-33.691,-56.152,0.000
1680451587.768,-65.918,-35.156,-28.320,-47.363,0.000
1680451587.771,-50.781,-37.109,-23.438,-24.414,0.000
1680451587.775,-36.621,-34.668,-24.414,-12.695,0.000
1680451587.779,-42.480,-30.273,-27.832,-18.555,0.000
1680451587.783,-45.410,-27.832,-33.691,-28.320,0.000
1680451587.787,-58.594,-29.297,-34.180,-51.758,0.000
1680451587.791,-66.406,-37.109,-35.156,-56.641,0.000
1680451587.795,-60.547,-42.480,-39.551,-39.551,0.000
1680451587.799,-42.480,-39.062,-37.598,-24.902,0.000
1680451587.803,-24.902,-27.832,-42.969,-21.973,0.000
1680451587.807,-33.691,-28.320,-41.504,-33.691,0.000
1680451587.810,-67.871,-32.715,-28.320,-47.363,0.000
1680451587.814,-72.266,-32.227,-26.855,-48.828,0.000
1680451587.818,-42.480,-34.668,-30.273,-29.297,0.000
1680451587.822,-26.367,-32.715,-19.531,-29.785,0.000
1680451587.826,-35.645,-26.367,-19.531,-41.992,0.000
1680451587.830,-49.805,-21.484,-32.227,-41.992,0.000
1680451587.834,-54.199,-29.297,-27.832,-43.457,0.000
1680451587.838,-48.340,-34.668,-30.273,-40.527,0.000
1680451587.842,-31.250,-30.273,-31.250,-30.762,0.000
1680451587.846,-24.902,-21.973,-30.762,-19.043,0.000
1680451587.850,-35.156,-25.879,-30.762,-23.438,0.000
1680451587.853,-57.617,-31.250,-30.762,-34.180,0.000
1680451587.857,-47.363,-30.762,-30.762,-22.949,0.000
1680451587.861,-12.695,-28.809,-27.344,-14.648,0.000
1680451587.865,-24.414,-23.926,-34.668,-30.273,0.000
1680451587.869,-38.086,-23.438,-53.711,-45.410,0.000
1680451587.873,-36.133,-28.320,-45.410,-41.016,0.000
1680451587.877,-29.785,-31.738,-30.273,-27.832,0.000
1680451587.881,-18.555,-27.832,-33.691,-23.926,0.000
1680451587.885,-16.113,-24.414,-36.133,-24.414,0.000
1680451587.889,-29.297,-28.320,-33.203,-31.738,0.000
1680451587.892,-38.086,-30.273,-27.832,-38.574,0.000
1680451587.896,-20.020,-32.715,-28.320,-32.715,0.000
1680451587.900,-4.883,-33.203,-29.297,-20.996,0.000
1680451587.904,-19.531,-29.785,-28.320,-21.484,0.000
1680451587.908,-40.527,-27.344,-28.320,-38.574,0.000
1680451587.912,-46.875,-32.715,-20.508,-51.270,0.000
1680451587.916,-36.621,-37.598,-17.578,-33.691,0.000
1680451587.920,-24.902,-33.691,-30.273,-19.531,0.000
1680451587.924,-25.391,-28.320,-37.598,-38.086,0.000
1680451587.928,-41.504,-25.879,-34.668,-50.293,0.000
1680451587.932,-39.551,-26.367,-26.367,-47.363,0.000
1680451587.935,-31.738,-23.438,-25.391,-35.645,0.000
1680451587.939,-28.320,-25.391,-28.809,-22.461,0.000
1680451587.943,-25.879,-30.273,-31.738,-25.879,0.000
1680451587.947,-43.457,-36.621,-32.227,-43.457,0.000
1680451587.951,-45.898,-40.039,-27.832,-47.363,0.000
1680451587.955,-42.969,-37.598,-27.344,-37.109,0.000
1680451587.959,-34.180,-32.715,-31.250,-29.785,0.000
1680451587.963,-23.926,-34.180,-33.691,-31.250,0.000
1680451587.967,-42.969,-34.180,-33.691,-34.180,0.000
1680451587.971,-42.969,-35.156,-29.297,-26.855,0.000
1680451587.975,-14.648,-33.691,-27.344,-9.766,0.000
1680451587.978,-7.812,-22.949,-28.320,-8.789,0.000
1680451587.982,-25.879,-22.949,-25.879,-20.020,0.000
1680451587.986,-45.410,-28.320,-29.785,-35.156,0.000
1680451587.990,-42.480,-34.180,-33.691,-34.180,0.000
1680451587.994,-40.527,-31.738,-37.109,-25.391,0.000
1680451587.998,-40.527,-27.344,-36.133,-27.832,0.000
1680451588.002,-38.086,-28.809,-29.785,-29.297,0.000
1680451588.006,-42.480,-30.273,-29.785,-35.645,0.000
1680451588.010,-45.898,-24.902,-28.809,-34.180,0.000
1680451588.014,-43.945,-23.926,-25.391,-25.879,0.000
1680451588.017,-23.926,-28.809,-22.949,-17.578,0.000
1680451588.021,-32.715,-29.785,-29.297,-25.391,0.000
1680451588.025,-55.664,-32.227,-31.250,-46.875,0.000
1680451588.029,-54.688,-33.691,-30.762,-52.246,0.000
1680451588.033,-41.504,-31.738,-35.156,-42.969,0.000
1680451588.037,-22.461,-23.926,-34.668,-31.250,0.000
1680451588.041,-18.066,-26.367,-27.344,-28.320,0.000
1680451588.045,-24.902,-38.086,-26.367,-28.320,0.000
1680451588.049,-41.504,-39.551,-24.902,-28.320,0.000
1680451588.053,-41.504,-40.039,-24.902,-23.926,0.000
1680451588.057,-30.762,-41.504,-31.250,-20.996,0.000
1680451588.060,-28.320,-39.551,-27.832,-20.996,0.000
1680451588.064,-27.832,-39.062,-27.832,-20.996,0.000
1680451588.068,-24.414,-36.133,-28.320,-17.578,0.000
1680451588.072,-30.762,-35.645,-30.762,-8.789,0.000
1680451588.076,-48.340,-36.133,-37.598,-22.461,0.000
1680451588.080,-46.387,-34.180,-34.668,-31.250,0.000
1680451588.084,-48.340,-36.621,-28.320,-37.598,0.000
1680451588.088,-68.359,-39.551,-26.855,-52.734,0.000
1680451588.092,-65.918,-40.527,-29.297,-46.875,0.000
1680451588.096,-35.645,-33.203,-28.320,-26.367,0.000
1680451588.100,-19.043,-29.297,-36.133,-20.508,0.000
1680451588.103,-25.879,-28.320,-34.180,-36.133,0.000
1680451588.107,-45.410,-31.738,-45.410,-51.270,0.000
1680451588.111,-49.805,-36.621,-54.199,-44.922,0.000
1680451588.115,-32.227,-29.785,-31.738,-25.879,0.000
1680451588.119,-33.691,-26.855,-31.250,-24.414,0.000
1680451588.123,-37.598,-23.926,-35.645,-37.109,0.000
1680451588.127,-47.363,-25.879,-36.133,-40.527,0.000
1680451588.131,-61.035,-32.227,-39.551,-38.574,0.000
1680451588.135,-52.246,-28.320,-41.016,-37.109,0.000
1680451588.139,-40.527,-27.344,-34.180,-24.414,0.000
1680451588.142,-37.598,-27.344,-29.785,-22.461,0.000
1680451588.146,-35.156,-33.691,-27.832,-30.762,0.000
1680451588.150,-37.598,-35.156,-26.855,-26.367,0.000
1680451588.154,-33.691,-34.668,-49.316,-18.066,0.000
1680451588.158,-17.578,-41.504,-51.270,-9.766,0.000
1680451588.162,-8.789,-37.598,-28.809,-14.648,0.000
1680451588.166,-20.020,-34.668,-28.320,-26.855,0.000
1680451588.170,-28.809,-38.574,-29.297,-20.996,0.000
1680451588.174,-26.855,-34.180,-24.902,-11.719,0.000
1680451588.178,-20.020,-27.832,-31.250,-20.020,0.000
1680451588.182,-24.414,-28.320,-38.574,-26.855,0.000
1680451588.185,-43.457,-30.273,-41.992,-42.480,0.000
1680451588.189,-51.270,-30.273,-37.598,-50.293,0.000
1680451588.193,-45.410,-30.273,-36.133,-40.039,0.000
1680451588.197,-31.250,-36.133,-54.199,-28.809,0.000
1680451588.201,-19.043,-37.109,-55.664,-23.926,0.000
1680451588.205,-37.109,-37.109,-37.109,-39.062,0.000
1680451588.209,-58.105,-39.551,-33.203,-40.039,0.000
1680451588.213,-46.387,-36.621,-30.762,-30.762,0.000
1680451588.217,-32.227,-32.227,-29.297,-27.344,0.000
1680451588.221,-30.273,-31.738,-29.785,-25.391,0.000
1680451588.225,-32.715,-36.133,-31.250,-32.715,0.000
1680451588.228,-36.621,-33.203,-28.320,-33.203,0.000
1680451588.232,-31.250,-30.273,-21.973,-20.508,0.000
1680451588.236,-22.461,-31.250,-23.438,-14.160,0.000
1680451588.240,-28.320,-28.320,-25.879,-17.090,0.000
1680451588.244,-24.414,-34.668,-30.273,-15.137,0.000
1680451588.248,-16.113,-37.598,-26.855,-7.324,0.000
1680451588.252,-19.043,-26.855,-20.020,-1.953,0.000
1680451588.256,-17.578,-18.555,-26.367,-8.789,0.000
1680451588.260,-14.648,-21.484,-26.367,-13.184,0.000
1680451588.264,-29.785,-29.297,-21.484,-27.344,0.000
1680451588.267,-44.434,-31.738,-25.879,-51.270,0.000
1680451588.271,-40.527,-31.250,-27.344,-57.129,0.000
1680451588.275,-34.180,-30.762,-23.438,-50.293,0.000
1680451588.279,-27.832,-31.250,-25.391,-50.781,0.000
1680451588.283,-31.250,-26.367,-27.832,-57.617,0.000
1680451588.287,-47.363,-29.297,-35.645,-61.523,0.000
1680451588.291,-47.363,-35.645,-42.969,-53.711,0.000
1680451588.295,-28.320,-25.879,-30.762,-33.691,0.000
1680451588.299,-27.344,-21.973,-24.414,-30.762,0.000
1680451588.303,-40.527,-25.879,-25.879,-34.180,0.000
1680451588.307,-40.527,-33.203,-22.949,-29.297,0.000
1680451588.310,-26.855,-29.297,-21.484,-20.508,0.000
1680451588.314,-22.949,-20.508,-31.250,-18.555,0.000
1680451588.318,-34.180,-25.879,-36.621,-29.785,0.000
1680451588.322,-32.715,-31.738,-36.133,-41.016,0.000
1680451588.326,-37.109,-34.668,-33.691,-40.527,0.000
1680451588.330,-47.363,-32.715,-32.715,-34.668,0.000
1680451588.334,-17.578,-36.621,-32.715,-25.879,0.000
1680451588.338,-1.953,-36.621,-33.203,-27.344,0.000
1680451588.342,-37.109,-37.598,-39.551,-41.016,0.000
1680451588.346,-48.340,-43.457,-44.922,-53.223,0.000
1680451588.349,-44.434,-40.527,-39.062,-47.363,0.000
1680451588.353,-39.062,-33.691,-33.203,-41.504,0.000
1680451588.357,-32.715,-25.391,-31.738,-46.875,0.000
1680451588.361,-41.992,-17.578,-26.855,-52.246,0.000
1680451588.365,-41.992,-19.531,-32.227,-53.223,0.000
1680451588.369,-45.410,-23.926,-35.645,-56.641,0.000
1680451588.373,-51.758,-21.973,-33.203,-60.059,0.000
1680451588.377,-35.645,-26.367,-24.902,-44.434,0.000
1680451588.381,-19.043,-27.832,-26.367,-38.574,0.000
1680451588.385,-36.133,-22.461,-36.621,-47.852,0.000
1680451588.389,-51.758,-20.996,-40.527,-51.758,0.000
1680451588.392,-44.434,-24.902,-40.527,-52.246,0.000
1680451588.396,-41.504,-27.344,-35.645,-40.039,0.000
1680451588.400,-31.738,-25.879,-31.738,-32.227,0.000
1680451588.404,-26.367,-23.926,-34.668,-33.691,0.000
1680451588.408,-26.855,-21.484,-37.109,-29.785,0.000
1680451588.412,-22.461,-22.949,-39.551,-31.250,0.000
1680451588.416,-16.113,-25.391,-40.039,-28.809,0.000
1680451588.420,-6.348,-28.320,-32.715,-26.367,0.000
1680451588.424,-12.695,-26.855,-27.832,-25.879,0.000
1680451588.428,-25.879,-21.973,-35.156,-37.598,0.000
1680451588.432,-21.484,-21.973,-38.086,-39.062,0.000
1680451588.435,-16.602,-27.344,-36.133,-33.203,0.000
1680451588.439,-16.113,-25.391,-42.969,-32.715,0.000
1680451588.443,-17.578,-19.043,-45.898,-41.016,0.000
1680451588.447,-33.691,-25.391,-39.062,-52.734,0.000
1680451588.451,-23.438,-33.203,-32.715,-31.738,0.000
1680451588.455,-3.906,-23.926,-32.715,-21.973,0.000
1680451588.459,-17.090,-14.648,-37.109,-45.410,0.000
1680451588.463,-24.414,-15.137,-39.062,-60.059,0.000
1680451588.467,-25.391,-19.043,-39.062,-51.758,0.000
1680451588.471,-30.273,-17.090,-35.156,-45.410,0.000
1680451588.474,-25.879,-14.160,-29.785,-32.715,0.000
1680451588.478,-15.625,-18.066,-33.691,-29.785,0.000
1680451588.482,-17.578,-20.020,-40.039,-46.875,0.000
1680451588.486,-25.391,-24.414,-34.668,-43.457,0.000
1680451588.490,-25.879,-25.879,-33.203,-25.879,0.000
1680451588.494,-31.738,-20.508,-36.133,-25.391,0.000
1680451588.498,-41.016,-18.555,-35.156,-34.180,0.000
1680451588.502,-34.180,-19.043,-33.691,-38.574,0.000
1680451588.506,-29.785,-21.973,-28.809,-33.691,0.000
1680451588.510,-33.691,-25.391,-26.855,-31.738,0.000
1680451588.514,-29.785,-27.344,-32.227,-29.785,0.000
1680451588.517,-15.625,-24.902,-29.785,-19.043,0.000
1680451588.521,-11.719,-25.879,-27.832,-18.555,0.000
1680451588.525,-28.320,-36.621,-29.297,-27.344,0.000
1680451588.529,-26.367,-39.062,-34.668,-29.785,0.000
1680451588.533,-20.020,-26.855,-40.039,-21.484,0.000
1680451588.537,-21.973,-20.996,-38.086,-18.555,0.000
1680451588.541,-13.184,-21.484,-32.715,-23.926,0.000
1680451588.545,-31.738,-25.879,-34.180,-38.574,0.000
1680451588.549,-48.340,-25.391,-41.016,-49.316,0.000
1680451588.553,-34.668,-20.020,-41.016,-48.340,0.000
1680451588.557,-24.414,-18.066,-41.504,-38.086,0.000
1680451588.560,-19.531,-20.996,-44.922,-33.691,0.000
1680451588.564,-31.738,-23.926,-42.969,-40.039,0.000
1680451588.568,-41.016,-27.344,-38.086,-34.180,0.000
1680451588.572,-34.180,-30.273,-36.621,-29.297,0.000
1680451588.576,-34.180,-25.391,-34.668,-30.273,0.000
1680451588.580,-37.109,-29.297,-35.156,-34.668,0.000
1680451588.584,-41.504,-31.738,-37.598,-44.434,0.000
1680451588.588,-37.598,-26.855,-37.598,-34.668,0.000
1680451588.592,-32.227,-25.391,-37.109,-22.461,0.000
1680451588.596,-33.203,-24.902,-36.133,-29.785,0.000
1680451588.599,-36.133,-20.508,-39.062,-36.133,0.000
1680451588.603,-37.109,-23.926,-42.480,-37.598,0.000
1680451588.607,-26.367,-31.738,-36.621,-31.738,0.000
1680451588.611,-20.508,-30.762,-32.227,-22.949,0.000
1680451588.615,-13.672,-31.738,-36.133,-11.719,0.000
1680451588.619,-10.254,-35.156,-34.668,-11.719,0.000
1680451588.623,-16.602,-35.645,-34.180,-14.648,0.000
1680451588.627,-24.902,-33.203,-35.645,-22.949,0.000
1680451588.631,-30.762,-28.809,-37.598,-37.598,0.000
1680451588.635,-19.531,-26.367,-42.969,-38.086,0.000
1680451588.639,-11.719,-28.320,-42.480,-32.715,0.000
1680451588.642,-17.090,-36.621,-37.109,-23.926,0.000
1680451588.646,-21.973,-38.086,-43.457,-26.855,0.000
1680451588.650,-32.715,-26.855,-53.711,-37.598,0.000
1680451588.654,-30.762,-24.902,-48.828,-26.367,0.000
1680451588.658,-22.461,-37.598,-39.062,-12.695,0.000
1680451588.662,-16.113,-40.039,-30.762,-6.348,0.000
1680451588.666,-12.695,-27.344,-34.180,-13.184,0.000
1680451588.670,-15.137,-21.973,-38.086,-20.020,0.000
1680451588.674,-9.766,-18.066,-39.062,-20.508,0.000
1680451588.678,-11.230,-26.855,-43.945,-23.926,0.000
1680451588.682,-17.090,-38.086,-40.527,-24.902,0.000
1680451588.685,-31.738,-41.504,-36.621,-21.973,0.000
1680451588.689,-35.156,-39.062,-40.039,-11.719,0.000
1680451588.693,-25.879,-37.598,-44.922,-4.883,0.000
1680451588.697,-10.254,-34.668,-43.945,-11.230,0.000
1680451588.701,-8.301,-31.250,-38.086,-20.996,0.000
1680451588.705,-11.230,-31.738,-37.109,-28.809,0.000
1680451588.709,-5.371,-34.668,-38.086,-26.855,0.000
1680451588.713,-8.301,-35.156,-40.039,-16.602,0.000
1680451588.717,-4.883,-29.785,-38.086,-5.859,0.000
1680451588.721,-22.949,-39.551,-32.227,-14.160,0.000
1680451588.724,-20.996,-45.898,-28.809,-19.531,0.000
1680451588.728,-1.953,-30.273,-37.109,-17.090,0.000
1680451588.732,-15.137,-22.949,-44.922,-32.715,0.000
1680451588.736,-3.906,-23.926,-40.527,-23.438,0.000
1680451588.740,2.441,-25.879,-35.156,-16.113,0.000
1680451588.744,-23.926,-29.785,-37.598,-37.598,0.000
1680451588.748,-35.156,-32.715,-33.691,-40.527,0.000
1680451588.752,-25.391,-35.156,-31.250,-20.508,0.000
1680451588.756,-20.996,-29.785,-34.180,-11.719,0.000
1680451588.760,-30.762,-29.785,-34.668,-23.438,0.000
1680451588.764,-35.156,-33.203,-34.668,-30.273,0.000
1680451588.767,-32.227,-33.203,-31.738,-23.926,0.000
1680451588.771,-32.227,-39.062,-29.785,-15.625,0.000
1680451588.775,-28.320,-39.551,-24.414,-8.789,0.000
1680451588.779,-26.367,-33.203,-24.902,-8.301,0.000
1680451588.783,-41.016,-38.086,-29.297,-21.484,0.000
1680451588.787,-46.387,-41.504,-31.250,-22.949,0.000
1680451588.791,-37.598,-37.109,-31.738,-6.836,0.000
1680451588.795,-27.832,-34.180,-30.762,-6.836,0.000
1680451588.799,-24.902,-28.320,-31.250,-10.742,0.000
1680451588.803,-25.879,-29.297,-29.297,-17.090,0.000
1680451588.806,-28.809,-33.203,-25.391,-25.879,0.000
1680451588.810,-27.344,-35.645,-29.297,-22.461,0.000
1680451588.814,-20.020,-30.762,-45.410,-19.043,0.000
1680451588.818,-14.648,-23.438,-42.969,-21.484,0.000
1680451588.822,-17.578,-24.414,-33.203,-36.621,0.000
1680451588.826,-18.066,-23.926,-35.645,-42.480,0.000
1680451588.830,-12.695,-24.414,-32.715,-27.832,0.000
1680451588.834,-10.254,-26.367,-29.297,-17.090,0.000
1680451588.838,-10.254,-26.855,-32.715,-19.531,0.000
1680451588.842,-22.949,-27.344,-37.598,-28.809,0.000
1680451588.846,-35.156,-30.273,-36.133,-38.086,0.000
1680451588.849,-43.945,-33.203,-32.715,-38.086,0.000
1680451588.853,-44.922,-35.156,-28.320,-30.762,0.000
1680451588.857,-31.250,-35.156,-43.457,-19.043,0.000
1680451588.861,-36.621,-37.598,-52.246,-26.367,0.000
1680451588.865,-47.852,-38.086,-29.297,-44.434,0.000
1680451588.869,-36.621,-34.180,-21.973,-29.785,0.000
1680451588.873,-29.785,-29.297,-24.902,-10.254,0.000
1680451588.877,-23.926,-28.320,-27.344,-11.719,0.000
1680451588.881,-14.160,-26.855,-24.902,-15.625,0.000
1680451588.885,-16.113,-31.738,-25.879,-22.949,0.000
1680451588.889,-30.762,-40.527,-25.879,-31.738,0.000
1680451588.892,-38.086,-38.574,-20.508,-24.902,0.000
1680451588.896,-20.508,-32.227,-20.996,-15.625,0.000
1680451588.900,-27.832,-32.715,-30.273,-31.250,0.000
1680451588.904,-43.945,-37.109,-38.086,-49.316,0.000
1680451588.908,-39.551,-34.668,-34.180,-46.387,0.000
1680451588.912,-36.621,-26.855,-26.855,-38.574,0.000
1680451588.916,-21.973,-23.438,-27.344,-32.715,0.000
1680451588.920,-23.438,-24.902,-31.250,-38.086,0.000
1680451588.924,-36.621,-29.297,-25.391,-46.387,0.000
1680451588.928,-34.668,-32.227,-26.855,-44.922,0.000
1680451588.931,-28.320,-25.879,-34.668,-29.785,0.000
1680451588.935,-17.090,-24.414,-30.762,-20.020,0.000
1680451588.939,-20.508,-27.832,-26.367,-30.762,0.000
1680451588.943,-35.156,-30.273,-24.902,-45.898,0.000
1680451588.947,-38.086,-30.273,-30.273,-41.504,0.000
1680451588.951,-34.180,-37.598,-34.180,-29.297,0.000
1680451588.955,-29.297,-39.551,-24.414,-28.320,0.000
1680451588.959,-24.414,-34.668,-25.391,-27.832,0.000
1680451588.963,-35.156,-39.551,-31.738,-36.133,0.000
1680451588.967,-41.504,-39.551,-30.273,-45.410,0.000
1680451588.971,-35.645,-36.621,-30.762,-39.062,0.000
1680451588.974,-24.414,-36.133,-35.645,-20.996,0.000
1680451588.978,-21.973,-35.645,-38.574,-24.414,0.000
1680451588.982,-33.203,-36.133,-39.062,-43.945,0.000
1680451588.986,-40.039,-30.273,-35.645,-44.922,0.000
1680451588.990,-31.250,-27.344,-38.574,-42.969,0.000
1680451588.994,-21.484,-35.645,-25.879,-40.527,0.000
1680451588.998,-20.020,-34.180,-22.949,-41.504,0.000
1680451589.002,-19.043,-31.738,-36.133,-46.387,0.000
1680451589.006,-21.973,-36.133,-34.668,-46.875,0.000
1680451589.010,-28.320,-36.621,-34.180,-46.875,0.000
1680451589.014,-26.855,-34.180,-32.715,-42.480,0.000
1680451589.017,-21.484,-32.227,-33.203,-38.574,0.000
1680451589.021,-24.414,-31.738,-33.203,-34.668,0.000
1680451589.025,-29.785,-29.785,-32.227,-34.668,0.000
1680451589.029,-36.621,-33.203,-33.691,-39.551,0.000
1680451589.033,-30.273,-32.715,-31.250,-36.133,0.000
1680451589.037,-18.066,-30.762,-31.250,-21.973,0.000
1680451589.041,-20.508,-35.645,-39.062,-25.391,0.000
1680451589.045,-32.227,-41.504,-32.227,-37.109,0.000
1680451589.049,-31.250,-38.574,-21.973,-28.320,0.000
1680451589.053,-24.902,-33.203,-25.391,-20.508,0.000
1680451589.056,-25.391,-37.109,-26.855,-18.555,0.000
1680451589.060,-30.273,-40.039,-24.902,-23.926,0.000
1680451589.064,-42.969,-36.133,-32.715,-37.598,0.000
1680451589.068,-46.387,-39.551,-36.621,-41.504,0.000
1680451589.072,-37.598,-37.109,-29.297,-33.203,0.000
1680451589.076,-22.461,-28.809,-25.879,-25.391,0.000
1680451589.080,-20.020,-30.762,-26.855,-28.809,0.000
1680451589.084,-29.785,-33.691,-41.992,-35.645,0.000
1680451589.088,-46.387,-37.598,-44.922,-42.969,0.000
1680451589.092,-52.734,-40.527,-35.645,-42.480,0.000
1680451589.096,-25.391,-31.250,-30.273,-22.461,0.000
1680451589.099,-17.090,-26.855,-30.762,-23.926,0.000
1680451589.103,-30.273,-34.180,-34.180,-39.062,0.000
1680451589.107,-31.738,-35.645,-30.273,-38.086,0.000
1680451589.111,-30.762,-33.203,-32.227,-36.133,0.000
1680451589.115,-29.297,-31.250,-30.762,-32.715,0.000
1680451589.119,-18.555,-30.273,-30.762,-29.785,0.000
1680451589.123,-26.367,-35.645,-30.273,-39.551,0.000
1680451589.127,-41.992,-37.598,-34.668,-46.875,0.000
1680451589.131,-49.805,-38.574,-39.062,-44.922,0.000
1680451589.135,-34.180,-39.062,-26.367,-34.668,0.000
1680451589.138,-27.344,-36.133,-23.438,-26.855,0.000
1680451589.142,-38.574,-34.668,-31.250,-32.715,0.000
1680451589.146,-40.039,-36.133,-32.227,-31.738,0.000
1680451589.150,-41.992,-33.691,-33.203,-30.273,0.000
1680451589.154,-35.156,-31.250,-37.109,-28.809,0.000
1680451589.158,-25.879,-32.715,-37.598,-28.320,0.000
1680451589.162,-33.691,-31.738,-37.109,-33.203,0.000
1680451589.166,-52.246,-30.762,-41.016,-44.434,0.000
1680451589.170,-44.434,-33.691,-39.551,-44.922,0.000
1680451589.174,-30.762,-31.250,-38.086,-34.668,0.000
1680451589.178,-27.832,-31.738,-41.992,-32.715,0.000
1680451589.181,-31.250,-36.621,-39.062,-36.133,0.000
1680451589.185,-47.852,-37.109,-42.480,-46.387,0.000
1680451589.189,-57.617,-36.621,-42.480,-51.270,0.000
1680451589.193,-47.852,-35.156,-39.062,-42.480,0.000
1680451589.197,-25.391,-36.621,-40.039,-34.180,0.000
1680451589.201,-29.297,-37.598,-40.527,-37.109,0.000
1680451589.205,-46.387,-37.598,-40.039,-47.363,0.000
1680451589.209,-53.711,-38.086,-36.621,-48.340,0.000
1680451589.213,-41.504,-37.598,-28.809,-32.715,0.000
1680451589.217,-26.367,-35.645,-26.855,-20.996,0.000
1680451589.221,-34.180,-32.227,-29.297,-24.902,0.000
1680451589.224,-47.852,-34.180,-28.320,-27.832,0.000
1680451589.228,-42.969,-34.668,-30.273,-25.879,0.000
1680451589.232,-39.551,-37.109,-35.156,-21.484,0.000
1680451589.236,-37.598,-39.062,-32.227,-22.461,0.000
1680451589.240,-33.203,-36.621,-27.344,-31.250,0.000
1680451589.244,-30.762,-38.574,-29.785,-36.621,0.000
1680451589.248,-36.621,-36.133,-34.668,-45.898,0.000
1680451589.252,-34.180,-36.133,-28.320,-37.598,0.000
1680451589.256,-16.602,-38.086,-22.949,-22.949,0.000
1680451589.260,-20.508,-35.156,-28.320,-31.250,0.000
1680451589.263,-34.668,-39.551,-31.738,-44.434,0.000
1680451589.267,-52.246,-43.945,-30.273,-53.711,0.000
1680451589.271,-50.781,-42.969,-33.203,-41.504,0.000
1680451589.275,-31.738,-39.062,-31.738,-27.344,0.000
1680451589.279,-27.832,-34.180,-29.297,-39.062,0.000
1680451589.283,-40.527,-35.645,-33.203,-43.945,0.000
1680451589.287,-59.082,-35.156,-35.156,-50.293,0.000
1680451589.291,-58.594,-41.504,-33.691,-59.570,0.000
1680451589.295,-53.223,-41.016,-34.668,-47.852,0.000
1680451589.299,-50.781,-35.156,-32.715,-41.504,0.000
1680451589.303,-55.664,-35.156,-31.250,-48.828,0.000
1680451589.306,-62.500,-38.574,-32.227,-54.688,0.000
1680451589.310,-56.641,-46.387,-33.203,-48.828,0.000
1680451589.314,-49.316,-37.598,-33.203,-35.156,0.000
1680451589.318,-41.992,-29.297,-28.320,-38.086,0.000
1680451589.322,-47.363,-47.363,-49.316,-49.805,0.000
1680451589.326,-54.688,-53.223,-58.594,-50.293,0.000
1680451589.330,-54.688,-43.457,-39.062,-49.805,0.000
1680451589.334,-42.480,-42.480,-34.668,-41.504,0.000
1680451589.338,-27.832,-42.480,-37.598,-30.762,0.000
1680451589.342,-35.645,-38.574,-31.738,-37.598,0.000
1680451589.346,-46.387,-39.062,-28.320,-48.828,0.000
1680451589.349,-44.922,-40.527,-32.715,-47.852,0.000
1680451589.353,-36.621,-32.715,-27.832,-45.898,0.000
1680451589.357,-36.621,-31.738,-31.250,-49.316,0.000
1680451589.361,-36.133,-33.203,-30.273,-47.363,0.000
1680451589.365,-30.762,-32.715,-27.344,-50.781,0.000
1680451589.369,-32.227,-35.156,-39.551,-52.246,0.000
1680451589.373,-24.414,-29.297,-36.621,-41.992,0.000
1680451589.377,-15.137,-21.484,-27.344,-42.969,0.000
1680451589.381,-20.020,-21.973,-25.879,-42.969,0.000
1680451589.385,-30.762,-21.973,-24.902,-37.598,0.000
1680451589.388,-39.062,-24.902,-26.367,-39.062,0.000
1680451589.392,-43.457,-30.273,-27.832,-35.156,0.000
1680451589.396,-41.504,-26.855,-25.391,-32.227,0.000
1680451589.400,-39.062,-24.414,-20.020,-30.762,0.000
1680451589.404,-41.992,-28.320,-20.020,-27.344,0.000
1680451589.408,-42.969,-29.785,-23.438,-30.273,0.000
1680451589.412,-42.969,-33.691,-31.250,-28.320,0.000
1680451589.416,-27.832,-33.691,-30.762,-13.672,0.000
1680451589.420,-21.484,-27.344,-23.438,-17.090,0.000
1680451589.424,-28.809,-31.738,-29.785,-28.809,0.000
1680451589.428,-29.297,-29.785,-30.273,-27.344,0.000
1680451589.431,-31.250,-30.273,-26.855,-22.949,0.000
1680451589.435,-25.391,-35.156,-27.344,-15.625,0.000
1680451589.439,-19.043,-34.180,-26.367,-13.672,0.000
1680451589.443,-29.785,-36.621,-27.832,-27.344,0.000
1680451589.447,-32.715,-33.691,-25.879,-32.715,0.000
1680451589.451,-15.625,-32.715,-22.949,-20.508,0.000
1680451589.455,-19.043,-30.273,-25.391,-20.996,0.000
1680451589.459,-36.621,-30.273,-31.250,-34.180,0.000
1680451589.463,-45.410,-32.715,-33.203,-50.293,0.000
1680451589.467,-54.688,-30.273,-32.715,-55.176,0.000
1680451589.471,-52.246,-34.668,-31.738,-47.852,0.000
1680451589.474,-41.992,-30.273,-35.645,-39.062,0.000
1680451589.478,-35.156,-24.414,-40.039,-39.062,0.000
1680451589.482,-41.504,-33.691,-36.621,-45.898,0.000
1680451589.486,-56.152,-42.480,-31.738,-49.316,0.000
1680451589.490,-51.758,-39.062,-30.273,-47.363,0.000
1680451589.494,-34.180,-36.133,-30.762,-38.086,0.000
1680451589.498,-23.438,-36.621,-34.180,-32.227,0.000
1680451589.502,-32.227,-35.156,-33.203,-37.598,0.000
1680451589.506,-45.410,-41.992,-31.250,-39.551,0.000
1680451589.510,-38.086,-40.039,-34.668,-34.180,0.000
1680451589.513,-20.996,-30.762,-32.715,-24.902,0.000
1680451589.517,-10.254,-29.785,-32.715,-19.531,0.000
1680451589.521,-13.672,-29.297,-32.715,-26.367,0.000
1680451589.525,-23.926,-34.180,-31.250,-31.738,0.000
1680451589.529,-31.250,-35.156,-25.879,-33.203,0.000
1680451589.533,-28.809,-30.762,-28.320,-36.621,0.000
1680451589.537,-19.531,-36.133,-31.738,-33.691,0.000
1680451589.541,-25.391,-38.086,-30.762,-39.551,0.000
1680451589.545,-38.574,-34.668,-31.250,-53.223,0.000
1680451589.549,-50.781,-36.621,-34.180,-49.805,0.000
1680451589.553,-44.434,-34.180,-33.691,-40.527,0.000
1680451589.556,-24.414,-26.367,-29.297,-40.039,0.000
1680451589.560,-32.227,-28.320,-29.785,-47.363,0.000
1680451589.564,-53.711,-33.203,-41.992,-55.176,0.000
1680451589.568,-58.594,-36.133,-40.039,-57.129,0.000
1680451589.572,-54.688,-37.109,-30.273,-55.664,0.000
1680451589.576,-49.316,-38.574,-30.273,-48.340,0.000
1680451589.580,-46.387,-35.645,-28.320,-42.969,0.000
1680451589.584,-54.199,-35.645,-29.297,-48.828,0.000
1680451589.588,-61.523,-38.086,-31.738,-47.852,0.000
1680451589.592,-58.105,-42.480,-35.156,-41.016,0.000
1680451589.596,-44.434,-34.180,-33.203,-36.621,0.000
1680451589.599,-40.039,-29.785,-30.762,-31.738,0.000
1680451589.603,-46.387,-34.180,-34.180,-44.922,0.000
1680451589.607,-49.316,-29.297,-38.574,-55.664,0.000
1680451589.611,-38.574,-36.133,-34.180,-35.645,0.000
1680451589.615,-24.414,-34.180,-25.879,-25.879,0.000
1680451589.619,-36.133,-35.156,-27.832,-34.668,0.000
1680451589.623,-42.969,-36.133,-26.367,-38.574,0.000
1680451589.627,-50.293,-36.621,-25.879,-42.969,0.000
1680451589.631,-50.293,-35.156,-25.879,-35.156,0.000
1680451589.635,-39.062,-26.855,-24.902,-29.297,0.000
1680451589.638,-45.410,-25.879,-29.297,-42.480,0.000
1680451589.642,-54.199,-26.367,-34.180,-54.199,0.000
1680451589.646,-60.547,-29.785,-35.156,-62.500,0.000
1680451589.650,-67.871,-32.227,-31.250,-57.617,0.000
1680451589.654,-56.152,-31.250,-36.621,-42.480,0.000
1680451589.658,-44.922,-28.809,-39.062,-40.527,0.000
1680451589.662,-58.105,-31.250,-39.551,-53.711,0.000
1680451589.666,-62.012,-33.691,-37.598,-59.082,0.000
1680451589.670,-56.641,-34.668,-34.180,-51.758,0.000
1680451589.674,-48.340,-32.715,-34.668,-35.645,0.000
1680451589.678,-38.086,-28.809,-31.738,-28.320,0.000
1680451589.681,-44.434,-32.715,-34.180,-34.180,0.000
1680451589.685,-50.293,-38.086,-33.691,-40.527,0.000
1680451589.689,-47.852,-38.574,-26.855,-39.551,0.000
1680451589.693,-37.598,-32.715,-23.926,-27.344,0.000
1680451589.697,-24.414,-33.203,-24.414,-18.555,0.000
1680451589.701,-20.508,-31.738,-17.578,-19.043,0.000
1680451589.705,-33.691,-27.344,-17.578,-31.250,0.000
1680451589.709,-42.969,-31.738,-21.484,-33.203,0.000
1680451589.713,-26.367,-33.691,-26.367,-27.832,0.000
1680451589.717,-18.555,-30.762,-33.691,-32.715,0.000
1680451589.720,-33.203,-32.227,-33.203,-41.992,0.000
1680451589.724,-42.969,-41.016,-28.809,-50.293,0.000
1680451589.728,-48.340,-37.598,-25.879,-49.316,0.000
1680451589.732,-48.340,-35.156,-25.879,-45.410,0.000
1680451589.736,-34.180,-33.691,-25.879,-39.062,0.000
1680451589.740,-29.785,-32.715,-27.832,-42.480,0.000
1680451589.744,-44.434,-38.574,-33.691,-53.223,0.000
1680451589.748,-48.340,-38.086,-30.273,-52.734,0.000
1680451589.752,-37.598,-34.668,-22.461,-44.434,0.000
1680451589.756,-35.645,-32.715,-17.578,-35.645,0.000
1680451589.760,-38.574,-32.715,-26.855,-37.109,0.000
1680451589.763,-43.945,-34.668,-32.715,-44.922,0.000
1680451589.767,-49.316,-35.156,-24.902,-46.387,0.000
1680451589.771,-48.828,-34.668,-28.809,-38.086,0.000
1680451589.775,-34.180,-33.203,-29.785,-31.738,0.000
1680451589.779,-18.555,-30.762,-26.855,-33.203,0.000
1680451589.783,-37.109,-32.227,-23.438,-30.762,0.000
1680451589.787,-42.969,-38.086,-30.762,-30.762,0.000
1680451589.791,-31.250,-46.387,-37.598,-33.203,0.000
1680451589.795,-25.879,-42.480,-25.391,-21.973,0.000
1680451589.799,-14.160,-29.785,-18.555,-10.742,0.000
1680451589.803,-19.043,-34.180,-25.391,-19.043,0.000
1680451589.806,-29.785,-41.504,-31.738,-30.273,0.000
1680451589.810,-25.879,-35.645,-30.273,-27.344,0.000
1680451589.814,-20.508,-32.715,-29.785,-23.926,0.000
1680451589.818,-26.367,-36.621,-33.203,-26.367,0.000
1680451589.822,-33.691,-31.250,-29.297,-36.133,0.000
1680451589.826,-40.039,-29.297,-24.414,-44.922,0.000
1680451589.830,-47.363,-31.738,-21.973,-36.621,0.000
1680451589.834,-48.340,-26.367,-41.016,-27.344,0.000
1680451589.838,-40.527,-30.273,-41.504,-31.738,0.000
1680451589.842,-42.969,-30.762,-20.996,-37.598,0.000
1680451589.845,-56.641,-27.344,-23.926,-37.598,0.000
1680451589.849,-54.199,-29.297,-26.367,-43.457,0.000
1680451589.853,-50.781,-24.902,-24.414,-37.598,0.000
1680451589.857,-48.828,-21.973,-28.809,-30.273,0.000
1680451589.861,-44.922,-23.926,-39.551,-33.203,0.000
1680451589.865,-50.781,-33.691,-33.691,-30.762,0.000
1680451589.869,-29.297,-34.668,-24.414,-13.672,0.000
1680451589.873,-7.324,-15.625,-25.879,-8.789,0.000
1680451589.877,-18.555,-12.207,-38.086,-33.691,0.000
1680451589.881,-31.738,-22.461,-47.363,-42.969,0.000
1680451589.885,-34.668,-26.855,-26.855,-42.969,0.000
1680451589.888,-43.457,-31.738,-17.090,-47.363,0.000
1680451589.892,-45.898,-29.297,-25.879,-40.527,0.000
1680451589.896,-31.250,-20.508,-34.180,-41.016,0.000
1680451589.900,-43.457,-27.832,-31.738,-58.105,0.000
1680451589.904,-65.430,-37.109,-26.367,-58.594,0.000
1680451589.908,-60.547,-31.250,-33.691,-54.688,0.000
1680451589.912,-57.617,-27.344,-41.016,-61.035,0.000
1680451589.916,-74.219,-27.344,-34.180,-69.336,0.000
1680451589.920,-77.148,-29.785,-29.297,-76.660,0.000
1680451589.924,-57.617,-23.926,-31.738,-73.242,0.000
1680451589.928,-52.734,-20.020,-33.203,-75.195,0.000
1680451589.931,-56.152,-25.391,-32.227,-79.102,0.000
1680451589.935,-59.570,-26.367,-34.180,-83.496,0.000
1680451589.939,-62.012,-24.414,-30.273,-82.031,0.000
1680451589.943,-75.195,-28.809,-25.879,-72.754,0.000
1680451589.947,-75.684,-25.879,-30.762,-67.871,0.000
1680451589.951,-68.848,-18.066,-31.738,-60.059,0.000
1680451589.955,-76.660,-20.508,-31.738,-66.895,0.000
1680451589.959,-87.402,-26.855,-31.738,-79.102,0.000
1680451589.963,-90.332,-36.133,-32.227,-72.266,0.000
1680451589.967,-73.242,-34.180,-35.156,-56.641,0.000
1680451589.970,-60.059,-19.531,-31.250,-52.246,0.000
1680451589.974,-59.570,-19.531,-28.320,-50.781,0.000
1680451589.978,-57.617,-24.414,-25.879,-47.852,0.000
1680451589.982,-72.754,-28.320,-19.043,-53.711,0.000
1680451589.986,-82.520,-35.645,-21.484,-61.523,0.000
1680451589.990,-60.547,-40.527,-24.414,-41.016,0.000
1680451589.994,-44.922,-31.738,-28.809,-26.367,0.000
1680451589.998,-45.898,-17.578,-39.062,-46.387,0.000
1680451590.002,-38.574,-19.043,-36.621,-45.898,0.000
1680451590.006,-68.359,-27.344,-28.809,-57.617,0.000
1680451590.010,-88.867,-29.297,-29.297,-74.707,0.000
1680451590.013,-56.152,-33.691,-33.691,-49.316,0.000
1680451590.017,-34.180,-31.738,-28.809,-34.180,0.000
1680451590.021,-41.992,-26.367,-35.645,-49.316,0.000
1680451590.025,-59.570,-31.250,-43.457,-67.383,0.000
1680451590.029,-71.777,-37.109,-38.086,-64.941,0.000
1680451590.033,-72.754,-34.180,-34.668,-55.664,0.000
1680451590.037,-71.289,-30.762,-37.109,-52.734,0.000
1680451590.041,-64.941,-33.203,-38.086,-56.641,0.000
1680451590.045,-65.918,-35.645,-34.668,-58.105,0.000
1680451590.049,-62.012,-31.738,-30.762,-44.434,0.000
1680451590.053,-53.711,-30.762,-25.391,-35.645,0.000
1680451590.056,-67.383,-30.762,-23.438,-44.434,0.000
1680451590.060,-47.363,-35.156,-20.020,-42.480,0.000
1680451590.064,-37.598,-33.691,-20.508,-37.598,0.000
1680451590.068,-48.340,-23.926,-22.949,-50.293,0.000
1680451590.072,-54.688,-20.996,-47.363,-55.176,0.000
1680451590.076,-52.734,-23.438,-56.641,-48.340,0.000
1680451590.080,-52.246,-25.391,-23.926,-53.223,0.000
1680451590.084,-61.035,-31.250,-18.066,-65.918,0.000
1680451590.088,-60.059,-34.180,-19.531,-55.664,0.000
