timestamps,TP9,AF7,AF8,TP10
1683632176.806,-30.273,-49.316,-49.805,-37.598
1683632176.810,-120.117,-79.590,-101.074,-176.758
1683632176.814,-110.352,-45.898,-61.035,-138.672
1683632176.818,-16.113,0.000,16.602,23.926
1683632176.822,41.016,7.324,26.367,100.098
1683632176.826,-0.977,-19.531,-42.969,6.836
1683632176.830,-76.172,-49.316,-102.539,-127.930
1683632176.833,-82.520,-42.969,-79.102,-112.305
1683632176.837,-3.906,-14.648,-3.906,29.297
1683632176.841,66.895,7.812,27.344,116.211
1683632176.845,18.555,-19.043,-32.227,26.855
1683632176.849,-86.426,-73.730,-100.586,-140.137
1683632176.851,-110.352,-92.285,-85.449,-152.344
1683632176.855,-33.203,-18.555,-1.953,5.859
1683632176.859,36.621,27.344,33.203,109.375
1683632176.863,9.766,-30.762,-29.785,30.762
1683632176.867,-86.914,-101.562,-104.980,-135.254
1683632176.871,-129.395,-62.500,-80.566,-170.410
1683632176.875,-65.918,-9.766,1.465,-33.691
1683632176.878,18.555,0.488,43.457,91.309
1683632176.882,9.766,-2.441,2.441,44.922
1683632176.886,-86.426,-86.914,-90.332,-129.395
1683632176.890,-130.859,-98.145,-94.238,-180.176
1683632176.894,-58.594,-20.996,0.000,-46.875
1683632176.896,24.902,11.719,55.664,85.449
1683632176.900,11.230,-13.672,4.883,48.828
1683632176.904,-71.777,-76.660,-86.426,-111.816
1683632176.908,-121.582,-105.469,-105.469,-186.035
1683632176.912,-63.477,-41.016,-27.832,-62.988
1683632176.916,31.250,32.227,46.387,91.797
1683632176.920,49.316,5.859,17.090,83.008
1683632176.923,-21.973,-67.383,-66.406,-67.383
1683632176.927,-85.938,-104.004,-91.797,-163.574
1683632176.931,-48.340,-58.105,-30.273,-79.590
1683632176.935,45.410,22.461,40.527,77.148
1683632176.939,68.359,17.090,19.531,95.703
1683632176.956,-15.625,-66.406,-71.289,-53.711
1683632176.960,-105.957,-80.078,-105.469,-170.410
1683632176.964,-86.914,-25.391,-44.922,-109.863
1683632176.968,2.930,16.602,30.762,47.363
1683632176.972,42.480,4.883,25.879,92.285
1683632176.976,-21.973,-24.902,-50.293,-39.062
1683632176.980,-110.840,-70.312,-102.051,-169.922
1683632176.983,-100.098,-81.543,-59.570,-132.812
1683632176.987,-17.578,-9.277,24.902,19.043
1683632176.991,18.066,36.621,38.574,84.473
1683632176.995,-43.945,-39.551,-41.504,-34.668
1683632176.999,-124.512,-99.121,-103.027,-179.199
1683632177.001,-108.398,-50.781,-62.500,-147.949
1683632177.005,-21.973,4.395,18.555,6.348
1683632177.009,20.508,3.418,40.039,86.914
1683632177.013,-25.391,-49.805,-24.414,-2.930
1683632177.017,-97.168,-94.727,-94.238,-150.391
1683632177.021,-108.887,-37.109,-65.430,-146.973
1683632177.025,-42.480,9.766,18.066,-9.766
1683632177.028,28.320,6.836,43.945,87.402
1683632177.032,8.789,-52.734,-20.020,21.973
1683632177.036,-72.266,-99.121,-94.238,-129.395
1683632177.040,-88.867,-67.871,-81.055,-149.902
1683632177.044,-13.184,-19.043,-4.395,-13.672
1683632177.046,72.754,18.066,35.645,111.816
1683632177.050,60.059,-0.488,-14.160,69.336
1683632177.054,-48.340,-69.336,-90.820,-97.168
1683632177.058,-94.238,-70.312,-89.844,-147.949
1683632177.062,-23.926,-24.902,-14.160,-26.367
1683632177.066,54.688,43.457,50.781,100.098
1683632177.070,38.574,24.414,13.184,72.266
1683632177.073,-65.918,-87.402,-76.660,-87.891
1683632177.077,-120.605,-118.652,-93.262,-156.738
1683632177.081,-63.965,-45.898,-15.137,-40.527
1683632177.085,23.926,17.578,58.594,104.980
1683632177.089,27.344,-6.836,22.949,94.727
1683632177.091,-59.082,-57.617,-65.430,-60.547
1683632177.095,-118.652,-53.711,-88.867,-160.156
1683632177.099,-79.590,-3.906,-27.344,-76.172
1683632177.103,13.184,34.180,43.945,72.266
1683632177.107,36.621,16.602,26.855,86.914
1683632177.111,-36.133,-26.367,-53.223,-48.828
1683632177.115,-102.051,-49.805,-88.867,-158.691
1683632177.118,-77.148,-10.254,-40.039,-93.750
1683632177.122,8.301,-0.488,20.020,51.270
1683632177.126,41.016,-19.043,17.090,85.938
1683632177.130,-21.484,-45.410,-52.246,-28.809
1683632177.134,-90.332,-83.008,-103.027,-146.973
1683632177.136,-74.707,-52.734,-59.570,-104.492
1683632177.140,5.859,4.395,20.996,47.363
1683632177.144,55.664,10.254,27.832,104.492
1683632177.148,-0.488,-37.598,-44.922,-0.977
1683632177.152,-88.379,-96.680,-100.586,-139.648
1683632177.156,-83.008,-52.246,-55.176,-126.465
1683632177.160,2.930,19.531,25.391,32.227
1683632177.163,62.012,-1.953,34.668,118.164
1683632177.167,10.742,-47.363,-31.250,21.973
1683632177.171,-85.449,-99.609,-94.238,-130.859
1683632177.175,-93.262,-103.516,-66.895,-132.812
1683632177.179,-14.648,-34.668,16.602,21.973
1683632177.181,43.945,0.977,46.387,116.699
1683632177.185,7.324,-25.879,-14.160,26.855
1683632177.189,-82.031,-91.309,-87.891,-136.230
1683632177.193,-108.887,-84.961,-76.172,-168.457
1683632177.197,-37.598,-7.812,3.906,-33.203
1683632177.201,35.645,32.715,45.898,87.402
1683632177.205,9.766,-2.441,-8.301,30.273
1683632177.208,-80.078,-80.078,-94.238,-131.348
1683632177.212,-120.117,-114.746,-101.562,-189.453
1683632177.216,-66.406,-59.082,-24.902,-69.336
1683632177.220,21.973,14.160,42.480,92.285
1683632177.224,23.438,-4.883,2.930,69.824
1683632177.226,-63.965,-90.332,-86.426,-101.074
1683632177.230,-115.723,-88.379,-91.797,-165.039
1683632177.234,-65.430,-27.344,-13.184,-43.945
1683632177.238,28.320,10.254,52.246,106.934
1683632177.242,41.504,-17.090,20.020,97.168
1683632177.246,-44.922,-51.270,-66.406,-62.500
1683632177.250,-105.469,-81.543,-90.820,-156.738
1683632177.253,-61.035,-59.082,-22.949,-59.570
1683632177.257,26.367,1.465,49.316,98.633
1683632177.261,45.410,-0.488,27.344,104.492
1683632177.265,-38.086,-54.199,-59.082,-36.621
1683632177.269,-106.445,-84.473,-94.727,-140.137
1683632177.271,-76.172,-49.805,-36.133,-87.402
1683632177.275,0.977,15.137,44.922,59.570
1683632177.279,23.926,3.418,35.645,97.168
1683632177.283,-35.156,-62.012,-53.711,-39.551
1683632177.287,-109.863,-85.938,-105.469,-175.781
1683632177.291,-90.332,-17.090,-47.852,-122.559
1683632177.295,8.301,40.039,30.762,41.016
1683632177.298,36.133,1.465,24.902,79.590
1683632177.302,-29.785,-69.824,-54.688,-51.758
1683632177.306,-100.098,-98.145,-112.793,-185.059
1683632177.310,-105.957,-54.688,-75.195,-169.434
1683632177.314,-29.785,10.254,11.719,-20.996
1683632177.331,27.832,7.812,31.250,75.195
1683632177.335,-17.578,-40.039,-34.668,-12.207
1683632177.339,-92.285,-83.984,-96.191,-151.367
1683632177.343,-106.445,-65.918,-71.777,-136.230
1683632177.347,-29.297,-7.812,13.672,15.137
1683632177.351,50.293,41.504,51.270,122.070
1683632177.355,18.555,-3.418,-13.672,49.805
1683632177.358,-68.848,-100.098,-92.773,-110.352
1683632177.362,-90.820,-94.727,-81.543,-140.137
1683632177.366,-23.926,-6.836,2.441,0.977
1683632177.370,50.293,31.250,43.457,119.629
1683632177.374,31.250,-6.836,-9.766,71.289
1683632177.331,27.832,7.812,31.250,75.195
1683632177.335,-17.578,-40.039,-34.668,-12.207
1683632177.339,-92.285,-83.984,-96.191,-151.367
1683632177.343,-106.445,-65.918,-71.777,-136.230
1683632177.347,-29.297,-7.812,13.672,15.137
1683632177.351,50.293,41.504,51.270,122.070
1683632177.355,18.555,-3.418,-13.672,49.805
1683632177.358,-68.848,-100.098,-92.773,-110.352
1683632177.362,-90.820,-94.727,-81.543,-140.137
1683632177.366,-23.926,-6.836,2.441,0.977
1683632177.370,50.293,31.250,43.457,119.629
1683632177.374,31.250,-6.836,-9.766,71.289
1683632177.376,-61.035,-70.801,-82.031,-88.867
1683632177.380,-98.633,-66.406,-74.707,-141.113
1683632177.384,-37.109,0.977,5.859,-18.066
1683632177.388,39.551,23.438,57.129,111.328
1683632177.392,33.203,-28.320,7.812,70.801
1683632177.396,-51.270,-53.711,-68.359,-83.496
1683632177.400,-97.168,-51.758,-81.055,-157.227
1683632177.403,-41.992,-9.277,-11.719,-53.223
1683632177.407,39.062,23.438,42.480,78.613
1683632177.411,35.156,-11.230,0.977,43.945
1683632177.415,-43.945,-60.059,-82.520,-106.445
1683632177.419,-105.957,-82.031,-107.910,-207.031
1683632177.421,-72.754,-30.273,-39.551,-121.094
1683632177.425,21.973,34.180,38.086,52.246
1683632177.429,33.203,12.207,23.926,67.383
1683632177.433,-57.129,-47.363,-61.035,-71.289
1683632177.437,-126.953,-84.473,-102.539,-176.758
1683632177.441,-94.238,-25.879,-38.574,-101.074
1683632177.445,-0.977,27.832,33.691,74.219
1683632177.448,34.668,-5.371,22.461,108.887
1683632177.452,-27.344,-43.457,-50.781,-28.320
1683632177.456,-103.027,-80.566,-96.191,-148.926
1683632177.460,-81.543,-55.664,-44.922,-90.820
1683632177.464,7.324,14.160,34.668,73.730
1683632177.421,-72.754,-30.273,-39.551,-121.094
1683632177.425,21.973,34.180,38.086,52.246
1683632177.429,33.203,12.207,23.926,67.383
1683632177.433,-57.129,-47.363,-61.035,-71.289
1683632177.437,-126.953,-84.473,-102.539,-176.758
1683632177.441,-94.238,-25.879,-38.574,-101.074
1683632177.445,-0.977,27.832,33.691,74.219
1683632177.448,34.668,-5.371,22.461,108.887
1683632177.452,-27.344,-43.457,-50.781,-28.320
1683632177.456,-103.027,-80.566,-96.191,-148.926
1683632177.460,-81.543,-55.664,-44.922,-90.820
1683632177.464,7.324,14.160,34.668,73.730
1683632177.466,55.664,13.184,36.133,127.930
1683632177.470,6.836,-37.109,-35.156,12.207
1683632177.474,-74.219,-74.219,-89.844,-128.418
1683632177.478,-82.031,-60.547,-52.734,-117.188
1683632177.482,2.441,-3.418,27.832,39.062
1683632177.486,55.664,27.344,46.875,120.117
1683632177.490,0.000,-15.625,-18.066,17.090
1683632177.493,-90.820,-76.172,-87.402,-135.254
1683632177.497,-105.469,-94.727,-75.684,-156.738
1683632177.501,-28.320,-35.156,7.324,-16.602
1683632177.505,35.645,14.160,45.410,84.473
1683632177.509,0.488,-20.996,-19.043,1.953
1683632177.511,-86.914,-87.402,-97.168,-155.762
1683632177.515,-106.445,-62.500,-77.148,-179.199
1683632177.519,-35.156,1.465,6.348,-39.062
1683632177.523,37.109,27.344,43.457,79.590
1683632177.527,10.254,-5.371,-11.719,19.531
1683632177.531,-76.172,-36.621,-80.078,-131.348
1683632177.535,-113.770,-43.457,-81.055,-175.293
1683632177.538,-55.664,-24.902,-17.578,-49.805
1683632177.542,28.320,12.695,37.598,92.285
1683632177.546,24.902,15.137,-0.488,69.824
1683632177.550,-56.641,-38.086,-89.355,-78.613
1683632177.554,-103.027,-67.383,-100.586,-146.484
1683632177.556,-54.199,-20.996,-20.508,-43.945
1683632177.560,32.715,38.086,41.504,104.492
1683632177.564,47.363,10.254,2.441,97.656
1683632177.568,-28.320,-61.523,-83.008,-62.012
1683632177.572,-93.750,-76.172,-94.238,-142.090
1683632177.576,-45.410,-1.953,-13.184,-21.484
1683632177.580,52.246,58.105,49.805,130.371
1683632177.583,63.477,13.184,10.742,110.840
1683632177.587,-26.367,-87.402,-73.242,-54.199
1683632177.591,-91.309,-88.867,-95.703,-152.832
1683632177.595,-62.988,-36.133,-46.875,-87.402
1683632177.599,4.395,9.766,22.461,44.434
1683632177.601,27.344,13.672,18.066,73.242
1683632177.605,-33.691,-41.992,-58.594,-52.246
1683632177.609,-114.258,-79.590,-96.191,-176.270
1683632177.613,-89.844,-38.574,-39.551,-121.582
1683632177.617,0.977,10.254,41.504,45.898
1683632177.621,34.180,-6.348,41.504,97.656
1683632177.625,-26.855,-54.688,-38.086,-21.973
1683632177.628,-114.258,-101.074,-102.051,-169.922
1683632177.632,-111.816,-83.496,-63.965,-150.391
1683632177.636,-26.367,-9.766,21.484,15.625
1683632177.640,26.855,8.301,33.691,90.820
1683632177.644,-21.484,-37.598,-33.203,-10.742
1683632177.646,-109.375,-88.867,-95.703,-144.043
1683632177.650,-109.863,-52.246,-68.359,-130.859
1683632177.654,-22.461,11.719,14.648,15.137
1683632177.658,38.574,5.859,37.598,107.422
1683632177.662,12.207,-41.016,-22.461,41.504
1683632177.666,-67.383,-56.641,-84.961,-97.656
1683632177.670,-84.473,-46.875,-68.848,-113.281
1683632177.673,-12.207,-9.766,10.742,11.719
1683632177.677,61.523,5.859,45.410,105.469
1683632177.681,34.180,-46.387,-15.625,36.133
1683632177.685,-46.875,-82.520,-87.891,-111.328
1683632177.689,-80.566,-69.824,-77.637,-147.461
1683632177.706,-31.738,-25.879,-6.836,-31.250
1683632177.710,47.363,15.625,39.062,94.727
1683632177.714,28.320,-1.953,-9.277,50.293
1683632177.718,-70.312,-64.453,-92.285,-116.699
1683632177.722,-117.676,-82.520,-97.168,-188.477
1683632177.726,-53.223,8.789,-14.160,-77.148
1683632177.730,28.809,48.828,43.945,73.730
1683632177.733,29.785,-9.766,0.488,54.688
1683632177.737,-51.758,-52.246,-79.590,-101.562
1683632177.741,-117.188,-71.777,-95.703,-179.199
1683632177.745,-76.660,-38.574,-22.949,-70.312
1683632177.749,15.625,13.672,52.734,89.844
1683632177.751,26.855,-9.277,22.949,89.844
1683632177.755,-49.805,-61.035,-59.570,-53.223
1683632177.759,-115.723,-70.801,-82.520,-147.949
1683632177.763,-93.750,-47.852,-32.227,-82.520
1683632177.767,1.953,3.418,37.109,78.613
1683632177.771,28.320,27.832,37.109,117.676
1683632177.775,-54.688,-27.832,-44.922,-18.066
1683632177.778,-126.465,-89.355,-97.168,-143.066
1683632177.782,-95.703,-87.891,-51.758,-101.074
1683632177.786,-8.789,-22.461,31.250,44.922
1683632177.790,25.879,12.695,37.109,85.938
1683632177.794,-27.832,-8.301,-35.156,-21.484
1683632177.796,-107.422,-65.918,-97.168,-155.273
1683632177.800,-102.051,-58.594,-62.012,-143.066
1683632177.804,-13.184,-0.488,26.855,14.648
1683632177.808,36.621,11.230,46.875,92.773
1683632177.812,-12.695,-35.645,-28.320,-10.254
1683632177.816,-101.074,-60.059,-89.355,-163.574
1683632177.820,-109.863,-38.086,-59.082,-158.203
1683632177.823,-22.461,-15.625,16.602,2.441
1683632177.827,41.992,0.488,33.203,98.633
1683632177.831,-1.953,-14.648,-32.227,8.789
1683632177.835,-87.891,-71.777,-99.609,-141.602
1683632177.839,-104.492,-73.730,-82.520,-152.832
1683632177.841,-24.414,-7.812,4.883,-6.348
1683632177.845,44.922,46.875,53.711,115.234
1683632177.849,12.207,-1.465,0.000,43.457
1683632177.853,-77.148,-86.426,-84.961,-125.977
1683632177.857,-114.746,-90.332,-86.426,-157.715
1683632177.861,-51.758,-11.230,-2.930,-14.160
1683632177.865,27.832,33.203,51.270,112.305
1683632177.868,22.461,-11.719,8.789,65.918
1683632177.872,-57.617,-95.703,-79.590,-87.402
1683632177.876,-104.004,-82.031,-82.031,-138.672
1683632177.880,-51.270,-17.578,-0.977,-32.227
1683632177.884,32.227,14.648,52.246,100.586
1683632177.886,40.039,-7.324,20.996,84.961
1683632177.890,-34.180,-51.270,-56.641,-64.453
1683632177.894,-94.238,-65.430,-75.684,-147.949
1683632177.898,-51.758,-6.348,-9.277,-51.758
1683632177.902,36.621,33.203,52.734,80.566
1683632177.906,49.316,23.438,33.691,88.867
1683632177.910,-22.949,-35.645,-54.688,-47.852
1683632177.913,-98.145,-89.355,-94.727,-160.156
1683632177.917,-74.707,-62.500,-39.551,-87.402
1683632177.921,11.230,-3.906,37.598,56.152
1683632177.925,41.992,13.184,33.691,83.496
1683632177.929,-33.203,-55.176,-54.199,-53.711
1683632177.931,-113.770,-89.844,-92.285,-175.293
1683632177.935,-80.078,-43.457,-32.715,-99.121
1683632177.939,0.488,1.953,40.039,51.758
1683632177.943,24.902,2.441,37.598,83.984
1683632177.947,-30.273,-55.664,-38.086,-30.273
1683632177.951,-107.422,-63.477,-84.961,-143.555
1683632177.955,-102.051,-17.090,-43.457,-115.234
1683632177.958,-18.066,30.273,35.156,40.527
1683632177.962,34.180,-9.766,34.668,104.492
1683632177.966,-14.648,-74.219,-42.480,-4.883
1683632177.970,-90.332,-95.215,-99.121,-147.461
1683632177.974,-93.750,-62.012,-67.383,-137.207
1683632177.931,-113.770,-89.844,-92.285,-175.293
1683632177.935,-80.078,-43.457,-32.715,-99.121
1683632177.939,0.488,1.953,40.039,51.758
1683632177.943,24.902,2.441,37.598,83.984
1683632177.947,-30.273,-55.664,-38.086,-30.273
1683632177.951,-107.422,-63.477,-84.961,-143.555
1683632177.955,-102.051,-17.090,-43.457,-115.234
1683632177.958,-18.066,30.273,35.156,40.527
1683632177.962,34.180,-9.766,34.668,104.492
1683632177.966,-14.648,-74.219,-42.480,-4.883
1683632177.970,-90.332,-95.215,-99.121,-147.461
1683632177.974,-93.750,-62.012,-67.383,-137.207
1683632177.991,-15.625,3.418,16.602,11.230
1683632177.995,51.758,20.508,38.086,98.633
1683632177.999,7.812,-18.555,-30.762,12.207
1683632178.003,-81.055,-59.570,-102.539,-136.719
1683632178.007,-96.680,-59.082,-83.496,-149.414
1683632178.011,-21.484,29.297,7.324,-11.230
1683632178.015,56.152,66.406,43.945,107.910
1683632178.018,28.320,-27.344,-24.414,33.203
1683632178.022,-62.500,-81.055,-99.609,-127.930
1683632178.026,-94.238,-55.176,-83.008,-157.715
1683632178.030,-40.527,-3.906,-1.465,-30.762
1683632178.034,36.133,26.855,41.992,92.285
1683632177.991,-15.625,3.418,16.602,11.230
1683632177.995,51.758,20.508,38.086,98.633
1683632177.999,7.812,-18.555,-30.762,12.207
1683632178.003,-81.055,-59.570,-102.539,-136.719
1683632178.007,-96.680,-59.082,-83.496,-149.414
1683632178.011,-21.484,29.297,7.324,-11.230
1683632178.015,56.152,66.406,43.945,107.910
1683632178.018,28.320,-27.344,-24.414,33.203
1683632178.022,-62.500,-81.055,-99.609,-127.930
1683632178.026,-94.238,-55.176,-83.008,-157.715
1683632178.030,-40.527,-3.906,-1.465,-30.762
1683632178.034,36.133,26.855,41.992,92.285
1683632178.021,23.438,-18.066,-11.719,51.758
1683632178.025,-62.500,-63.965,-87.402,-101.074
1683632178.029,-110.352,-62.988,-83.984,-160.156
1683632178.033,-56.152,-27.344,-4.883,-38.086
1683632178.037,38.086,3.906,56.152,112.793
1683632178.041,34.668,3.906,21.484,90.332
1683632178.045,-47.852,-42.969,-67.383,-65.918
1683632178.048,-103.516,-77.148,-86.426,-140.137
1683632178.052,-63.965,-42.969,-13.184,-46.875
1683632178.056,31.250,7.324,45.898,92.773
1683632178.060,51.270,9.277,15.625,101.562
1683632178.064,-35.156,-31.738,-65.430,-49.805
1683632178.081,-113.281,-80.078,-105.957,-164.062
1683632178.085,-82.520,-44.922,-46.875,-77.148
1683632178.089,14.648,36.133,37.598,84.473
1683632178.093,40.527,26.855,22.949,87.402
1683632178.097,-37.598,-55.664,-67.871,-60.547
1683632178.101,-107.422,-52.246,-98.633,-178.223
1683632178.105,-78.125,-3.906,-38.574,-113.281
1683632178.108,14.160,18.066,38.086,47.852
1683632178.112,52.246,1.465,33.203,84.961
1683632178.116,-14.160,-37.598,-43.457,-35.156
1683632178.120,-88.379,-56.641,-86.426,-146.973
1683632178.124,-75.684,-46.387,-48.828,-108.887
1683632178.081,-113.281,-80.078,-105.957,-164.062
1683632178.085,-82.520,-44.922,-46.875,-77.148
1683632178.089,14.648,36.133,37.598,84.473
1683632178.093,40.527,26.855,22.949,87.402
1683632178.097,-37.598,-55.664,-67.871,-60.547
1683632178.101,-107.422,-52.246,-98.633,-178.223
1683632178.105,-78.125,-3.906,-38.574,-113.281
1683632178.108,14.160,18.066,38.086,47.852
1683632178.112,52.246,1.465,33.203,84.961
1683632178.116,-14.160,-37.598,-43.457,-35.156
1683632178.120,-88.379,-56.641,-86.426,-146.973
1683632178.124,-75.684,-46.387,-48.828,-108.887
1683632178.126,12.695,11.719,29.297,52.246
1683632178.130,68.359,45.898,48.340,136.230
1683632178.134,14.160,-16.113,-25.391,27.344
1683632178.138,-77.148,-76.660,-86.914,-132.324
1683632178.142,-90.332,-54.199,-52.734,-125.488
1683632178.146,-10.254,25.879,37.109,38.574
1683632178.150,47.852,41.016,55.664,133.301
1683632178.153,-1.953,-34.668,-18.555,30.762
1683632178.157,-88.379,-120.605,-95.215,-124.512
1683632178.161,-107.422,-83.008,-72.266,-138.672
1683632178.165,-37.598,-5.371,13.184,2.441
1683632178.169,36.621,17.578,47.852,117.188
1683632178.171,11.230,-27.344,-12.695,42.480
1683632178.175,-72.754,-83.496,-91.797,-124.023
1683632178.179,-102.539,-67.383,-84.473,-153.320
1683632178.183,-34.180,-9.277,-5.371,-27.832
1683632178.187,38.574,19.531,37.598,91.797
1683632178.191,26.367,18.066,-7.324,47.852
1683632178.195,-54.688,-46.387,-86.914,-119.629
1683632178.198,-98.633,-85.449,-90.820,-178.223
1683632178.202,-51.270,-56.641,-24.414,-73.242
1683632178.206,29.785,-4.883,31.738,54.688
1683632178.210,30.273,-7.324,3.906,41.016
1683632178.214,-49.805,-52.734,-74.219,-97.168
1683632178.171,11.230,-27.344,-12.695,42.480
1683632178.175,-72.754,-83.496,-91.797,-124.023
1683632178.179,-102.539,-67.383,-84.473,-153.320
1683632178.183,-34.180,-9.277,-5.371,-27.832
1683632178.187,38.574,19.531,37.598,91.797
1683632178.191,26.367,18.066,-7.324,47.852
1683632178.195,-54.688,-46.387,-86.914,-119.629
1683632178.198,-98.633,-85.449,-90.820,-178.223
1683632178.202,-51.270,-56.641,-24.414,-73.242
1683632178.206,29.785,-4.883,31.738,54.688
1683632178.210,30.273,-7.324,3.906,41.016
1683632178.214,-49.805,-52.734,-74.219,-97.168
1683632178.216,-94.238,-59.570,-90.332,-169.434
1683632178.220,-47.852,-19.043,-24.902,-76.172
1683632178.224,41.992,25.879,41.504,77.148
1683632178.228,49.316,-0.977,17.578,87.402
1683632178.232,-38.574,-77.637,-68.848,-74.707
1683632178.236,-95.703,-78.613,-80.566,-164.062
1683632178.240,-58.105,-14.648,-7.324,-61.035
1683632178.243,18.555,20.508,57.129,92.285
1683632178.247,34.668,-40.527,32.227,104.980
1683632178.251,-41.992,-83.496,-49.316,-34.180
1683632178.255,-126.953,-80.566,-82.031,-150.879
1683632178.259,-113.281,-60.547,-32.227,-104.492
1683632178.261,-19.531,-21.973,32.715,44.434
1683632178.265,26.367,-11.719,30.762,89.355
1683632178.269,-35.156,-38.574,-38.574,-32.715
1683632178.273,-120.117,-85.938,-91.309,-173.340
1683632178.277,-111.328,-91.797,-55.664,-145.020
1683632178.281,-23.438,11.230,32.715,17.090
1683632178.285,26.367,39.551,44.922,76.172
1683632178.288,-32.227,-60.547,-41.504,-46.387
1683632178.292,-119.141,-105.957,-102.051,-192.383
1683632178.296,-106.445,-63.477,-57.129,-166.016
1683632178.300,-15.137,-0.488,32.227,4.395
1683632178.304,42.969,15.137,47.363,87.402
1683632178.306,4.883,-40.527,-28.320,-19.043
1683632178.310,-77.148,-79.102,-90.332,-147.461
1683632178.314,-84.473,-49.805,-64.453,-133.789
1683632178.318,-14.648,-0.977,17.090,0.488
1683632178.322,53.223,16.602,53.223,104.492
1683632178.326,33.203,5.859,-7.324,47.363
1683632178.330,-53.223,-23.438,-82.520,-102.539
1683632178.333,-85.938,-32.227,-75.684,-133.301
1683632178.337,-26.855,-35.156,-6.836,-7.812
1683632178.341,49.316,-4.883,41.992,113.281
1683632178.345,32.715,4.395,3.906,67.871
1683632178.349,-52.734,-66.895,-77.148,-95.215
1683632178.351,-88.867,-95.703,-86.914,-146.484
1683632178.355,-39.551,-22.461,-9.766,-27.832
1683632178.359,41.016,23.926,49.316,101.562
1683632178.363,41.016,-9.277,9.277,60.547
1683632178.367,-56.641,-80.566,-76.660,-108.887
1683632178.371,-111.816,-53.223,-80.566,-187.988
1683632178.375,-58.105,-0.977,-5.859,-82.031
1683632178.378,15.625,-5.859,50.293,55.176
1683632178.382,20.996,-17.090,20.508,49.316
1683632178.386,-56.641,-54.199,-61.035,-98.145
1683632178.390,-129.883,-81.055,-81.543,-186.523
1683632178.394,-92.773,-47.852,-18.555,-101.074
1683632178.351,-88.867,-95.703,-86.914,-146.484
1683632178.355,-39.551,-22.461,-9.766,-27.832
1683632178.359,41.016,23.926,49.316,101.562
1683632178.363,41.016,-9.277,9.277,60.547
1683632178.367,-56.641,-80.566,-76.660,-108.887
1683632178.371,-111.816,-53.223,-80.566,-187.988
1683632178.375,-58.105,-0.977,-5.859,-82.031
1683632178.378,15.625,-5.859,50.293,55.176
1683632178.382,20.996,-17.090,20.508,49.316
1683632178.386,-56.641,-54.199,-61.035,-98.145
1683632178.390,-129.883,-81.055,-81.543,-186.523
1683632178.394,-92.773,-47.852,-18.555,-101.074
1683632178.396,6.348,13.184,48.828,54.688
1683632178.400,27.344,15.625,25.391,72.754
1683632178.404,-39.062,-55.176,-62.988,-69.336
1683632178.408,-101.074,-87.891,-100.586,-176.270
1683632178.412,-82.031,-40.527,-40.039,-96.191
1683632178.416,18.066,23.926,41.992,88.867
1683632178.420,65.430,22.949,34.668,138.672
1683632178.423,-2.441,-50.293,-52.246,-5.371
1683632178.427,-91.309,-105.469,-105.469,-140.625
1683632178.431,-81.055,-61.035,-58.105,-91.309
1683632178.435,10.254,-9.277,19.531,63.477
1683632178.439,54.688,4.395,28.809,122.559
1683632178.456,-18.066,-60.547,-50.293,-11.719
1683632178.460,-105.957,-93.750,-102.051,-146.484
1683632178.464,-98.145,-58.105,-63.477,-109.375
1683632178.468,-12.695,-7.812,19.531,34.668
1683632178.472,52.246,20.020,37.598,108.398
1683632178.476,1.465,-23.926,-36.621,10.254
1683632178.480,-99.609,-80.566,-104.004,-138.184
1683632178.483,-117.676,-85.449,-83.984,-158.691
1683632178.487,-34.668,-18.555,4.395,-15.137
1683632178.491,32.227,20.996,41.504,98.145
1683632178.495,-10.742,-19.531,-15.137,13.672
1683632178.499,-105.957,-69.336,-87.891,-146.484
1683632178.501,-130.371,-70.801,-81.543,-176.758
1683632178.505,-61.035,-28.320,-1.953,-51.758
1683632178.509,11.719,10.742,39.551,74.219
1683632178.513,-1.465,-11.719,-13.672,25.879
1683632178.517,-84.473,-49.805,-85.938,-130.859
1683632178.521,-119.629,-34.668,-75.195,-170.898
1683632178.525,-60.547,-8.301,-4.883,-43.945
1683632178.528,17.090,23.926,47.363,77.637
1683632178.532,4.883,-29.785,1.953,37.598
1683632178.536,-73.242,-89.355,-89.355,-97.656
1683632178.540,-103.516,-78.125,-98.633,-151.367
1683632178.544,-46.387,-38.086,-20.996,-39.551
1683632178.546,39.551,20.996,47.852,104.980
1683632178.550,34.180,-2.930,7.324,80.078
1683632178.554,-55.176,-62.988,-83.496,-63.477
1683632178.558,-104.980,-75.684,-105.469,-147.461
1683632178.562,-58.105,-50.781,-43.457,-71.777
1683632178.566,33.691,34.180,32.715,82.031
1683632178.570,49.316,22.461,22.461,101.562
1683632178.573,-32.227,-74.707,-64.453,-45.410
1683632178.577,-97.656,-85.938,-103.516,-153.809
1683632178.581,-50.781,-37.598,-41.504,-77.637
1683632178.585,36.621,14.160,28.809,76.172
1683632178.589,45.898,0.977,13.184,95.215
1683632178.591,-28.809,-66.406,-61.523,-40.527
1683632178.595,-115.723,-86.426,-99.609,-167.480
1683632178.599,-110.352,-42.969,-47.363,-127.441
1683632178.603,-27.832,4.883,30.273,20.996
1683632178.607,12.207,2.930,29.297,68.848
1683632178.611,-35.645,-23.926,-46.387,-49.805
1683632178.615,-104.492,-48.340,-97.168,-182.129
1683632178.618,-113.281,-53.711,-64.453,-150.391
1683632178.622,-31.250,-18.555,11.719,5.371
1683632178.626,27.832,17.090,32.715,101.074
1683632178.630,-25.391,-14.160,-32.715,20.508
1683632178.634,-102.539,-66.406,-92.285,-123.535
1683632178.636,-104.980,-72.266,-74.219,-121.582
1683632178.640,-26.367,-12.207,1.953,25.391
1683632178.644,47.852,29.785,37.109,128.906
1683632178.648,17.578,-14.648,-27.344,52.734
1683632178.652,-68.848,-76.172,-101.074,-98.633
1683632178.656,-84.473,-37.598,-77.637,-108.887
1683632178.660,-1.465,33.691,10.742,25.391
1683632178.663,72.266,12.695,36.621,119.141
1683632178.667,41.016,-39.551,-13.184,59.082
1683632178.671,-40.527,-75.684,-80.078,-99.609
1683632178.675,-69.336,-63.965,-89.844,-151.855
1683632178.679,-13.672,-8.301,-13.184,-25.391
1683632178.682,58.594,26.367,45.898,94.727
1683632178.686,32.227,17.090,1.953,45.898
1683632178.690,-73.730,-71.289,-83.496,-124.023
1683632178.694,-120.605,-86.914,-91.309,-187.012
1683632178.698,-68.359,-25.391,-19.043,-76.660
1683632178.702,14.160,33.691,45.410,72.266
1683632178.706,21.484,36.133,12.207,67.383
1683632178.709,-67.871,-51.758,-82.031,-102.539
1683632178.713,-138.184,-114.746,-109.375,-206.055
1683632178.717,-83.496,-53.223,-36.133,-97.656
1683632178.721,13.184,12.695,31.250,56.152
1683632178.725,31.250,-0.488,8.789,59.082
1683632178.726,-33.203,-59.082,-73.730,-73.730
1683632178.730,-104.492,-81.543,-103.516,-162.598
1683632178.734,-79.102,-32.715,-34.668,-71.289
1683632178.738,25.879,19.531,45.410,86.426
1683632178.742,69.336,26.367,44.434,123.535
1683632178.746,-5.371,-17.090,-39.551,-3.418
1683632178.750,-93.262,-63.477,-92.285,-130.859
1683632178.753,-92.773,-50.781,-49.805,-93.750
1683632178.757,0.488,5.371,29.785,64.941
1683632178.761,54.688,20.508,41.504,128.906
1683632178.765,-7.324,-21.973,-33.691,9.766
1683632178.769,-87.402,-70.801,-95.215,-132.812
1683632178.771,-86.914,-58.594,-59.570,-121.094
1683632178.775,-8.301,15.137,27.344,32.715
1683632178.779,40.527,29.297,42.969,104.980
1683632178.783,-17.578,-45.410,-36.133,-10.742
1683632178.787,-102.539,-88.867,-102.051,-158.691
1683632178.791,-107.422,-29.785,-69.336,-151.855
1683632178.795,-20.508,19.043,14.160,-2.441
1683632178.798,43.945,41.016,42.480,96.191
1683632178.802,-8.301,-32.715,-29.297,2.930
1683632178.806,-107.422,-119.629,-112.793,-168.945
1683632178.810,-131.836,-65.430,-91.797,-196.777
1683632178.814,-59.570,0.488,-5.371,-49.805
1683632178.831,14.160,15.137,34.180,78.613
1683632178.835,-6.348,-21.973,-18.066,35.645
1683632178.839,-82.520,-64.453,-88.867,-106.445
1683632178.843,-103.027,-61.035,-76.660,-133.789
1683632178.847,-23.926,-15.137,9.277,12.695
1683632178.851,65.430,51.758,73.242,153.320
1683632178.855,52.246,2.930,22.949,103.516
1683632178.858,-45.410,-98.145,-73.730,-73.730
1683632178.862,-93.750,-78.125,-81.055,-137.695
1683632178.866,-34.180,-19.043,-9.766,-21.484
1683632178.870,49.316,1.465,46.387,106.934
1683632178.874,49.805,-19.531,4.883,80.566
1683632178.876,-48.828,-78.125,-86.426,-81.055
1683632178.880,-113.770,-85.938,-99.609,-169.434
1683632178.884,-70.312,-47.852,-33.203,-81.055
1683632178.888,24.902,6.836,33.203,75.684
1683632178.892,49.805,7.812,16.113,87.891
1683632178.896,-30.762,-37.598,-66.406,-69.824
1683632178.900,-112.793,-68.359,-105.469,-185.547
1683632178.903,-81.055,-41.504,-48.828,-111.328
1683632178.907,12.695,-9.277,24.414,45.410
1683632178.911,30.762,-12.695,17.578,68.848
1683632178.915,-56.641,-42.969,-51.758,-68.359
1683632178.919,-135.254,-66.406,-88.867,-176.758
1683632178.921,-105.957,-54.688,-42.480,-115.723
1683632178.925,-15.625,4.883,41.504,43.945
1683632178.929,17.578,18.066,44.434,92.773
1683632178.933,-38.574,-40.039,-36.133,-21.484
1683632178.937,-95.215,-79.590,-91.309,-136.719
1683632178.941,-74.707,-20.020,-45.410,-93.750
1683632178.945,9.766,32.227,36.133,63.965
1683632178.948,56.152,-2.441,43.457,128.906
1683632178.952,5.371,-41.504,-26.855,18.066
1683632178.956,-72.266,-79.590,-95.215,-130.371
1683632178.960,-80.566,-62.988,-69.824,-133.789
1683632178.964,-1.465,3.418,16.113,14.648
1683632178.966,53.223,3.906,30.273,104.004
1683632178.970,15.137,-18.066,-27.832,21.973
1683632178.974,-74.707,-67.871,-93.750,-127.441
1683632178.978,-101.562,-81.543,-84.961,-153.320
1683632178.982,-37.598,-20.996,-0.488,-16.602
1683632178.986,29.785,28.320,45.410,92.285
1683632178.990,9.766,16.113,-7.324,31.250
1683632178.993,-85.938,-63.965,-92.285,-135.742
1683632178.997,-122.070,-103.516,-94.727,-186.523
1683632179.001,-56.641,-21.484,-5.371,-43.945
1683632179.005,12.695,21.973,47.363,76.660
1683632179.009,0.488,-13.184,2.441,29.785
1683632179.011,-73.242,-60.059,-74.707,-112.793
1683632179.015,-123.047,-65.918,-80.566,-181.152
1683632179.019,-66.406,-22.461,-3.906,-76.172
1683632179.023,34.668,34.180,54.688,71.289
1683632179.027,53.711,22.461,17.578,66.895
1683632179.031,-14.160,-16.602,-59.082,-72.266
1683632179.035,-76.172,-31.738,-79.590,-135.254
1683632179.038,-45.410,-33.203,-23.926,-37.598
1683632179.042,40.039,0.000,39.551,95.703
1683632179.046,57.617,21.484,21.973,106.445
1683632179.050,-25.391,-21.973,-58.594,-35.645
1683632179.054,-91.797,-66.406,-90.332,-139.648
1683632179.056,-64.941,-45.410,-39.062,-68.848
1683632179.060,20.020,28.809,32.715,76.660
1683632179.064,40.527,24.902,20.020,100.586
1683632179.068,-38.574,-67.871,-69.336,-41.992
1683632179.072,-101.562,-89.355,-105.957,-154.297
1683632179.076,-67.871,-16.113,-45.898,-83.496
1683632179.080,20.020,37.109,30.762,77.148
1683632179.083,56.152,17.090,27.344,112.305
1683632179.087,-15.137,-78.125,-56.152,-19.531
1683632179.091,-105.957,-117.676,-105.469,-156.250
1683632179.095,-97.168,-67.871,-59.570,-122.070
1683632179.099,-17.578,-19.043,18.066,36.133
1683632179.101,26.367,-12.695,30.273,91.309
1683632179.105,-32.715,-62.012,-44.434,-31.250
1683632179.109,-126.465,-87.891,-107.422,-179.199
1683632179.113,-126.465,-58.105,-68.359,-166.992
1683632179.117,-42.480,-16.602,13.184,-14.648
1683632179.121,16.113,40.527,46.387,73.730
1683632179.125,-21.484,-3.418,-21.973,-20.020
1683632179.128,-110.840,-95.215,-100.098,-173.828
1683632179.132,-132.812,-76.172,-82.031,-189.941
1683632179.136,-58.105,-33.691,-8.789,-50.293
1683632179.140,19.531,-11.719,30.762,70.312
1683632179.144,11.230,-34.668,-18.555,21.484
1683632179.146,-62.012,-95.215,-95.215,-114.258
1683632179.150,-82.031,-84.473,-83.984,-139.160
1683632179.154,-19.531,-23.438,4.395,0.488
1683632179.158,48.828,5.859,54.688,128.906
1683632179.162,31.250,-31.250,5.859,78.125
1683632179.166,-62.988,-56.641,-67.383,-72.754
1683632179.170,-104.980,-59.570,-70.801,-126.465
1683632179.173,-45.898,-46.875,-7.812,-26.855
1683632179.177,39.062,-9.766,46.875,116.211
1683632179.181,45.410,-17.578,13.672,100.586
1683632179.185,-42.969,-64.453,-70.801,-70.801
1683632179.189,-106.445,-71.289,-88.867,-160.156
1683632179.206,-61.035,-48.340,-27.832,-72.754
1683632179.210,22.949,1.465,34.180,64.453
1683632179.214,35.156,-7.324,12.207,67.871
1683632179.218,-49.805,-65.430,-70.312,-77.148
1683632179.222,-123.047,-91.797,-101.074,-195.801
1683632179.226,-84.961,-23.926,-29.297,-115.723
1683632179.230,6.836,25.879,41.016,41.016
1683632179.233,27.832,-19.043,12.207,56.641
1683632179.237,-46.875,-85.938,-72.754,-79.102
1683632179.241,-116.211,-96.680,-105.957,-188.477
1683632179.245,-88.867,-34.668,-45.410,-115.234
1683632179.249,11.719,12.207,35.156,54.199
1683632179.206,-61.035,-48.340,-27.832,-72.754
1683632179.210,22.949,1.465,34.180,64.453
1683632179.214,35.156,-7.324,12.207,67.871
1683632179.218,-49.805,-65.430,-70.312,-77.148
1683632179.222,-123.047,-91.797,-101.074,-195.801
1683632179.226,-84.961,-23.926,-29.297,-115.723
1683632179.230,6.836,25.879,41.016,41.016
1683632179.233,27.832,-19.043,12.207,56.641
1683632179.237,-46.875,-85.938,-72.754,-79.102
1683632179.241,-116.211,-96.680,-105.957,-188.477
1683632179.245,-88.867,-34.668,-45.410,-115.234
1683632179.249,11.719,12.207,35.156,54.199
1683632179.251,55.176,-6.348,34.668,102.539
1683632179.255,-10.254,-41.992,-43.945,-19.043
1683632179.259,-89.844,-78.613,-93.750,-147.461
1683632179.263,-83.008,-68.848,-47.852,-105.957
1683632179.267,-3.906,-7.324,35.156,50.781
1683632179.271,45.410,35.645,44.434,117.188
1683632179.275,-7.324,-25.879,-29.785,5.371
1683632179.278,-93.750,-96.680,-95.703,-146.484
1683632179.282,-102.539,-100.098,-73.730,-142.090
1683632179.286,-20.508,-37.109,6.836,12.695
1683632179.290,51.270,12.695,35.156,116.211
1683632179.294,14.648,-27.344,-24.414,31.250
1683632179.296,-85.938,-84.961,-90.820,-133.301
1683632179.300,-101.074,-69.336,-70.312,-145.508
1683632179.304,-14.648,-11.230,13.672,5.859
1683632179.308,58.105,22.461,53.223,107.422
1683632179.312,28.320,-20.996,-10.254,31.250
1683632179.316,-58.105,-70.801,-89.844,-123.535
1683632179.320,-98.633,-49.805,-81.055,-161.133
1683632179.323,-50.293,-30.762,-13.184,-41.992
1683632179.327,22.461,-8.789,31.738,78.125
1683632179.331,17.090,-19.531,-10.742,40.527
1683632179.335,-65.430,-69.824,-88.379,-105.957
1683632179.339,-109.863,-73.730,-90.820,-157.715
1683632179.341,-55.176,-31.738,-15.137,-43.945
1683632179.345,19.043,13.184,46.387,94.727
1683632179.349,14.648,-5.859,13.184,79.590
1683632179.353,-61.035,-58.594,-69.824,-75.195
1683632179.357,-105.469,-80.566,-89.355,-154.785
1683632179.361,-53.223,-20.020,-16.602,-51.270
1683632179.365,35.156,40.039,53.223,96.191
1683632179.368,45.898,21.484,23.926,96.191
1683632179.372,-45.898,-83.008,-81.543,-73.242
1683632179.376,-111.328,-128.906,-107.422,-188.477
1683632179.380,-70.312,-65.430,-33.203,-92.773
1683632179.384,15.137,-3.906,31.250,60.059
1683632179.386,31.250,-7.812,19.043,72.754
1683632179.390,-44.922,-62.012,-59.570,-57.129
1683632179.394,-103.516,-83.008,-98.145,-171.875
1683632179.398,-76.660,-20.996,-36.133,-105.469
1683632179.402,-6.348,20.020,30.762,42.480
1683632179.406,26.367,16.602,27.832,77.637
1683632179.410,-27.344,-39.551,-46.875,-37.598
1683632179.413,-107.910,-97.168,-102.539,-167.969
1683632179.417,-104.980,-58.105,-56.641,-137.695
1683632179.421,-14.648,-11.719,22.949,17.090
1683632179.425,35.645,-12.207,28.320,88.867
1683632179.429,-14.160,-45.410,-44.434,-21.484
1683632179.431,-89.844,-94.238,-106.934,-165.527
1683632179.435,-94.727,-75.195,-73.730,-141.602
1683632179.439,-8.789,-1.465,13.184,23.926
1683632179.443,47.363,19.043,34.668,118.164
1683632179.447,3.418,-26.855,-29.785,28.320
1683632179.451,-84.961,-52.246,-87.402,-117.188
1683632179.455,-103.516,-36.621,-58.594,-123.047
1683632179.458,-31.738,-4.395,20.508,23.438
1683632179.462,32.715,-2.441,44.434,124.023
1683632179.466,1.953,-27.344,-13.672,43.945
1683632179.470,-90.820,-61.523,-81.055,-113.281
1683632179.474,-118.164,-47.852,-66.406,-144.043
1683632179.476,-46.875,-21.484,3.906,-23.926
1683632179.480,31.738,20.020,42.480,89.844
1683632179.484,12.207,15.137,-4.395,38.086
1683632179.488,-73.242,-48.340,-85.449,-118.652
1683632179.492,-113.281,-64.453,-91.797,-168.945
1683632179.496,-53.223,7.812,-9.766,-54.688
1683632179.500,32.715,51.270,46.875,87.891
1683632179.503,24.902,-20.020,-3.906,57.129
1683632179.507,-54.199,-87.891,-80.566,-102.051
1683632179.511,-107.910,-69.824,-85.449,-168.457
1683632179.515,-62.988,-0.977,-15.137,-65.918
1683632179.519,21.973,28.320,40.527,76.172
1683632179.521,25.879,-6.348,12.695,69.336
1683632179.525,-54.688,-41.504,-65.430,-82.031
1683632179.529,-120.117,-75.684,-89.844,-176.270
1683632179.533,-80.078,-50.293,-32.715,-107.422
1683632179.537,6.348,7.324,31.738,41.016
1683632179.541,31.738,17.578,26.855,76.660
1683632179.545,-40.039,-22.949,-47.363,-53.711
1683632179.548,-112.305,-79.102,-90.820,-158.203
1683632179.552,-84.473,-95.215,-47.363,-107.910
1683632179.556,14.160,-13.184,35.645,53.223
1683632179.560,60.547,16.113,39.551,113.281
1683632179.564,3.906,-51.758,-41.016,-8.301
1683632179.581,-72.754,-92.285,-86.914,-130.859
1683632179.585,-64.941,-50.781,-42.969,-88.379
1683632179.589,11.230,20.020,33.691,54.688
1683632179.593,59.082,28.809,40.527,107.422
1683632179.597,-3.906,-45.898,-39.062,-12.207
1683632179.601,-98.145,-56.641,-90.332,-150.391
1683632179.605,-96.680,-20.508,-58.594,-134.277
1683632179.608,-15.625,-11.719,5.859,7.812
1683632179.612,43.945,-5.859,24.414,92.285
1683632179.616,3.906,-45.410,-36.133,5.859
1683632179.620,-83.496,-70.312,-98.145,-141.113
1683632179.624,-106.445,-45.410,-75.684,-146.973
1683632179.626,-23.926,-12.695,5.859,10.254
1683632179.630,39.062,10.742,42.969,102.539
1683632179.634,-1.953,-20.996,-17.090,18.555
1683632179.638,-90.820,-86.914,-92.773,-133.789
1683632179.642,-113.770,-76.172,-85.938,-165.039
1683632179.646,-34.180,14.648,-1.953,-22.949
1683632179.650,44.434,29.785,45.410,97.656
1683632179.653,19.531,-23.926,-1.953,36.621
1683632179.657,-74.707,-88.867,-81.543,-124.512
1683632179.661,-114.258,-103.516,-91.309,-174.805
1683632179.665,-58.105,-30.762,-18.066,-60.547
1683632179.669,30.762,31.250,38.086,87.891
1683632179.671,31.250,-8.301,-2.930,62.988
1683632179.675,-61.035,-77.148,-83.496,-120.117
1683632179.679,-110.840,-70.312,-91.797,-185.547
1683632179.683,-57.617,-22.461,-20.508,-62.012
1683632179.687,17.090,19.531,41.992,86.426
1683632179.691,32.227,27.344,16.113,80.566
1683632179.695,-42.969,-46.387,-68.848,-78.125
1683632179.698,-109.863,-83.008,-96.680,-165.527
1683632179.702,-67.383,-19.043,-34.668,-72.754
1683632179.706,22.949,27.832,33.203,76.172
1683632179.710,38.574,4.883,16.602,94.727
1683632179.714,-41.504,-46.387,-65.918,-46.875
1683632179.717,-108.398,-71.289,-105.469,-155.273
1683632179.721,-80.078,-28.320,-45.898,-79.102
1683632179.725,8.789,19.043,37.598,70.801
1683632179.729,44.922,8.789,32.715,103.027
1683632179.733,-24.414,-62.012,-49.805,-29.785
1683632179.737,-106.445,-66.895,-87.402,-150.391
1683632179.741,-88.379,-22.949,-39.062,-98.633
1683632179.744,-4.395,-0.977,25.391,44.434
1683632179.748,38.574,-31.250,23.926,88.867
1683632179.752,-12.207,-66.406,-43.945,-19.043
1683632179.756,-97.168,-69.824,-98.145,-155.273
1683632179.760,-94.727,-32.227,-64.941,-132.812
1683632179.761,-13.672,-1.465,8.789,15.137
1683632179.765,45.410,9.766,24.902,95.703
1683632179.769,2.441,-18.066,-43.945,2.441
1683632179.773,-82.520,-72.754,-107.422,-136.719
1683632179.777,-93.262,-69.336,-81.543,-130.859
1683632179.781,-23.438,20.996,10.254,25.879
1683632179.785,45.898,58.105,44.434,141.602
1683632179.788,15.625,-26.855,-26.367,54.688
1683632179.792,-80.566,-98.145,-103.516,-116.211
1683632179.796,-106.445,-66.406,-80.566,-141.602
1683632179.800,-31.738,14.160,6.348,12.207
1683632179.804,45.410,43.457,44.434,136.719
1683632179.806,20.508,-16.113,-9.766,74.707
1683632179.810,-68.848,-70.801,-81.055,-81.055
1683632179.814,-105.469,-81.543,-83.008,-135.254
1683632179.818,-50.293,-45.898,-13.184,-18.066
1683632179.822,26.367,-9.766,35.645,114.258
1683632179.826,25.391,1.953,-0.977,78.613
1683632179.830,-59.082,-27.344,-75.195,-73.730
1683632179.833,-122.070,-77.148,-100.098,-151.855
1683632179.837,-77.148,-81.543,-41.504,-75.195
1683632179.841,15.137,-1.953,29.297,57.129
1683632179.845,15.625,-2.930,3.418,40.039
1683632179.849,-70.801,-77.637,-83.008,-113.281
1683632179.866,-117.188,-84.473,-98.633,-184.570
1683632179.870,-69.824,-26.367,-27.344,-87.891
1683632179.874,20.020,24.902,37.598,69.824
1683632179.878,43.457,17.578,17.578,87.891
1683632179.882,-27.832,-59.570,-65.918,-62.988
1683632179.886,-99.121,-70.312,-98.145,-172.363
1683632179.890,-67.871,-9.766,-37.109,-87.402
1683632179.893,27.344,-3.906,31.738,65.430
1683632179.897,57.617,-27.344,22.461,88.867
1683632179.901,-16.602,-60.547,-45.410,-28.320
1683632179.905,-95.703,-84.961,-86.426,-138.672
1683632179.909,-84.961,-62.988,-40.039,-86.426
1683632179.896,-1.953,-11.230,34.668,68.848
1683632179.900,46.387,2.930,37.109,122.070
1683632179.904,-9.766,-53.223,-32.227,0.000
1683632179.908,-96.191,-93.262,-83.984,-135.742
1683632179.912,-104.004,-70.312,-56.152,-112.793
1683632179.916,-16.113,13.184,27.832,40.039
1683632179.920,39.062,42.969,47.363,121.582
1683632179.923,-21.973,-29.785,-20.508,10.742
1683632179.927,-112.305,-116.699,-89.355,-149.902
1683632179.931,-117.676,-88.867,-66.895,-159.668
1683632179.935,-37.598,-12.695,13.672,-11.230
1683632179.939,29.785,18.555,41.992,91.797
1683632179.956,-7.324,-29.297,-20.996,2.441
1683632179.960,-93.750,-86.914,-90.820,-153.809
1683632179.964,-108.887,-79.590,-74.219,-177.734
1683632179.968,-36.133,-13.672,9.277,-34.668
1683632179.972,32.715,20.996,48.828,80.078
1683632179.976,17.090,10.742,-1.953,24.414
1683632179.980,-62.012,-60.547,-81.055,-116.699
1683632179.983,-98.633,-91.309,-81.055,-152.832
1683632179.987,-43.457,-32.715,-6.348,-36.621
1683632179.991,32.227,-0.977,43.457,91.797
1683632179.995,25.879,-13.184,10.254,71.777
1683632179.999,-59.570,-64.941,-66.895,-82.031
1683632180.001,-104.492,-72.266,-78.613,-142.090
1683632180.005,-59.570,-22.461,-19.531,-34.668
1683632180.009,24.902,7.812,35.156,100.098
1683632180.013,47.363,-7.812,7.812,96.191
1683632180.017,-42.969,-56.641,-72.754,-64.941
1683632180.021,-115.723,-61.035,-85.938,-158.691
1683632180.025,-63.965,-21.484,-18.066,-58.594
1683632180.028,36.133,20.020,44.434,100.586
1683632180.032,47.852,-14.648,10.742,91.797
1683632180.036,-40.527,-62.500,-67.871,-63.477
1683632180.040,-111.816,-65.918,-91.309,-165.527
1683632180.044,-86.914,-22.461,-37.109,-113.770
1683632180.046,-10.742,0.000,26.367,25.391
1683632180.050,22.949,-2.441,20.020,61.523
1683632180.054,-34.180,-24.902,-48.828,-65.430
1683632180.058,-118.164,-70.801,-98.145,-192.871
1683632180.062,-107.422,-59.570,-56.152,-140.625
1683632180.066,-9.277,26.367,32.715,31.250
1683632180.070,40.039,30.762,41.504,84.961
1683632180.073,-20.508,-51.758,-39.551,-38.574
1683632180.077,-96.680,-93.262,-90.820,-156.738
1683632180.081,-89.355,-63.965,-47.363,-122.559
1683632180.085,3.906,3.418,35.156,32.227
1683632180.089,63.477,28.809,54.688,130.371
1683632180.091,6.348,-30.273,-17.578,35.156
1683632180.095,-77.637,-60.059,-83.008,-118.652
1683632180.099,-79.590,-47.363,-55.176,-104.004
1683632180.103,5.371,-13.184,27.832,53.711
1683632180.107,76.172,20.996,57.129,147.949
1683632180.111,32.715,-4.883,-9.277,51.758
1683632180.115,-66.406,-56.641,-85.449,-101.074
1683632180.118,-90.820,-55.176,-79.102,-124.023
1683632180.122,-25.879,-35.645,-13.184,-11.719
1683632180.126,40.039,-9.766,34.180,96.680
1683632180.130,17.578,-39.551,-8.789,42.969
1683632180.134,-59.570,-92.285,-81.543,-103.027
1683632180.136,-83.496,-69.824,-73.242,-137.695
1683632180.140,-31.250,-12.695,-0.488,-28.809
1683632180.144,34.668,18.066,51.270,89.355
1683632180.148,26.855,11.719,15.137,57.617
1683632180.152,-50.293,-59.570,-75.195,-110.352
1683632180.156,-92.773,-64.941,-88.867,-180.664
1683632180.160,-48.828,-15.625,-16.602,-81.543
1683632180.163,22.461,-21.484,33.203,45.410
1683632180.167,12.695,-52.246,-8.301,19.531
1683632180.171,-69.336,-87.402,-84.473,-126.953
1683632180.175,-124.023,-80.566,-99.609,-201.172
1683632180.179,-87.402,-59.082,-37.109,-102.539
1683632180.181,3.418,-21.484,32.227,53.223
1683632180.185,25.391,-1.953,13.184,58.594
1683632180.189,-51.758,-56.641,-67.871,-84.961
1683632180.193,-120.117,-94.238,-99.121,-179.199
1683632180.197,-79.102,-54.688,-41.504,-97.168
1683632180.201,17.090,18.555,39.062,71.777
1683632180.205,43.457,19.043,31.250,112.305
1683632180.208,-23.926,-52.734,-55.664,-14.160
1683632180.212,-99.609,-111.328,-105.957,-130.859
1683632180.216,-75.195,-77.148,-57.617,-79.590
1683632180.220,10.254,-9.277,23.438,72.266
1683632180.224,42.969,-12.207,22.461,120.605
1683632180.226,-16.113,-54.199,-47.852,2.441
1683632180.230,-96.680,-83.496,-95.215,-131.836
1683632180.234,-95.215,-60.547,-59.082,-111.328
1683632180.238,-5.371,-0.977,24.902,50.293
1683632180.242,52.734,17.090,36.621,122.070
1683632180.246,3.906,0.977,-32.227,16.602
1683632180.250,-87.402,-52.734,-99.121,-139.648
1683632180.253,-114.746,-82.520,-84.473,-153.809
1683632180.257,-30.273,-29.297,-0.488,0.000
1683632180.261,36.621,20.020,28.809,99.609
1683632180.265,-8.789,-25.879,-36.133,-1.953
1683632180.269,-92.773,-77.637,-102.539,-157.715
1683632180.271,-118.164,-66.406,-80.078,-167.480
1683632180.275,-46.875,-4.395,2.441,-22.461
1683632180.279,31.738,38.574,43.945,101.074
1683632180.283,12.207,-10.254,-5.859,37.598
1683632180.287,-80.566,-58.594,-76.660,-123.047
1683632180.291,-108.887,-40.527,-67.871,-156.738
1683632180.295,-37.109,16.113,8.789,-18.555
1683632180.298,42.480,19.043,55.176,120.117
1683632180.302,32.715,-44.922,7.324,81.055
1683632180.306,-50.781,-86.914,-74.707,-78.613
1683632180.310,-93.750,-60.547,-82.031,-137.695
1683632180.314,-37.598,-5.859,-6.348,-14.160
1683632180.331,42.969,-2.930,39.062,118.164
1683632180.335,40.039,-13.184,0.977,89.844
1683632180.339,-41.504,-51.758,-77.637,-63.965
1683632180.343,-98.145,-90.820,-96.680,-149.902
1683632180.347,-50.781,-53.223,-21.973,-47.363
1683632180.351,44.922,42.969,53.711,112.793
1683632180.355,58.105,23.926,22.949,105.957
1683632180.358,-29.297,-82.520,-67.871,-50.781
1683632180.362,-101.074,-106.445,-97.168,-156.250
1683632180.366,-67.383,-42.480,-31.250,-86.914
1683632180.370,16.602,14.160,43.945,63.965
1683632180.374,35.645,-8.301,26.855,83.984
1683632180.376,-37.109,-61.035,-53.711,-59.082
1683632180.380,-113.281,-64.453,-87.891,-178.711
1683632180.384,-94.727,-42.480,-41.016,-122.070
1683632180.388,-12.207,-5.371,28.809,34.668
1683632180.392,30.273,20.508,38.574,92.285
1683632180.396,-22.461,-25.391,-37.598,-30.762
1683632180.400,-103.516,-68.848,-95.215,-166.016
1683632180.403,-96.191,-48.828,-58.594,-126.465
1683632180.407,-4.883,-29.297,7.812,30.762
1683632180.411,51.270,-7.812,20.508,102.539
1683632180.415,3.418,-37.109,-43.945,5.859
1683632180.419,-81.543,-98.633,-105.469,-136.719
1683632180.421,-95.215,-80.078,-74.219,-122.070
1683632180.425,-16.113,2.930,16.113,35.645
1683632180.429,52.734,18.066,40.039,117.188
1683632180.433,16.113,-14.648,-25.391,31.738
1683632180.437,-75.684,-51.758,-92.773,-117.188
1683632180.441,-82.031,-35.156,-71.777,-132.812
1683632180.445,-0.977,18.066,10.742,17.090
1683632180.448,57.617,9.766,41.992,112.793
1683632180.452,20.020,-32.227,-15.625,32.227
1683632180.456,-69.824,-62.012,-84.473,-116.699
1683632180.460,-103.516,-59.570,-79.102,-152.344
1683632180.464,-31.250,-3.906,-4.395,-20.508
1683632180.466,49.316,31.250,41.504,109.375
1683632180.470,27.344,1.465,-7.324,55.664
1683632180.474,-63.477,-52.246,-88.379,-102.051
1683632180.478,-105.957,-58.594,-94.727,-162.109
1683632180.482,-58.105,-11.230,-20.020,-52.246
1683632180.486,28.320,50.781,45.410,88.379
1683632180.490,34.180,28.320,13.184,73.242
1683632180.493,-57.617,-41.504,-68.359,-83.984
1683632180.497,-113.770,-81.055,-87.891,-166.016
1683632180.501,-70.801,-62.500,-26.367,-69.336
1683632180.505,14.648,0.488,40.527,82.031
1683632180.509,30.273,0.488,14.160,83.008
1683632180.511,-49.805,-52.734,-70.312,-64.941
1683632180.515,-114.258,-72.266,-98.145,-170.410
1683632180.519,-77.148,-31.738,-34.180,-85.938
1683632180.523,19.531,20.996,39.551,80.566
1683632180.527,44.922,-4.395,18.066,97.168
1683632180.531,-26.367,-54.688,-63.477,-40.527
1683632180.535,-93.750,-56.152,-101.562,-145.996
1683632180.538,-79.102,-50.293,-57.129,-97.656
1683632180.542,12.695,-5.859,20.996,57.129
1683632180.546,62.500,10.254,27.344,109.375
1683632180.550,-6.348,-52.734,-54.688,-17.578
1683632180.554,-83.496,-86.914,-107.422,-144.531
1683632180.556,-75.684,-70.312,-70.312,-120.605
1683632180.560,5.859,2.930,11.719,29.297
1683632180.564,60.059,37.598,33.203,113.281
1683632180.568,-4.395,-29.785,-37.598,-3.906
1683632180.572,-102.051,-80.078,-104.980,-160.645
1683632180.576,-103.516,-46.875,-76.172,-148.926
1683632180.580,-9.277,3.906,17.090,10.254
1683632180.583,45.410,-1.465,37.598,104.492
1683632180.587,-8.301,-69.336,-36.133,11.230
1683632180.591,-92.285,-100.098,-94.238,-139.648
1683632180.595,-104.492,-62.500,-68.848,-146.973
1683632180.599,-27.832,-17.090,5.859,-6.348
1683632180.601,36.133,-11.719,37.598,96.191
1683632180.605,11.719,-20.020,-10.742,32.227
1683632180.609,-81.055,-52.246,-84.961,-119.629
1683632180.613,-117.188,-77.148,-83.984,-153.809
1683632180.617,-39.062,-26.855,-7.812,-24.902
1683632180.621,44.434,43.457,42.969,101.074
1683632180.625,31.250,-0.977,-1.465,66.406
1683632180.628,-59.082,-87.402,-86.914,-91.309
1683632180.632,-100.098,-96.680,-93.262,-155.762
1683632180.636,-41.504,-33.203,-19.531,-39.062
1683632180.640,36.621,15.625,36.621,98.145
1683632180.644,46.875,-17.090,6.348,73.730
1683632180.646,-36.133,-76.660,-72.754,-83.008
1683632180.650,-99.609,-74.219,-87.402,-162.598
1683632180.654,-50.293,-41.992,-22.949,-61.523
1683632180.658,35.645,-4.395,37.109,84.961
1683632180.662,40.039,-16.602,18.555,68.848
1683632180.666,-44.434,-44.434,-56.152,-78.613
1683632180.670,-103.027,-49.805,-90.820,-156.250
1683632180.673,-68.359,-40.527,-34.180,-77.637
1683632180.677,19.043,-20.996,36.133,64.453
1683632180.681,41.016,-19.531,20.996,82.031
1683632180.685,-43.457,-67.383,-60.547,-58.105
1683632180.689,-122.070,-84.473,-93.262,-167.480
1683632180.706,-96.191,-41.504,-36.621,-104.492
1683632180.710,2.441,9.277,35.156,56.641
1683632180.714,43.457,9.277,33.203,103.027
1683632180.718,-24.902,-44.434,-43.457,-32.227
1683632180.722,-104.492,-75.195,-92.773,-165.527
1683632180.726,-90.332,-36.133,-47.852,-113.281
1683632180.730,-3.906,7.324,26.855,42.969
1683632180.733,48.340,-11.719,38.086,106.934
1683632180.737,-0.488,-59.082,-32.227,7.324
1683632180.741,-84.473,-82.031,-96.680,-129.395
1683632180.745,-91.797,-44.922,-64.941,-117.676
1683632180.749,-14.160,9.766,14.648,31.738
1683632180.751,45.898,20.508,32.715,110.840
1683632180.755,0.488,-21.484,-29.297,17.090
1683632180.759,-89.355,-58.594,-90.332,-123.535
1683632180.763,-111.816,-55.176,-73.242,-131.836
1683632180.767,-39.551,-17.090,0.488,-7.812
1683632180.771,35.156,33.203,40.527,99.121
1683632180.775,0.977,-16.113,-15.625,31.738
1683632180.778,-91.309,-74.707,-85.938,-131.348
1683632180.782,-113.770,-85.449,-76.660,-157.715
1683632180.786,-47.363,-32.715,-4.395,-23.438
1683632180.790,28.320,17.578,44.434,96.191
1683632180.794,12.207,-29.297,-2.930,44.434
1683632180.796,-76.660,-83.984,-82.031,-114.258
1683632180.800,-119.629,-69.824,-75.195,-164.062
1683632180.804,-63.965,-18.555,4.395,-45.898
1683632180.808,15.625,11.719,53.711,89.844
1683632180.812,17.090,-33.203,3.418,56.641
1683632180.816,-62.500,-55.176,-74.219,-95.703
1683632180.820,-105.469,-41.016,-86.426,-162.598
1683632180.823,-53.223,-34.180,-24.414,-59.570
1683632180.827,39.551,-1.465,32.715,92.773
1683632180.831,53.711,-5.371,1.953,87.891
1683632180.835,-22.949,-56.152,-70.312,-66.895
1683632180.839,-80.566,-60.547,-91.309,-151.367
1683632180.841,-45.410,-35.645,-41.504,-72.266
1683632180.845,47.852,16.113,29.297,68.359
1683632180.849,77.148,24.414,20.996,96.191
1683632180.853,-6.348,-44.922,-59.082,-41.992
1683632180.857,-92.285,-81.543,-96.680,-154.785
1683632180.861,-65.918,-19.531,-34.180,-79.590
1683632180.865,29.297,47.852,47.852,85.938
1683632180.868,61.035,25.391,38.574,129.395
1683632180.872,-10.254,-76.172,-50.781,-9.277
1683632180.876,-92.285,-104.492,-100.098,-151.367
1683632180.880,-80.078,-39.062,-49.316,-106.934
1683632180.884,-2.441,20.508,34.668,48.340
1683632180.886,35.645,-0.488,41.992,100.586
1683632180.890,-21.484,-50.293,-32.227,-16.602
1683632180.894,-105.469,-70.312,-91.797,-157.715
1683632180.898,-97.168,-41.992,-53.223,-128.906
1683632180.902,-13.184,0.977,27.832,29.297
1683632180.906,44.922,30.762,43.945,106.934
1683632180.910,4.883,0.000,-24.902,5.859
1683632180.913,-87.891,-81.055,-99.121,-154.785
1683632180.917,-104.980,-83.008,-79.590,-163.574
1683632180.921,-27.832,-9.766,6.348,-9.766
1683632180.925,56.641,22.461,37.109,103.027
1683632180.929,22.949,-26.367,-17.090,31.738
1683632180.931,-70.312,-68.848,-82.520,-122.559
1683632180.935,-85.938,-35.156,-68.848,-142.090
1683632180.939,-26.367,9.277,10.742,-5.371
1683632180.943,38.574,20.508,51.270,106.934
1683632180.947,23.926,-20.020,0.977,50.293
1683632180.951,-63.965,-50.293,-72.266,-102.539
1683632180.955,-102.051,-40.039,-73.242,-148.438
1683632180.958,-34.668,-19.043,-7.324,-18.066
1683632180.962,51.270,7.812,45.898,121.582
1683632180.966,35.156,-8.301,9.277,82.031
1683632180.970,-63.477,-47.852,-71.777,-84.961
1683632180.974,-113.281,-56.641,-79.590,-161.621
1683632180.976,-62.012,-34.180,-13.672,-62.500
1683632180.980,21.484,20.996,50.781,94.238
1683632180.984,23.438,15.137,28.809,89.355
1683632180.988,-48.828,-41.992,-51.758,-57.617
1683632180.992,-111.816,-69.336,-81.055,-152.344
1683632180.996,-75.195,-13.672,-20.020,-77.637
1683632181.000,14.648,33.691,44.922,72.754
1683632181.003,25.391,-26.367,18.555,76.660
1683632181.007,-39.551,-70.801,-58.105,-61.035
1683632181.011,-101.562,-59.082,-86.426,-169.922
1683632181.015,-78.125,-26.367,-36.133,-105.469
1683632181.019,13.672,10.742,35.156,57.617
1683632181.021,48.828,-1.465,28.320,88.867
1683632181.025,-20.508,-46.875,-55.664,-46.875
1683632181.029,-91.309,-76.660,-98.145,-168.945
1683632181.033,-82.520,-57.129,-53.711,-125.977
1683632181.037,-5.371,-17.578,21.484,27.832
1683632181.041,47.852,30.273,41.504,109.863
1683632181.045,-8.789,-15.137,-28.809,8.789
1683632181.048,-100.098,-85.449,-95.703,-149.414
1683632181.052,-103.516,-83.984,-62.500,-145.996
1683632181.056,-29.297,-43.457,20.996,0.000
1683632181.060,27.344,-4.883,43.457,80.566
1683632181.064,-15.137,-26.367,-16.602,-1.465
1683632181.081,-109.375,-90.332,-85.938,-142.578
1683632181.085,-108.887,-72.754,-62.988,-143.555
1683632181.089,-25.879,5.371,22.949,4.883
1683632181.093,31.250,17.578,48.828,103.027
1683632181.097,-1.953,-26.367,-16.113,15.625
1683632181.101,-89.844,-36.621,-83.008,-133.789
1683632181.105,-111.816,-37.109,-76.660,-156.738
1683632181.108,-39.062,-36.621,-9.277,-39.551
1683632181.112,41.504,-0.977,34.180,81.055
1683632181.116,17.578,-6.348,-14.648,33.691
1683632181.120,-80.078,-65.918,-88.379,-115.234
1683632181.124,-119.629,-74.707,-80.566,-166.992
1683632181.126,-56.641,-27.344,-4.883,-51.758
1683632181.130,27.832,24.414,50.293,88.867
1683632181.134,22.461,-3.418,6.348,48.828
1683632181.138,-55.176,-75.195,-79.590,-115.723
1683632181.142,-115.234,-82.520,-88.379,-180.176
1683632181.146,-66.895,-23.926,-15.137,-67.871
1683632181.150,24.414,16.113,43.457,87.402
1683632181.153,33.691,-4.883,9.277,83.984
1683632181.157,-54.199,-84.961,-82.031,-80.078
1683632181.161,-119.141,-112.305,-106.445,-172.363
1683632181.165,-76.172,-58.105,-38.086,-78.613
1683632181.169,7.324,14.648,31.250,68.359
1683632181.171,26.367,-4.883,4.883,76.172
1683632181.175,-43.945,-68.848,-74.219,-59.570
1683632181.179,-112.793,-86.426,-104.492,-166.992
1683632181.183,-81.055,-49.316,-51.270,-101.562
1683632181.187,9.277,6.348,25.391,57.129
1683632181.191,31.738,26.367,24.902,95.703
1683632181.195,-26.367,-42.480,-55.664,-38.574
1683632181.198,-104.492,-100.586,-105.469,-171.875
1683632181.202,-108.398,-72.754,-61.523,-126.953
1683632181.206,-23.926,-16.602,20.020,28.809
1683632181.210,25.879,2.930,33.203,90.332
1683632181.214,-28.320,-41.504,-41.504,-24.902
1683632181.216,-112.305,-91.797,-101.074,-172.363
1683632181.220,-107.910,-48.340,-58.105,-139.648
1683632181.224,-15.137,20.996,24.902,31.738
1683632181.228,42.969,11.719,32.715,104.492
1683632181.232,4.883,-29.785,-39.551,-3.906
1683632181.236,-77.148,-47.363,-91.309,-137.695
1683632181.240,-94.238,-44.434,-65.430,-138.184
1683632181.243,-13.184,-21.484,9.277,11.230
1683632181.247,57.617,-29.785,35.645,120.605
1683632181.251,25.879,-51.270,-15.625,38.086
1683632181.255,-72.266,-86.914,-82.520,-136.230
1683632181.259,-102.051,-86.914,-75.195,-162.598
1683632181.261,-20.996,-30.273,0.977,-3.906
1683632181.265,51.758,7.812,44.922,117.188
1683632181.269,20.508,-19.043,-2.930,57.617
1683632181.273,-74.219,-77.148,-85.449,-106.445
1683632181.277,-108.887,-70.801,-83.008,-158.203
1683632181.281,-37.109,0.488,1.465,-26.367
1683632181.285,42.480,15.625,47.363,103.027
1683632181.288,6.836,-54.688,-8.301,49.805
1683632181.292,-95.215,-119.141,-92.773,-107.422
1683632181.296,-130.859,-108.887,-89.355,-154.785
1683632181.300,-65.430,-42.969,-8.301,-36.133
1683632181.304,20.996,7.812,46.387,95.215
1683632181.306,21.973,-12.207,11.230,71.289
1683632181.310,-67.871,-69.336,-75.195,-89.355
1683632181.314,-122.559,-83.984,-99.121,-176.270
1683632181.318,-75.684,-41.992,-37.109,-88.379
1683632181.322,7.812,15.137,29.297,67.383
1683632181.326,32.227,29.297,19.531,86.426
1683632181.330,-32.715,-20.020,-57.129,-52.246
1683632181.333,-101.074,-67.871,-97.168,-154.297
1683632181.337,-75.195,-71.777,-38.086,-78.613
1683632181.341,20.996,-14.160,39.062,83.008
1683632181.345,39.551,16.602,28.320,101.562
1683632181.349,-28.809,-52.734,-57.617,-35.156
1683632181.351,-101.074,-97.168,-104.004,-153.320
1683632181.355,-84.473,-49.316,-52.246,-104.004
1683632181.359,3.418,6.348,25.391,43.457
1683632181.363,41.992,17.090,33.203,103.516
1683632181.367,-14.160,-39.062,-42.480,-7.324
1683632181.371,-87.402,-56.152,-90.820,-142.578
1683632181.375,-93.750,-24.414,-52.734,-114.746
1683632181.378,-12.695,-5.371,17.090,29.785
1683632181.382,51.270,6.836,35.645,105.957
1683632181.386,-2.930,-23.438,-33.203,8.789
1683632181.390,-96.191,-73.730,-104.004,-140.137
1683632181.394,-103.516,-63.477,-79.102,-150.879
1683632181.396,-20.020,-20.996,2.930,-6.348
1683632181.400,43.457,5.859,33.691,90.820
1683632181.404,5.859,0.977,-23.926,0.488
1683632181.408,-78.125,-42.969,-89.355,-140.625
1683632181.412,-100.098,-53.711,-77.148,-161.621
1683632181.416,-23.438,9.766,7.812,-25.391
1683632181.420,55.664,46.875,56.641,106.445
1683632181.423,25.879,-5.859,3.418,47.363
1683632181.427,-71.777,-83.008,-79.590,-116.211
1683632181.431,-109.863,-83.008,-81.055,-166.016
1683632181.435,-42.480,-15.137,-4.395,-40.039
1683632181.439,42.480,28.809,49.316,100.098
1683632181.441,30.273,-23.438,3.906,60.059
1683632181.445,-53.223,-73.730,-76.172,-98.633
1683632181.449,-101.074,-62.988,-83.984,-162.109
1683632181.453,-45.898,-7.812,-14.648,-45.898
1683632181.457,40.039,19.043,39.062,99.121
1683632181.461,43.457,-5.371,8.301,88.379
1683632181.465,-42.480,-48.828,-68.848,-66.895
1683632181.468,-103.027,-105.957,-96.191,-162.109
1683632181.472,-67.871,-69.336,-37.598,-82.520
1683632181.476,15.137,3.906,33.203,71.289
1683632181.480,43.457,-15.625,17.090,90.820
1683632181.484,-33.203,-70.801,-66.406,-53.711
1683632181.501,-114.258,-86.426,-101.562,-165.527
1683632181.505,-75.195,-26.367,-43.945,-101.074
1683632181.509,8.301,26.855,32.715,46.875
1683632181.513,20.020,3.906,22.461,70.312
1683632181.517,-44.434,-59.570,-63.477,-67.871
1683632181.521,-116.211,-63.477,-99.609,-180.664
1683632181.525,-100.098,-14.160,-46.387,-123.535
1683632181.528,-10.254,9.277,24.414,32.227
1683632181.532,31.738,-13.672,25.391,90.820
1683632181.536,-21.973,-51.270,-45.898,-22.461
1683632181.540,-96.680,-79.590,-98.145,-151.855
1683632181.544,-101.074,-58.594,-66.406,-131.348
1683632181.546,-18.066,-22.949,6.348,28.320
1683632181.550,46.387,6.348,29.785,112.793
1683632181.554,0.000,-28.809,-32.227,12.695
1683632181.558,-91.797,-77.148,-97.656,-136.719
1683632181.562,-104.980,-62.500,-66.406,-134.766
1683632181.566,-24.414,-6.348,18.066,21.484
1683632181.570,41.992,13.672,41.016,110.840
1683632181.573,0.000,-57.617,-29.785,5.371
1683632181.577,-87.402,-97.168,-101.562,-136.719
1683632181.581,-103.027,-59.570,-78.613,-142.578
1683632181.585,-29.297,-6.836,-0.977,-12.695
1683632181.589,42.969,15.625,29.785,102.051
1683632181.591,16.602,-17.090,-18.555,41.016
1683632181.595,-71.777,-69.824,-85.449,-109.375
1683632181.599,-104.492,-54.688,-78.613,-142.578
1683632181.603,-44.922,-2.441,-10.254,-24.414
1683632181.607,30.762,13.184,33.203,92.285
1683632181.611,14.648,-3.906,-4.395,59.082
1683632181.615,-74.219,-49.316,-79.102,-101.562
1683632181.618,-119.629,-64.453,-91.309,-167.480
1683632181.622,-70.312,-53.711,-35.645,-58.594
1683632181.626,20.508,-4.883,24.902,80.566
1683632181.630,27.832,-13.672,-3.418,63.965
1683632181.634,-57.129,-86.426,-87.891,-95.703
1683632181.636,-116.699,-92.773,-104.492,-173.340
1683632181.640,-68.848,-25.879,-31.738,-73.242
1683632181.644,20.996,15.137,38.086,72.754
1683632181.648,32.227,-11.230,17.578,81.055
1683632181.652,-38.086,-83.008,-66.406,-68.359
1683632181.656,-98.145,-82.031,-91.797,-165.527
1683632181.660,-71.289,-33.691,-35.645,-85.938
1683632181.663,11.719,-15.625,20.508,61.035
1683632181.667,44.922,-24.414,12.695,93.750
1683632181.671,-30.762,-78.125,-61.523,-46.875
1683632181.675,-108.887,-108.887,-104.492,-177.246
1683632181.679,-85.938,-63.477,-51.758,-123.535
1683632181.681,-3.418,-12.695,25.391,41.992
1683632181.685,35.645,-14.160,33.691,101.562
1683632181.689,-20.020,-60.059,-41.992,-24.902
1683632181.693,-108.398,-100.586,-103.027,-167.480
1683632181.697,-108.398,-83.008,-69.336,-127.441
1683632181.701,-18.066,-2.930,14.648,36.133
1683632181.705,37.109,20.996,35.156,102.051
1683632181.708,-12.695,-36.133,-35.156,-3.418
1683632181.712,-95.215,-110.840,-104.004,-149.414
1683632181.716,-107.910,-94.727,-74.707,-149.902
1683632181.720,-27.832,-9.277,8.789,2.441
1683632181.724,43.945,30.273,42.480,114.746
1683632181.741,14.648,-46.875,-24.414,29.297
1683632181.745,-72.754,-94.238,-98.633,-129.883
1683632181.749,-96.680,-64.453,-72.266,-143.066
1683632181.753,-24.414,-9.277,12.207,0.488
1683632181.757,47.852,10.254,42.480,105.469
1683632181.761,20.020,-7.812,-12.695,32.715
1683632181.765,-75.195,-61.523,-90.332,-128.906
1683632181.768,-109.863,-102.539,-91.797,-167.969
1683632181.772,-45.898,-52.246,-19.043,-44.434
1683632181.776,43.945,12.695,32.715,76.172
1683632181.780,31.738,-9.277,-7.324,42.969
1683632181.784,-57.129,-77.148,-83.008,-110.840
1683632181.771,-86.914,-89.355,-83.496,-168.457
1683632181.775,-45.898,-20.020,-13.672,-73.242
1683632181.779,29.297,25.879,32.715,64.941
1683632181.783,43.945,-16.602,-1.953,71.777
1683632181.787,-39.551,-79.102,-81.055,-74.219
1683632181.791,-103.516,-63.965,-91.309,-153.320
1683632181.795,-67.871,-15.625,-22.949,-58.105
1683632181.798,17.578,-1.465,37.109,83.984
1683632181.802,27.344,-37.109,11.719,80.566
1683632181.806,-53.223,-78.125,-65.918,-68.848
1683632181.810,-117.188,-101.074,-99.121,-166.992
1683632181.814,-84.961,-62.988,-40.527,-83.008
1683632181.831,9.766,-4.395,35.645,71.777
1683632181.835,35.645,-4.395,24.414,83.008
1683632181.839,-35.645,-48.828,-52.734,-54.688
1683632181.843,-99.609,-80.078,-90.332,-165.039
1683632181.847,-77.148,-27.832,-41.504,-107.422
1683632181.851,15.137,38.574,30.762,50.293
1683632181.855,62.988,9.277,27.344,112.793
1683632181.858,2.930,-60.059,-50.781,-12.207
1683632181.862,-83.496,-90.820,-100.586,-164.551
1683632181.866,-81.055,-49.316,-53.711,-131.836
1683632181.870,7.324,15.625,35.156,41.016
1683632181.874,54.199,23.438,45.898,102.051
1683632181.876,-7.324,-42.480,-34.180,-15.625
1683632181.880,-98.145,-86.914,-97.656,-159.180
1683632181.884,-102.539,-50.293,-66.406,-144.531
1683632181.888,-21.484,2.441,13.184,6.348
1683632181.892,38.574,13.672,36.133,102.051
1683632181.896,4.395,-15.137,-18.066,22.949
1683632181.900,-80.078,-73.242,-86.426,-124.023
1683632181.903,-104.492,-66.406,-75.684,-135.254
1683632181.907,-34.180,-38.086,-5.859,1.465
1683632181.911,32.715,-4.883,29.297,105.469
1683632181.915,4.395,-34.668,-24.414,35.645
1683632181.919,-82.520,-95.215,-92.285,-113.770
1683632181.921,-113.281,-74.707,-78.125,-149.414
1683632181.925,-35.645,-12.207,2.441,-15.137
1683632181.929,43.457,22.949,51.270,119.141
1683632181.933,23.926,-16.602,6.348,74.219
1683632181.937,-64.453,-75.195,-70.801,-100.098
1683632181.941,-109.863,-61.035,-79.590,-162.598
1683632181.945,-57.129,-19.043,-8.301,-47.852
1683632181.948,25.879,-12.207,40.039,81.543
1683632181.952,34.180,-24.902,1.465,64.941
1683632181.956,-42.969,-65.430,-75.684,-82.031
1683632181.960,-101.074,-87.891,-95.703,-166.504
1683632181.964,-61.035,-38.086,-26.855,-70.801
1683632181.966,27.344,-0.488,38.574,80.566
1683632181.970,35.156,-13.184,12.207,80.566
1683632181.974,-42.480,-63.965,-67.383,-70.312
1683632181.978,-100.098,-89.844,-90.820,-166.992
1683632181.982,-73.242,-61.035,-32.715,-95.703
1683632181.986,16.113,10.742,41.504,68.359
1683632181.990,55.664,24.902,32.715,116.699
1683632181.993,-11.230,-58.105,-51.270,-18.555
1683632181.997,-101.074,-123.047,-101.074,-145.020
1683632182.001,-88.867,-83.984,-52.246,-104.004
1683632182.005,1.465,-4.883,25.391,47.363
1683632182.009,38.574,15.625,29.297,109.375
1683632182.011,-21.973,-64.453,-49.805,-10.742
1683632182.015,-101.074,-106.445,-100.098,-150.391
1683632182.019,-100.586,-59.082,-64.453,-124.023
1683632182.023,-5.859,-15.137,12.207,35.645
1683632182.027,48.828,-16.113,29.785,114.258
1683632182.031,-4.883,-29.785,-32.227,7.812
1683632182.035,-85.938,-48.340,-85.938,-135.742
1683632182.038,-92.285,-62.500,-61.035,-124.023
1683632182.042,-9.277,-11.719,10.254,23.438
1683632182.046,54.688,15.625,33.691,106.445
1683632182.050,6.836,-40.039,-33.691,9.277
1683632182.054,-83.984,-99.121,-105.469,-146.484
1683632182.056,-103.027,-82.031,-79.102,-146.484
1683632182.060,-27.344,-4.883,6.348,0.977
1683632182.064,49.805,22.461,43.457,109.375
1683632182.068,20.020,-31.250,-23.438,34.180
1683632182.072,-75.684,-85.449,-101.562,-124.023
1683632182.076,-108.887,-67.383,-87.402,-152.832
1683632182.080,-43.945,4.395,-7.324,-19.043
1683632182.083,33.203,20.020,38.086,105.957
1683632182.087,16.602,-61.523,-14.648,55.176
1683632182.091,-67.871,-104.980,-85.938,-101.074
1683632182.095,-108.887,-82.031,-84.961,-164.062
1683632182.099,-61.523,-37.109,-17.578,-59.570
1683632182.101,20.020,-5.859,36.133,81.055
1683632182.105,33.203,-16.113,8.301,67.383
1683632182.109,-51.758,-70.801,-69.336,-86.426
1683632182.113,-110.352,-83.008,-88.379,-163.086
1683632182.117,-63.965,-43.457,-26.367,-65.918
1683632182.121,18.066,8.789,39.062,79.590
1683632182.125,36.133,-3.906,17.090,86.426
1683632182.128,-40.039,-85.938,-70.312,-62.012
1683632182.132,-107.910,-113.770,-95.215,-167.480
1683632182.136,-74.219,-41.504,-26.367,-94.238
1683632182.140,11.719,19.043,37.109,58.105
1683632182.144,43.945,-0.488,23.438,85.449
1683632182.146,-27.832,-60.059,-51.758,-52.734
1683632182.150,-106.934,-81.055,-90.820,-168.457
1683632182.154,-83.008,-41.016,-37.109,-103.027
1683632182.158,6.348,8.301,30.273,48.828
1683632182.162,37.109,12.207,28.809,89.355
1683632182.166,-25.879,-19.531,-46.387,-20.020
1683632182.170,-97.168,-66.406,-106.445,-150.879
1683632182.173,-84.473,-45.410,-63.477,-116.699
1683632182.177,2.930,-4.395,12.695,42.480
1683632182.181,50.293,-3.418,20.508,103.516
1683632182.185,-7.812,-32.227,-43.945,-11.230
1683632182.189,-91.309,-69.824,-99.121,-153.320
1683632182.206,-96.191,-63.965,-68.848,-146.973
1683632182.210,-16.602,5.371,15.137,5.859
1683632182.214,39.062,42.969,43.457,100.586
1683632182.218,-6.348,-26.367,-24.902,2.930
1683632182.222,-94.238,-84.473,-92.285,-145.020
1683632182.226,-113.281,-24.414,-62.500,-144.043
1683632182.230,-37.598,19.531,13.672,4.395
1683632182.233,21.973,-15.625,31.250,105.957
1683632182.237,-9.277,-30.762,-18.555,28.809
1683632182.241,-97.168,-63.477,-84.473,-139.160
1683632182.245,-131.348,-76.172,-83.008,-177.246
1683632182.249,-60.547,-30.762,-7.812,-41.016
1683632182.251,16.113,10.742,38.574,80.566
1683632182.255,-2.930,-18.066,-6.348,25.391
1683632182.259,-90.332,-81.543,-87.402,-125.977
1683632182.263,-124.512,-80.078,-93.750,-175.293
1683632182.267,-55.664,-29.297,-20.996,-54.688
1683632182.271,34.180,25.391,33.691,86.426
1683632182.275,27.344,5.371,-5.859,65.918
1683632182.278,-59.082,-66.895,-86.914,-94.727
1683632182.282,-107.422,-96.680,-105.469,-172.363
1683632182.286,-59.570,-44.434,-35.156,-69.824
1683632182.290,28.809,18.555,31.250,71.289
1683632182.294,40.039,7.324,9.277,69.824
1683632182.296,-37.598,-68.359,-72.266,-81.543
1683632182.300,-91.309,-83.496,-90.332,-155.273
1683632182.304,-52.734,-18.066,-25.391,-57.129
1683632182.308,23.438,22.949,33.691,72.266
1683632182.312,51.758,-3.418,21.973,86.914
1683632182.316,-22.949,-22.949,-50.293,-46.875
1683632182.320,-111.328,-47.363,-87.402,-166.016
1683632182.323,-89.355,-64.941,-43.457,-104.980
1683632182.327,5.859,-26.367,25.879,51.758
1683632182.331,29.297,-7.324,22.461,85.938
1683632182.335,-47.852,-46.875,-50.293,-43.457
1683632182.339,-120.605,-76.660,-88.867,-168.457
1683632182.341,-107.910,-51.758,-44.922,-130.371
1683632182.345,-21.973,8.789,27.832,21.973
1683632182.349,33.203,19.043,38.086,93.262
1683632182.353,-10.742,-43.457,-36.621,-12.207
1683632182.357,-98.633,-91.797,-95.703,-158.691
1683632182.361,-100.586,-51.270,-56.152,-134.277
1683632182.365,1.953,18.555,27.344,24.902
1683632182.368,61.523,17.578,40.039,105.469
1683632182.372,7.324,-66.895,-37.109,2.930
1683632182.376,-77.148,-100.586,-92.285,-137.695
1683632182.380,-87.891,-60.547,-59.570,-131.348
1683632182.384,-7.324,-5.859,20.508,14.648
1683632182.386,59.570,7.324,47.852,120.117
1683632182.390,29.785,-39.062,-14.648,35.645
1683632182.394,-44.434,-63.965,-78.125,-112.793
1683632182.398,-77.148,-54.688,-68.359,-140.625
1683632182.402,-27.832,-26.367,-3.418,-21.484
1683632182.406,36.621,27.344,40.527,90.820
1683632182.410,14.648,2.441,-4.395,44.434
1683632182.413,-72.266,-91.309,-89.844,-110.840
1683632182.417,-111.816,-104.980,-98.145,-165.039
1683632182.421,-57.129,-37.598,-22.949,-54.688
1683632182.425,12.207,11.230,29.785,69.824
1683632182.429,24.414,-12.695,-0.977,57.129
1683632182.431,-47.363,-73.730,-78.613,-84.961
1683632182.435,-108.887,-87.402,-96.680,-167.480
1683632182.439,-75.195,-34.180,-35.156,-74.219
1683632182.443,0.488,4.883,23.438,70.312
1683632182.447,16.602,1.953,2.930,70.312
1683632182.451,-54.688,-46.875,-72.266,-79.590
1683632182.455,-114.258,-82.031,-100.586,-168.945
1683632182.458,-70.801,-45.410,-43.945,-80.078
1683632182.462,17.090,-40.039,15.625,62.988
1683632182.466,41.992,-46.875,11.719,79.590
1683632182.470,-29.297,-72.754,-59.570,-59.082
1683632182.474,-103.027,-97.168,-98.145,-172.852
1683632182.476,-75.684,-60.547,-42.969,-100.098
1683632182.480,23.926,-15.137,32.227,76.172
1683632182.484,60.547,3.418,30.762,122.070
1683632182.488,-11.230,-45.410,-49.316,-16.113
1683632182.492,-87.402,-100.098,-97.168,-147.949
1683632182.496,-70.801,-44.434,-45.410,-90.820
1683632182.500,15.625,10.742,33.203,68.848
1683632182.503,60.059,-7.812,30.762,119.141
1683632182.507,-12.695,-51.270,-39.062,-1.953
1683632182.511,-103.027,-70.801,-91.797,-150.391
1683632182.515,-101.074,-64.453,-72.266,-136.719
1683632182.519,-25.391,-25.879,-0.977,6.836
1683632182.521,35.645,1.953,23.926,88.867
1683632182.525,-4.883,-34.180,-34.668,1.465
1683632182.529,-95.703,-70.801,-94.727,-154.297
1683632182.533,-108.887,-53.223,-71.289,-163.086
1683632182.537,-30.762,-9.277,4.883,-8.301
1683632182.541,29.785,30.273,38.574,91.309
1683632182.545,10.742,7.324,-12.695,31.250
1683632182.548,-78.613,-89.844,-95.703,-124.023
1683632182.552,-120.117,-119.629,-92.285,-174.805
1683632182.556,-56.152,-30.762,-0.488,-42.480
1683632182.560,18.555,34.180,45.898,90.820
1683632182.564,14.160,-3.418,1.953,48.828
1683632182.581,-63.965,-87.891,-76.660,-101.074
1683632182.585,-109.863,-90.820,-83.008,-152.344
1683632182.589,-56.152,-29.297,-12.207,-35.156
1683632182.593,38.086,13.184,42.969,101.562
1683632182.597,27.832,-24.414,3.906,63.477
1683632182.601,-65.918,-52.734,-71.777,-92.773
1683632182.605,-108.887,-48.828,-79.590,-155.762
1683632182.608,-61.523,-49.316,-23.438,-61.035
1683632182.612,24.414,-18.555,33.203,77.637
1683632182.616,37.598,-29.297,8.301,62.500
1683632182.620,-44.434,-70.312,-69.336,-81.055
1683632182.624,-101.074,-76.660,-90.332,-165.527
1683632182.626,-56.152,-35.156,-31.738,-81.055
1683632182.630,34.668,34.668,37.109,77.148
1683632182.634,54.688,13.672,20.996,89.844
1683632182.638,-33.203,-78.125,-64.941,-68.848
1683632182.642,-111.816,-111.816,-98.145,-176.270
1683632182.646,-85.938,-46.875,-36.133,-100.098
1683632182.650,2.441,5.859,29.785,49.316
1683632182.653,39.062,-11.230,21.973,87.402
1683632182.657,-24.902,-78.125,-52.246,-34.180
1683632182.661,-104.004,-99.609,-98.633,-155.762
1683632182.665,-102.051,-47.363,-48.828,-117.676
1683632182.669,-23.926,-16.602,26.367,20.996
1683632182.671,29.297,-23.926,28.320,84.473
1683632182.675,-18.066,-41.992,-31.250,-19.043
1683632182.679,-97.168,-76.660,-83.496,-150.879
1683632182.683,-100.098,-58.594,-45.898,-124.512
1683632182.687,-20.508,-1.953,35.156,21.484
1683632182.691,39.062,15.137,53.223,102.539
1683632182.695,-4.883,-19.043,-14.160,13.672
1683632182.698,-93.750,-89.844,-85.938,-145.996
1683632182.702,-107.910,-78.125,-65.430,-146.973
1683632182.706,-33.691,-21.973,7.324,-13.672
1683632182.710,33.691,11.719,35.156,85.938
1683632182.714,5.859,-26.367,-20.996,22.461
1683632182.716,-74.707,-79.590,-84.473,-134.277
1683632182.720,-98.633,-53.223,-70.312,-165.039
1683632182.724,-40.527,1.953,1.953,-25.391
1683632182.728,33.203,14.648,29.297,93.262
1683632182.732,26.367,-35.645,-24.414,39.551
1683632182.736,-59.570,-66.406,-87.402,-111.816
1683632182.740,-112.305,-41.504,-84.473,-167.969
1683632182.743,-49.805,2.441,-12.695,-45.898
1683632182.747,43.457,-2.441,28.320,87.402
1683632182.751,33.691,-26.855,-8.789,57.129
1683632182.755,-51.758,-60.059,-78.613,-98.145
1683632182.759,-105.957,-80.566,-88.867,-167.969
1683632182.761,-52.246,-36.133,-12.207,-46.875
1683632182.765,26.855,8.789,43.945,82.031
1683632182.769,17.090,-4.883,10.742,50.293
1683632182.773,-62.500,-61.035,-67.383,-96.191
1683632182.777,-111.328,-70.801,-98.633,-175.781
1683632182.781,-58.105,-7.812,-38.086,-71.777
1683632182.785,33.203,29.785,30.762,84.961
1683632182.788,49.316,-3.906,10.254,94.238
1683632182.792,-27.832,-68.848,-70.312,-55.176
1683632182.796,-98.633,-87.402,-100.586,-167.480
1683632182.800,-77.148,-58.105,-51.758,-95.703
1683632182.804,19.043,-2.441,22.949,69.824
1683632182.806,64.941,-14.160,19.531,108.398
1683632182.810,-9.766,-53.223,-55.176,-39.551
1683632182.814,-93.262,-67.871,-98.633,-170.410
1683632182.818,-73.242,-44.922,-54.199,-116.699
1683632182.822,6.348,-4.883,20.020,34.668
1683632182.826,44.434,25.391,28.809,91.797
1683632182.830,-5.371,-18.555,-42.480,-20.508
1683632182.833,-84.961,-100.098,-101.562,-159.180
1683632182.837,-89.355,-80.078,-60.059,-131.348
1683632182.841,-9.277,-11.230,23.438,29.785
1683632182.845,41.504,5.859,37.109,107.422
1683632182.849,-7.324,-28.809,-25.391,9.277
1683632182.851,-97.168,-89.844,-86.914,-145.508
1683632182.855,-108.398,-78.613,-60.059,-152.344
1683632182.859,-30.762,-13.672,19.531,-11.719
1683632182.863,38.086,11.719,46.875,94.727
1683632182.867,3.418,-41.504,-12.695,13.184
1683632182.871,-86.914,-64.453,-77.148,-142.578
1683632182.875,-112.793,-54.199,-70.801,-160.156
1683632182.878,-41.504,-35.645,-2.930,-31.250
1683632182.882,36.133,-10.742,37.598,80.078
1683632182.886,20.996,-6.348,-3.418,34.180
1683632182.890,-64.941,-47.852,-74.707,-113.281
1683632182.894,-103.027,-79.102,-79.590,-161.133
1683632182.851,-97.168,-89.844,-86.914,-145.508
1683632182.855,-108.398,-78.613,-60.059,-152.344
1683632182.859,-30.762,-13.672,19.531,-11.719
1683632182.863,38.086,11.719,46.875,94.727
1683632182.867,3.418,-41.504,-12.695,13.184
1683632182.871,-86.914,-64.453,-77.148,-142.578
1683632182.875,-112.793,-54.199,-70.801,-160.156
1683632182.878,-41.504,-35.645,-2.930,-31.250
1683632182.882,36.133,-10.742,37.598,80.078
1683632182.886,20.996,-6.348,-3.418,34.180
1683632182.890,-64.941,-47.852,-74.707,-113.281
1683632182.894,-103.027,-79.102,-79.590,-161.133
1683632182.896,-43.945,-33.203,-5.859,-39.551
1683632182.900,29.785,35.645,44.922,90.332
1683632182.904,30.273,15.137,2.441,58.105
1683632182.908,-56.152,-62.500,-79.590,-93.262
1683632182.912,-111.328,-77.637,-91.309,-153.320
1683632182.916,-47.363,-3.418,-19.531,-49.805
1683632182.920,29.297,38.086,39.062,77.637
1683632182.923,25.879,-9.277,1.953,57.129
1683632182.927,-47.363,-79.590,-78.613,-88.379
1683632182.931,-104.004,-72.754,-89.844,-165.039
1683632182.935,-68.848,-33.203,-31.738,-70.801
1683632182.939,24.902,6.836,35.645,82.031
1683632182.956,44.434,-1.465,18.555,82.520
1683632182.960,-36.621,-44.434,-58.594,-59.082
1683632182.964,-112.793,-60.547,-88.379,-165.039
1683632182.968,-85.938,-29.785,-36.133,-108.887
1683632182.972,12.695,34.668,44.922,54.199
1683632182.976,36.133,25.879,37.109,95.215
1683632182.980,-48.340,-41.992,-53.223,-55.664
1683632182.983,-119.141,-96.680,-98.145,-182.129
1683632182.987,-94.238,-62.500,-46.387,-113.770
1683632182.991,-9.766,-7.324,23.438,42.480
1683632182.995,26.855,-5.371,23.926,87.891
1683632182.999,-31.738,-62.012,-44.922,-27.344
1683632183.001,-104.004,-97.656,-93.262,-153.320
1683632183.005,-88.379,-62.500,-58.105,-125.000
1683632183.009,4.395,-3.418,17.578,32.715
1683632183.013,52.734,14.160,32.227,107.910
1683632183.017,-7.324,-26.855,-38.086,-1.465
1683632183.021,-82.520,-47.363,-89.355,-130.859
1683632183.025,-80.566,-31.738,-59.082,-117.188
1683632183.028,-6.836,14.160,18.555,34.668
1683632183.032,41.504,1.953,36.133,119.141
1683632183.036,-9.277,-52.246,-33.691,14.648
1683632183.040,-98.145,-70.312,-92.285,-129.883
1683632183.044,-127.930,-88.379,-83.496,-157.715
1683632183.046,-55.176,-47.852,-7.324,-18.066
1683632183.050,24.414,-1.465,40.527,99.609
1683632183.054,3.906,-27.344,-10.254,34.668
1683632183.058,-73.730,-62.500,-82.031,-110.840
1683632183.062,-104.004,-51.270,-77.637,-146.973
1683632183.066,-52.246,6.348,-3.418,-31.250
1683632183.070,22.461,20.508,39.551,84.961
1683632183.073,17.090,-26.855,-6.348,51.270
1683632183.077,-56.641,-73.242,-82.520,-95.215
1683632183.081,-92.285,-77.637,-86.426,-147.461
1683632183.085,-40.039,-24.902,-17.090,-43.945
1683632183.089,25.879,18.066,38.574,77.148
1683632183.091,29.297,-17.090,3.418,56.641
1683632183.095,-37.109,-55.664,-71.777,-78.125
1683632183.099,-80.566,-50.293,-79.590,-139.648
1683632183.103,-34.668,-19.043,-11.719,-44.922
1683632183.107,50.781,28.320,48.828,96.680
1683632183.111,58.105,30.273,31.250,96.191
1683632183.115,-29.297,-20.508,-43.945,-50.781
1683632183.118,-92.773,-57.617,-83.496,-146.484
1683632183.122,-70.801,-69.824,-35.645,-84.473
1683632183.126,12.695,0.977,43.945,72.754
1683632183.130,44.434,30.273,42.480,112.305
1683632183.134,-22.461,-26.367,-31.738,-11.230
1683632183.136,-104.492,-69.336,-71.777,-125.977
1683632183.140,-96.680,-63.965,-29.785,-99.609
1683632183.144,-11.230,-12.207,41.992,44.434
1683632183.148,34.180,18.555,45.898,99.121
1683632183.152,-34.180,-52.734,-36.133,-24.902
1683632183.156,-115.723,-64.941,-84.961,-158.691
1683632183.160,-94.727,-18.066,-43.945,-127.930
1683632183.163,-10.742,4.883,18.555,29.785
1683632183.167,43.457,-0.488,28.320,104.492
1683632183.171,-3.418,-38.086,-34.180,1.465
1683632183.175,-91.309,-76.172,-96.191,-141.113
1683632183.179,-99.609,-59.570,-71.777,-145.996
1683632183.181,-26.367,-3.418,-0.488,-2.930
1683632183.185,40.039,33.203,28.809,94.727
1683632183.189,16.113,-2.930,-24.902,28.809
1683632183.193,-71.289,-84.473,-99.609,-120.605
1683632183.197,-106.445,-77.148,-82.520,-146.973
1683632183.201,-34.180,1.953,4.395,4.395
1683632183.205,42.480,33.691,43.457,118.652
1683632183.208,6.348,-17.090,-17.578,42.480
1683632183.212,-73.730,-96.680,-94.238,-116.699
1683632183.216,-104.980,-86.914,-81.543,-149.902
1683632183.220,-47.363,-27.832,-8.789,-25.879
1683632183.224,27.832,11.230,38.574,94.727
1683632183.226,12.207,-1.465,0.000,52.246
1683632183.230,-71.777,-70.801,-78.613,-102.051
1683632183.234,-118.164,-97.656,-85.938,-166.992
1683632183.238,-67.871,-33.203,-7.324,-56.152
1683632183.242,15.137,28.809,50.293,85.449
1683632183.246,15.137,10.742,12.695,63.965
1683632183.250,-62.500,-33.691,-66.406,-83.496
1683632183.253,-129.883,-87.891,-96.191,-181.641
1683632183.257,-94.727,-69.336,-35.645,-103.027
1683632183.261,6.348,-8.789,31.738,60.547
1683632183.265,29.785,2.441,16.113,77.637
1683632183.269,-49.316,-37.109,-61.035,-66.895
1683632183.272,-101.074,-78.613,-94.238,-157.227
1683632183.276,-63.477,-30.762,-36.133,-74.219
1683632183.280,24.902,20.020,31.738,75.195
1683632183.284,55.176,11.719,23.926,101.074
1683632183.288,-10.742,-35.156,-51.758,-36.133
1683632183.292,-77.148,-32.715,-89.355,-149.414
1683632183.296,-52.246,9.766,-42.969,-101.074
1683632183.299,33.203,35.645,25.879,45.410
1683632183.303,60.059,8.789,28.320,104.004
1683632183.307,-4.883,-38.574,-42.480,-12.695
1683632183.311,-86.914,-66.406,-94.238,-151.367
1683632183.315,-81.543,-48.340,-55.664,-124.023
1683632183.272,-101.074,-78.613,-94.238,-157.227
1683632183.276,-63.477,-30.762,-36.133,-74.219
1683632183.280,24.902,20.020,31.738,75.195
1683632183.284,55.176,11.719,23.926,101.074
1683632183.288,-10.742,-35.156,-51.758,-36.133
1683632183.292,-77.148,-32.715,-89.355,-149.414
1683632183.296,-52.246,9.766,-42.969,-101.074
1683632183.299,33.203,35.645,25.879,45.410
1683632183.303,60.059,8.789,28.320,104.004
1683632183.307,-4.883,-38.574,-42.480,-12.695
1683632183.311,-86.914,-66.406,-94.238,-151.367
1683632183.315,-81.543,-48.340,-55.664,-124.023
1683632183.331,-3.418,-2.930,24.902,21.973
1683632183.335,49.805,23.438,42.969,102.539
1683632183.339,6.836,2.441,-14.648,23.438
1683632183.343,-86.426,-74.707,-78.125,-135.254
1683632183.347,-108.887,-73.730,-61.035,-145.996
1683632183.351,-33.203,29.785,21.484,7.324
1683632183.355,37.109,40.039,43.945,107.910
1683632183.358,0.000,-59.082,-27.832,19.043
1683632183.362,-94.238,-86.914,-87.891,-138.672
1683632183.366,-108.398,-47.363,-63.965,-153.809
1683632183.370,-41.016,-8.789,7.812,-29.785
1683632183.374,21.484,14.648,43.457,83.984
1683632183.377,0.977,-30.762,-6.348,34.668
1683632183.381,-77.148,-85.938,-78.613,-120.117
1683632183.385,-104.980,-71.289,-77.148,-162.598
1683632183.389,-45.898,-20.996,-6.348,-41.504
1683632183.393,29.297,6.836,38.574,78.125
1683632183.397,19.531,5.371,1.953,40.527
1683632183.401,-57.129,-40.039,-75.684,-109.375
1683632183.404,-96.680,-79.102,-93.750,-167.969
1683632183.408,-47.363,-65.918,-30.273,-59.082
1683632183.412,32.227,7.324,32.227,80.566
1683632183.416,30.762,8.789,8.301,70.801
1683632183.420,-48.828,-48.340,-64.941,-76.660
1683632183.421,-108.887,-66.406,-86.426,-156.250
1683632183.425,-65.430,-30.273,-26.855,-59.082
1683632183.429,31.250,17.578,40.527,92.285
1683632183.433,48.340,5.859,19.531,92.773
1683632183.437,-32.227,-48.828,-67.871,-53.711
1683632183.441,-91.309,-39.551,-90.332,-140.137
1683632183.445,-49.805,-1.953,-31.250,-79.102
1683632183.448,30.273,3.906,28.809,58.105
1683632183.452,43.457,-20.508,17.090,91.309
1683632183.456,-29.785,-49.805,-59.570,-49.805
1683632183.460,-101.562,-54.199,-94.727,-170.410
1683632183.464,-85.938,-34.668,-41.504,-110.840
1683632183.421,-108.887,-66.406,-86.426,-156.250
1683632183.425,-65.430,-30.273,-26.855,-59.082
1683632183.429,31.250,17.578,40.527,92.285
1683632183.433,48.340,5.859,19.531,92.773
1683632183.437,-32.227,-48.828,-67.871,-53.711
1683632183.441,-91.309,-39.551,-90.332,-140.137
1683632183.445,-49.805,-1.953,-31.250,-79.102
1683632183.448,30.273,3.906,28.809,58.105
1683632183.452,43.457,-20.508,17.090,91.309
1683632183.456,-29.785,-49.805,-59.570,-49.805
1683632183.460,-101.562,-54.199,-94.727,-170.410
1683632183.464,-85.938,-34.668,-41.504,-110.840
1683632183.466,-12.695,-19.531,22.461,25.391
1683632183.470,24.902,3.418,22.461,73.242
1683632183.474,-25.391,-22.949,-47.852,-33.203
1683632183.478,-109.863,-89.355,-101.074,-166.992
1683632183.482,-103.516,-68.359,-59.570,-143.066
1683632183.486,-7.324,11.230,22.949,17.090
1683632183.490,45.410,33.691,38.086,99.121
1683632183.493,-7.324,-32.227,-33.203,-12.695
1683632183.497,-93.262,-104.980,-100.098,-163.574
1683632183.501,-100.586,-73.242,-68.359,-146.484
1683632183.505,-16.602,4.395,13.184,12.695
1683632183.509,44.434,9.766,27.344,91.797
1683632183.511,2.930,-31.738,-32.227,0.488
1683632183.515,-81.543,-53.223,-93.750,-137.207
1683632183.519,-98.145,-66.895,-81.543,-153.809
1683632183.523,-28.320,-23.926,-5.371,-18.555
1683632183.527,38.086,6.348,26.367,94.727
1683632183.531,10.254,-34.180,-31.250,28.809
1683632183.535,-80.078,-67.871,-95.215,-120.605
1683632183.538,-108.887,-90.820,-89.844,-154.297
1683632183.542,-41.504,-55.664,-20.996,-27.832
1683632183.546,30.762,-2.930,25.879,86.426
1683632183.550,11.719,-24.414,-16.602,39.551
1683632183.554,-71.777,-73.242,-90.332,-108.398
1683632183.556,-111.816,-83.496,-93.262,-164.551
1683632183.560,-54.199,-32.227,-23.438,-51.758
1683632183.564,24.414,14.160,25.391,72.754
1683632183.568,8.301,-13.672,-5.859,39.062
1683632183.572,-80.566,-72.754,-80.078,-107.910
1683632183.576,-123.047,-84.961,-95.703,-182.129
1683632183.580,-83.496,-29.297,-30.762,-86.426
1683632183.583,-6.836,4.395,22.949,64.941
1683632183.587,13.184,-51.270,-2.930,74.707
1683632183.591,-60.059,-118.652,-76.660,-71.289
1683632183.595,-128.418,-106.445,-98.145,-166.992
1683632183.599,-83.496,-26.367,-33.691,-81.055
1683632183.601,16.113,-2.930,24.414,59.082
1683632183.605,41.016,-17.090,12.695,82.031
1683632183.609,-21.484,-46.875,-53.711,-44.922
1683632183.613,-90.332,-77.637,-96.680,-159.668
1683632183.617,-73.730,-42.969,-48.828,-98.633
1683632183.621,16.113,36.621,28.809,59.570
1683632183.625,64.453,37.109,26.855,107.910
1683632183.628,-1.465,-58.105,-54.199,-27.344
1683632183.632,-77.148,-85.449,-96.680,-150.391
1683632183.636,-62.012,-44.434,-52.734,-108.398
1683632183.640,14.648,0.488,17.090,36.621
1683632183.644,56.641,-1.465,21.484,93.262
1683632183.646,-4.395,-59.570,-46.387,-19.043
1683632183.650,-91.797,-89.355,-100.586,-154.297
1683632183.654,-103.516,-61.523,-66.895,-142.090
1683632183.658,-35.645,-15.625,11.230,-5.859
1683632183.662,24.414,4.395,33.691,81.543
1683632183.666,-26.367,-24.414,-29.297,-7.812
1683632183.670,-121.582,-62.500,-88.867,-155.273
1683632183.673,-140.137,-77.148,-70.312,-168.945
1683632183.677,-71.289,-58.105,-0.488,-39.062
1683632183.681,4.395,-13.184,37.109,75.684
1683632183.685,-11.719,-25.879,-8.789,19.043
1683632183.689,-87.402,-53.711,-67.871,-124.023
1683632183.707,-119.141,-71.289,-62.988,-159.668
1683632183.711,-51.270,-29.297,7.324,-24.414
1683632183.715,39.062,14.648,51.758,113.281
1683632183.719,28.320,-23.438,5.371,53.711
1683632183.723,-57.617,-86.914,-73.242,-101.562
1683632183.727,-93.262,-59.082,-79.102,-147.949
1683632183.731,-34.180,3.906,-5.371,-36.621
1683632183.734,46.387,3.906,45.410,102.539
1683632183.738,46.875,-30.762,2.930,73.242
1683632183.742,-39.551,-55.176,-76.660,-70.801
1683632183.746,-99.121,-64.453,-96.680,-147.461
1683632183.750,-55.664,-21.973,-37.598,-59.570
1683632183.752,35.645,14.648,21.973,86.914
1683632183.756,46.387,8.301,1.465,88.379
1683632183.760,-35.645,-42.969,-74.707,-66.406
1683632183.764,-104.980,-90.820,-104.492,-170.410
1683632183.768,-83.984,-46.875,-49.316,-94.238
1683632183.772,2.930,30.762,25.879,54.688
1683632183.776,31.250,24.414,19.531,83.496
1683632183.779,-47.852,-51.758,-66.406,-65.430
1683632183.783,-119.141,-112.305,-111.328,-188.965
1683632183.787,-91.309,-67.383,-61.523,-125.000
1683632183.791,-4.395,12.207,16.113,37.598
1683632183.795,23.438,4.883,16.602,73.242
1683632183.752,35.645,14.648,21.973,86.914
1683632183.756,46.387,8.301,1.465,88.379
1683632183.760,-35.645,-42.969,-74.707,-66.406
1683632183.764,-104.980,-90.820,-104.492,-170.410
1683632183.768,-83.984,-46.875,-49.316,-94.238
1683632183.772,2.930,30.762,25.879,54.688
1683632183.776,31.250,24.414,19.531,83.496
1683632183.779,-47.852,-51.758,-66.406,-65.430
1683632183.783,-119.141,-112.305,-111.328,-188.965
1683632183.787,-91.309,-67.383,-61.523,-125.000
1683632183.791,-4.395,12.207,16.113,37.598
1683632183.795,23.438,4.883,16.602,73.242
1683632183.796,-51.758,-70.801,-62.500,-66.406
1683632183.800,-120.117,-95.703,-104.492,-174.805
1683632183.804,-111.816,-53.223,-62.012,-123.047
1683632183.808,-28.320,5.371,16.602,25.879
1683632183.812,29.297,19.531,27.832,91.797
1683632183.816,-24.902,-29.785,-42.480,-12.695
1683632183.820,-101.562,-55.176,-97.168,-142.578
1683632183.823,-99.121,-43.457,-71.289,-121.582
1683632183.827,-23.438,-18.066,-5.371,24.414
1683632183.831,38.574,-1.953,16.113,109.863
1683632183.835,4.883,-48.828,-44.434,12.207
1683632183.839,-74.219,-98.145,-107.422,-140.625
1683632183.841,-93.262,-77.637,-86.914,-151.855
1683632183.845,-18.555,-8.301,-5.859,-9.277
1683632183.849,49.316,41.016,35.156,91.797
1683632183.853,11.719,-10.742,-25.879,11.230
1683632183.857,-79.590,-85.938,-101.074,-150.391
1683632183.861,-109.863,-56.641,-88.867,-177.246
1683632183.865,-49.805,2.930,-22.461,-43.945
1683632183.868,29.297,37.109,24.902,80.566
1683632183.872,9.766,-33.203,-25.391,26.367
1683632183.876,-91.797,-125.000,-110.352,-139.160
1683632183.880,-140.625,-107.910,-101.074,-184.570
1683632183.884,-86.914,-46.875,-22.949,-72.754
1683632183.886,-8.301,-10.254,33.691,51.758
1683632183.890,-10.254,-30.762,6.836,32.227
1683632183.894,-99.609,-82.031,-69.824,-115.723
1683632183.898,-146.484,-80.078,-80.078,-180.176
1683632183.902,-92.773,-16.602,-12.695,-76.660
1683632183.906,3.418,40.039,51.758,76.660
1683632183.910,29.785,12.695,28.320,92.285
1683632183.913,-57.129,-93.750,-62.500,-69.336
1683632183.917,-114.258,-125.488,-90.820,-177.734
1683632183.921,-68.359,-48.340,-22.949,-81.055
1683632183.925,23.438,2.930,39.062,77.637
1683632183.929,50.781,-1.465,18.555,97.656
1683632183.931,-20.508,-65.430,-59.570,-46.875
1683632183.935,-93.750,-90.820,-90.820,-164.551
1683632183.939,-75.684,-41.504,-37.109,-99.121
1683632183.943,12.695,11.230,31.738,58.594
1683632183.947,53.223,2.441,22.461,86.426
1683632183.951,-21.973,-32.227,-50.293,-41.504
1683632183.955,-89.355,-47.363,-91.797,-153.320
1683632183.958,-77.637,-48.340,-51.758,-111.328
1683632183.962,-14.648,-41.992,17.090,37.109
1683632183.966,42.480,-23.926,32.715,101.562
1683632183.970,-9.766,-41.016,-31.738,-8.789
1683632183.974,-103.027,-81.543,-89.844,-157.715
1683632183.976,-105.469,-90.332,-62.500,-145.508
1683632183.980,-21.484,-23.926,20.020,15.137
1683632183.984,46.387,15.137,48.340,108.887
1683632183.988,3.418,-33.203,-16.602,12.695
1683632183.992,-89.844,-70.312,-81.055,-149.414
1683632183.996,-108.398,-35.156,-58.105,-153.320
1683632184.000,-26.855,-12.207,8.789,-4.395
1683632184.003,45.410,-12.207,34.180,89.844
1683632184.007,16.113,-22.949,-15.137,18.555
1683632184.011,-78.613,-65.430,-87.891,-136.230
1683632184.015,-111.816,-76.172,-85.449,-164.551
1683632184.019,-35.645,-16.602,-3.906,-22.461
1683632184.021,49.805,19.043,40.039,96.680
1683632184.025,36.133,-11.230,-7.812,44.922
1683632184.029,-49.316,-45.410,-81.055,-96.191
1683632184.033,-92.773,-68.848,-86.914,-139.648
1683632184.037,-48.828,-43.945,-14.648,-36.133
1683632184.041,19.531,29.785,43.945,100.586
1683632184.045,28.320,4.883,7.812,87.891
1683632184.048,-48.828,-79.590,-79.102,-82.520
1683632184.052,-113.281,-113.770,-95.215,-166.992
1683632184.056,-67.871,-46.387,-20.020,-57.129
1683632184.060,22.461,-0.488,35.156,97.656
1683632184.064,33.203,-22.949,10.742,83.984
1683632184.081,-39.062,-56.152,-59.082,-76.172
1683632184.085,-120.605,-83.984,-86.914,-177.734
1683632184.089,-105.957,-50.293,-29.297,-103.027
1683632184.093,-8.301,2.930,40.039,41.992
1683632184.097,18.555,3.906,26.367,48.340
1683632184.101,-61.523,-28.809,-43.945,-84.961
1683632184.105,-141.602,-74.707,-81.543,-198.242
1683632184.108,-124.023,-76.172,-41.504,-151.367
1683632184.112,-23.438,-5.371,30.762,20.508
1683632184.116,14.648,2.930,24.902,82.520
1683632184.120,-41.992,-42.969,-46.875,-46.387
1683632184.124,-92.773,-66.406,-90.820,-170.410
1683632184.126,-83.984,-60.059,-55.176,-123.047
1683632184.130,-4.395,10.254,19.531,33.691
1683632184.134,48.340,18.555,23.926,92.285
1683632184.138,-5.859,-55.176,-50.293,-15.625
1683632184.142,-97.168,-83.008,-105.469,-143.555
1683632184.146,-90.332,-19.531,-58.594,-111.328
1683632184.150,-6.348,15.625,15.625,29.297
1683632184.153,42.969,5.859,30.273,106.445
1683632184.157,3.906,-31.250,-32.227,18.555
1683632184.161,-90.820,-76.660,-99.609,-130.371
1683632184.165,-103.027,-71.289,-78.613,-143.555
1683632184.169,-22.461,-7.812,5.371,2.930
1683632184.171,33.203,18.555,37.598,105.957
1683632184.175,7.812,-30.762,-20.020,30.762
1683632184.179,-79.102,-75.195,-87.402,-116.211
1683632184.183,-103.516,-43.457,-74.707,-137.207
1683632184.187,-28.320,3.906,0.000,-22.461
1683632184.191,43.457,36.133,43.945,79.590
1683632184.195,27.832,14.648,1.953,31.250
1683632184.198,-62.988,-78.613,-78.613,-140.625
1683632184.202,-105.957,-66.895,-82.520,-198.242
1683632184.206,-47.852,4.883,-14.648,-81.055
1683632184.210,31.250,15.137,36.133,41.016
1683632184.214,18.555,-6.348,1.953,10.742
1683632184.216,-75.195,-66.895,-79.590,-130.859
1683632184.220,-125.488,-77.148,-85.449,-186.523
1683632184.224,-74.707,-20.996,-14.648,-74.219
1683632184.228,17.578,17.090,42.480,78.125
1683632184.232,27.832,-11.719,15.137,64.941
1683632184.236,-65.918,-57.129,-61.035,-96.680
1683632184.240,-121.094,-62.012,-82.520,-165.039
1683632184.243,-74.219,-41.504,-29.785,-76.172
1683632184.247,-7.812,-24.414,21.484,59.082
1683632184.251,9.766,-17.578,6.348,83.496
1683632184.255,-47.852,-49.316,-62.988,-41.992
1683632184.259,-107.910,-62.500,-90.820,-138.184
1683632184.261,-77.637,-46.387,-46.387,-75.195
1683632184.265,-6.836,2.930,16.113,54.688
1683632184.269,19.043,11.230,9.766,80.078
1683632184.273,-36.133,-43.457,-64.941,-39.551
1683632184.277,-102.051,-70.801,-112.793,-158.203
1683632184.281,-84.961,-12.695,-67.383,-120.117
1683632184.285,2.930,34.180,12.207,32.715
1683632184.288,44.922,-5.371,9.766,84.961
1683632184.292,-20.996,-53.223,-64.941,-41.016
1683632184.296,-99.609,-71.777,-111.816,-184.570
1683632184.300,-100.586,-55.176,-74.219,-174.805
1683632184.304,-28.320,2.441,0.000,-19.043
1683632184.306,29.297,14.160,16.113,58.105
1683632184.310,-9.277,-30.762,-43.945,-29.785
1683632184.314,-86.426,-75.684,-98.145,-152.344
1683632184.318,-98.633,-83.984,-77.637,-155.762
1683632184.322,-24.902,-20.020,0.488,-4.883
1683632184.326,48.340,24.414,36.133,114.746
1683632184.330,17.578,-7.324,-13.184,47.363
1683632184.333,-81.543,-63.477,-87.891,-111.816
1683632184.337,-120.117,-87.402,-89.355,-138.672
1683632184.341,-48.340,-27.832,-12.207,-1.465
1683632184.345,31.250,21.973,33.203,109.863
1683632184.349,12.695,-5.859,-8.301,56.152
1683632184.351,-76.660,-62.012,-85.938,-89.844
1683632184.355,-121.582,-71.777,-91.797,-142.578
1683632184.359,-53.223,-20.996,-21.484,-29.297
1683632184.363,18.555,38.086,28.809,93.262
1683632184.367,9.766,21.973,-7.324,57.617
1683632184.371,-59.082,-41.504,-76.172,-85.449
1683632184.375,-114.746,-64.453,-87.891,-165.039
1683632184.378,-77.637,-41.504,-37.109,-89.355
1683632184.382,10.254,1.953,21.973,40.039
1683632184.386,30.273,-6.836,2.441,39.062
1683632184.390,-48.340,-45.898,-79.102,-109.863
1683632184.394,-107.910,-53.223,-102.051,-196.289
1683632184.396,-77.148,-14.648,-40.527,-113.770
1683632184.400,-4.883,21.973,17.090,28.809
1683632184.404,13.672,13.672,3.418,51.758
1683632184.408,-55.664,-43.457,-68.359,-87.402
1683632184.412,-119.629,-71.777,-103.516,-197.266
1683632184.416,-92.773,-22.461,-43.945,-127.930
1683632184.420,-14.160,13.184,28.320,27.344
1683632184.423,13.184,-16.602,19.043,67.871
1683632184.427,-41.992,-87.891,-60.547,-58.105
1683632184.431,-108.398,-112.305,-103.027,-172.363
1683632184.435,-100.098,-75.195,-56.641,-124.512
1683632184.439,-7.812,-23.926,20.508,42.480
1683632184.456,48.828,-7.812,34.180,114.746
1683632184.460,-10.742,-41.016,-33.203,-3.418
1683632184.464,-95.703,-78.613,-87.891,-137.207
1683632184.468,-92.285,-62.012,-57.129,-108.398
1683632184.472,-12.695,-22.949,12.695,37.598
1683632184.476,45.898,20.020,40.039,120.117
1683632184.480,6.836,-10.254,-21.484,29.297
1683632184.483,-86.426,-99.609,-93.750,-122.070
1683632184.487,-103.027,-88.867,-72.266,-123.535
1683632184.491,-19.531,-16.602,6.836,16.113
1683632184.495,48.340,-7.812,29.297,93.750
1683632184.499,8.301,-48.340,-34.668,9.766
1683632184.501,-87.402,-88.379,-101.074,-146.484
1683632184.505,-111.816,-58.594,-79.590,-173.828
1683632184.509,-38.574,-3.906,-2.441,-33.203
1683632184.513,46.387,22.461,34.180,77.637
1683632184.517,26.367,-8.789,-11.230,21.484
1683632184.521,-73.730,-51.758,-80.566,-132.812
1683632184.525,-128.906,-53.223,-84.473,-185.547
1683632184.528,-78.125,-22.949,-17.090,-61.523
1683632184.532,8.789,-20.996,31.250,70.312
1683632184.536,5.859,-50.293,-12.695,34.180
1683632184.540,-80.566,-78.613,-84.961,-106.445
1683632184.544,-128.906,-57.617,-84.961,-155.762
1683632184.546,-74.707,-23.438,-19.043,-55.176
1683632184.550,20.020,19.531,35.156,87.402
1683632184.554,29.297,4.395,6.348,86.914
1683632184.558,-58.105,-52.734,-72.266,-68.359
1683632184.562,-107.910,-65.918,-92.773,-153.320
1683632184.566,-52.734,-10.254,-23.438,-68.848
1683632184.570,33.691,34.668,44.434,75.195
1683632184.573,45.898,-2.930,19.531,88.867
1683632184.577,-37.598,-70.312,-67.383,-57.617
1683632184.581,-98.633,-79.590,-100.098,-160.645
1683632184.585,-65.430,-27.344,-39.551,-93.262
1683632184.589,16.113,9.277,26.367,48.340
1683632184.591,54.688,-7.324,14.160,75.195
1683632184.595,-5.859,-34.180,-48.828,-49.805
1683632184.599,-87.402,-61.035,-82.520,-165.527
1683632184.603,-85.938,-65.430,-48.828,-139.160
1683632184.607,-1.953,-9.766,21.973,-3.418
1683632184.611,48.340,20.996,30.273,59.570
1683632184.615,-13.672,-34.180,-41.992,-48.828
1683632184.618,-94.238,-97.168,-93.750,-169.922
1683632184.622,-88.379,-91.797,-63.965,-129.883
1683632184.626,-1.953,-23.438,18.066,26.367
1683632184.630,52.734,2.441,41.992,104.980
1683632184.634,3.418,-45.898,-23.438,20.020
1683632184.636,-77.637,-97.168,-87.402,-125.977
1683632184.640,-90.820,-71.777,-61.523,-127.441
1683632184.644,-21.973,-10.742,19.531,27.344
1683632184.648,36.621,7.324,50.781,126.953
1683632184.652,3.906,-12.695,-3.418,49.805
1683632184.656,-83.008,-63.477,-75.195,-106.445
1683632184.660,-110.840,-82.031,-69.336,-138.672
1683632184.663,-46.387,-49.805,-1.953,-18.555
1683632184.667,29.297,-11.230,35.156,87.402
1683632184.671,5.859,-28.320,-13.672,31.738
1683632184.675,-76.660,-71.777,-90.820,-122.559
1683632184.679,-103.516,-67.871,-89.844,-169.434
1683632184.681,-46.875,-35.156,-22.461,-45.898
1683632184.685,28.320,3.418,27.832,90.332
1683632184.689,18.555,-17.090,-9.766,41.992
1683632184.693,-72.754,-78.125,-88.867,-128.906
1683632184.697,-124.512,-91.309,-94.238,-194.824
1683632184.701,-64.453,-20.996,-20.020,-73.730
1683632184.705,39.551,32.715,40.527,72.266
1683632184.708,50.293,2.930,3.906,53.711
1683632184.712,-41.992,-84.961,-87.891,-110.352
1683632184.716,-107.422,-104.492,-107.422,-190.918
1683632184.720,-55.176,-41.504,-34.668,-77.148
1683632184.724,26.367,-6.348,31.250,73.730
1683632184.726,30.762,-20.020,15.137,79.590
1683632184.730,-47.852,-64.941,-58.105,-74.219
1683632184.734,-111.816,-83.496,-91.309,-168.945
1683632184.738,-77.148,-38.574,-35.156,-67.383
1683632184.742,16.113,0.977,36.133,96.680
1683632184.746,34.668,19.043,25.879,120.117
1683632184.750,-52.246,-28.809,-52.734,-26.367
1683632184.753,-126.953,-114.258,-110.352,-160.645
1683632184.757,-94.238,-70.801,-63.965,-106.445
1683632184.761,-6.836,18.555,13.672,50.781
1683632184.765,25.391,5.859,7.324,85.449
1683632184.769,-17.090,-37.598,-56.152,-28.809
1683632184.771,-89.355,-67.871,-97.656,-154.297
1683632184.775,-91.797,-52.734,-61.523,-140.625
1683632184.779,-18.066,3.906,12.695,0.488
1683632184.783,46.387,15.137,26.367,87.891
1683632184.787,0.488,-33.691,-35.645,1.953
1683632184.791,-96.191,-54.688,-87.891,-149.414
1683632184.795,-100.098,-47.852,-67.383,-156.250
1683632184.798,-17.578,-15.625,3.418,-20.508
1683632184.802,42.480,-12.695,27.832,61.523
1683632184.806,-4.395,-50.781,-27.344,-1.953
1683632184.810,-99.121,-90.332,-85.938,-136.719
1683632184.814,-112.793,-59.570,-66.406,-146.973
1683632184.831,-40.527,-26.855,4.395,-15.137
1683632184.835,33.691,-2.930,40.039,107.422
1683632184.839,12.207,-17.578,-8.301,58.105
1683632184.843,-83.984,-78.613,-80.078,-106.445
1683632184.847,-125.000,-98.633,-78.125,-154.297
1683632184.851,-50.781,-15.137,2.441,-2.441
1683632184.855,50.781,34.668,54.688,145.020
1683632184.858,27.344,-25.879,8.301,95.703
1683632184.862,-76.660,-89.355,-76.172,-77.148
1683632184.866,-110.840,-83.496,-86.914,-150.391
1683632184.870,-45.898,-30.273,-21.973,-33.203
1683632184.874,38.574,2.441,29.297,99.609
1683632184.876,26.367,-22.461,-0.488,66.406
1683632184.880,-52.246,-51.758,-71.289,-76.660
1683632184.884,-103.027,-66.406,-93.750,-161.133
1683632184.888,-66.895,-31.738,-36.621,-83.496
1683632184.892,23.926,5.859,21.484,64.941
1683632184.896,47.363,11.719,6.836,79.590
1683632184.900,-28.320,-34.180,-69.336,-61.035
1683632184.903,-93.262,-76.660,-105.469,-160.645
1683632184.907,-62.988,-65.918,-51.758,-104.004
1683632184.911,21.973,-18.066,20.020,40.527
1683632184.915,49.805,-0.977,16.602,71.289
1683632184.919,-17.090,-46.387,-60.547,-59.570
1683632184.921,-101.074,-82.520,-102.539,-170.410
1683632184.925,-89.844,-41.992,-44.434,-115.234
1683632184.929,-1.465,-3.418,29.785,33.691
1683632184.933,37.109,-1.953,26.855,87.402
1683632184.937,-17.090,-32.227,-41.504,-8.301
1683632184.941,-89.355,-66.895,-87.891,-132.812
1683632184.945,-93.750,-65.430,-61.523,-112.793
1683632184.948,-12.695,-29.785,10.254,43.457
1683632184.952,52.734,-13.672,29.297,117.676
1683632184.956,-1.953,-53.223,-33.203,17.578
1683632184.960,-96.680,-90.820,-83.008,-127.930
1683632184.964,-105.469,-73.242,-58.594,-131.836
1683632184.966,-31.738,-25.879,5.859,5.371
1683632184.970,29.785,4.883,30.762,95.703
1683632184.974,-2.441,-22.949,-19.043,8.789
1683632184.978,-88.379,-77.637,-81.543,-144.531
1683632184.982,-104.004,-66.406,-66.406,-142.578
1683632184.986,-33.691,15.137,14.648,-7.812
1683632184.990,31.250,23.926,42.480,83.984
1683632184.993,4.395,-25.391,-16.113,22.949
1683632184.997,-83.984,-99.609,-92.285,-134.766
1683632185.001,-119.141,-105.469,-85.449,-180.664
1683632185.005,-60.547,-27.832,-2.441,-51.270
1683632185.009,20.508,9.277,47.363,78.125
1683632185.011,14.160,-19.043,5.371,39.062
1683632185.015,-67.383,-80.566,-69.336,-116.211
1683632185.019,-113.770,-82.031,-73.242,-175.293
1683632185.023,-63.477,-30.273,-6.836,-50.293
1683632185.027,35.156,7.812,46.387,89.355
1683632185.031,42.969,16.113,18.555,67.871
1683632185.035,-46.875,-50.293,-65.918,-83.984
1683632185.038,-100.586,-111.328,-90.820,-169.922
1683632185.042,-41.504,-42.969,-26.367,-77.148
1683632185.046,50.293,19.043,34.668,72.754
1683632185.050,59.082,-14.160,16.113,91.797
1683632185.054,-17.090,-63.477,-59.570,-46.387
1683632185.056,-90.820,-84.473,-93.750,-154.297
1683632185.060,-57.129,-35.156,-32.227,-77.637
1683632185.064,30.273,13.672,35.645,79.102
1683632185.068,53.711,0.977,22.461,112.305
1683632185.072,-21.973,-51.270,-51.270,-22.461
1683632185.076,-106.445,-62.500,-89.844,-143.555
1683632185.080,-96.191,-22.461,-45.898,-92.773
1683632185.083,-18.066,-4.883,20.996,47.363
1683632185.087,24.414,-21.484,17.090,90.820
1683632185.091,-40.527,-49.805,-52.734,-27.344
1683632185.095,-114.746,-69.336,-97.168,-164.062
1683632185.099,-98.633,-31.250,-54.199,-131.348
1683632185.101,-16.602,-0.977,17.578,23.438
1683632185.105,45.410,-2.441,26.367,89.844
1683632185.109,0.488,-34.180,-40.039,-20.996
1683632185.113,-90.332,-70.312,-98.145,-166.016
1683632185.117,-94.238,-61.523,-68.359,-153.320
1683632185.121,-15.137,9.277,14.160,-5.859
1683632185.125,45.410,57.129,38.086,86.914
1683632185.128,5.859,-13.672,-30.762,4.883
1683632185.132,-83.496,-76.172,-93.750,-148.438
1683632185.136,-115.234,-60.059,-75.684,-178.711
1683632185.140,-38.574,-2.441,6.836,-25.391
1683632185.144,55.664,31.738,46.875,109.863
1683632185.146,32.715,-18.555,-7.812,48.340
1683632185.150,-60.059,-56.152,-67.383,-109.863
1683632185.154,-89.844,-32.715,-65.918,-149.902
1683632185.158,-33.691,1.953,-2.930,-24.902
1683632185.162,47.363,20.996,38.086,99.121
1683632185.166,38.086,6.836,-6.836,62.012
1683632185.170,-57.617,-14.648,-75.195,-86.914
1683632185.173,-116.699,-40.039,-82.520,-156.738
1683632185.177,-62.988,-38.574,-24.414,-53.711
1683632185.181,27.344,7.324,31.738,96.680
1683632185.185,21.973,-1.465,2.930,78.613
1683632185.189,-60.059,-52.246,-70.312,-79.102
1683632185.206,-115.723,-74.707,-88.867,-163.086
1683632185.210,-72.266,-24.902,-31.250,-68.848
1683632185.214,10.254,32.715,30.273,74.219
1683632185.218,20.020,18.555,6.836,66.895
1683632185.222,-46.875,-35.156,-71.289,-76.660
1683632185.226,-114.746,-62.988,-95.703,-170.898
1683632185.230,-88.867,-43.457,-39.062,-100.586
1683632185.233,8.301,-9.277,23.926,52.734
1683632185.237,43.945,-16.113,13.184,84.473
1683632185.241,-22.949,-50.293,-57.617,-42.480
1683632185.245,-91.309,-67.871,-90.820,-151.855
1683632185.249,-69.336,-49.805,-43.945,-98.633
1683632185.251,15.137,-16.602,20.508,50.781
1683632185.255,54.688,9.766,23.438,106.445
1683632185.259,0.977,-13.672,-41.504,-8.789
1683632185.263,-79.102,-62.988,-87.891,-133.789
1683632185.267,-86.426,-51.270,-54.688,-108.887
1683632185.271,-1.465,32.227,24.414,49.805
1683632185.275,49.805,40.527,35.156,127.441
1683632185.278,-12.207,-38.086,-39.551,7.324
1683632185.282,-91.797,-95.703,-97.168,-129.883
1683632185.286,-94.727,-62.012,-63.965,-109.863
1683632185.290,-25.879,4.883,16.113,25.879
1683632185.294,36.133,6.836,29.297,101.562
1683632185.296,0.000,-41.504,-34.180,23.438
1683632185.300,-89.844,-84.961,-95.215,-128.906
1683632185.304,-109.863,-59.082,-74.219,-145.996
1683632185.308,-41.992,-13.184,1.953,-17.578
1683632185.312,21.484,-2.930,24.902,79.102
1683632185.316,2.930,-5.371,-18.066,30.273
1683632185.320,-76.172,-65.918,-85.449,-121.094
1683632185.323,-112.305,-95.703,-92.773,-171.875
1683632185.327,-37.109,-20.020,-15.137,-34.668
1683632185.331,59.082,11.230,37.109,107.910
1683632185.335,54.199,-31.738,-10.742,61.035
1683632185.339,-39.062,-86.426,-89.355,-111.328
1683632185.341,-96.191,-87.891,-90.332,-169.922
1683632185.345,-45.898,-27.344,-15.625,-49.316
1683632185.349,39.551,12.695,39.551,88.379
1683632185.353,38.574,-19.043,6.836,68.359
1683632185.357,-52.246,-79.102,-68.359,-76.660
1683632185.361,-107.422,-72.266,-78.125,-146.973
1683632185.365,-62.500,-28.809,-15.625,-53.711
1683632185.368,24.902,19.043,43.945,91.797
1683632185.372,33.691,-25.879,9.766,92.773
1683632185.376,-46.875,-80.078,-69.824,-62.012
1683632185.380,-113.281,-75.195,-83.984,-157.715
1683632185.384,-81.543,-31.738,-21.484,-69.824
1683632185.386,3.418,5.371,37.598,72.754
1683632185.390,35.645,7.812,28.809,104.980
1683632185.394,-38.086,-38.574,-45.898,-38.574
1683632185.398,-122.070,-75.195,-87.891,-174.316
1683632185.402,-94.727,-53.223,-36.133,-107.910
1683632185.406,7.324,30.762,43.457,57.617
1683632185.410,48.828,43.457,40.039,104.980
1683632185.413,-12.695,-50.293,-42.480,-17.578
1683632185.417,-78.613,-79.102,-91.797,-145.020
1683632185.421,-76.172,-42.969,-49.316,-103.027
1683632185.425,-4.883,-4.883,26.855,43.457
1683632185.429,44.922,-5.371,37.109,107.910
1683632185.431,4.395,-69.824,-31.250,11.230
1683632185.435,-72.754,-82.031,-84.961,-131.348
1683632185.439,-89.844,-32.715,-60.547,-127.441
1683632185.443,-17.578,-3.906,6.348,7.324
1683632185.447,51.758,4.883,27.832,90.820
1683632185.451,16.602,-7.812,-25.391,17.090
1683632185.455,-73.730,-48.828,-83.984,-125.000
1683632185.458,-97.168,-65.430,-63.477,-137.695
1683632185.462,-23.438,-39.062,3.418,-0.977
1683632185.466,63.477,0.488,34.668,110.352
1683632185.470,25.879,-21.484,-16.602,38.086
1683632185.474,-80.566,-77.148,-85.938,-118.652
1683632185.476,-105.957,-72.754,-76.660,-149.414
1683632185.480,-36.133,-9.766,-4.883,-17.090
1683632185.484,35.645,18.555,30.273,103.516
1683632185.488,21.484,-3.418,-14.648,61.035
1683632185.492,-61.523,-44.434,-83.008,-92.285
1683632185.496,-100.098,-54.688,-89.844,-148.926
1683632185.500,-46.875,1.953,-21.484,-31.738
1683632185.503,23.926,17.090,21.973,94.238
1683632185.507,21.484,-35.645,-18.555,46.875
1683632185.511,-57.617,-66.406,-83.984,-109.863
1683632185.515,-111.328,-55.176,-90.332,-170.410
1683632185.519,-67.871,-13.672,-22.461,-71.289
1683632185.521,12.695,20.508,38.086,57.617
1683632185.525,30.762,11.719,13.184,58.594
1683632185.529,-38.574,-46.387,-70.312,-76.660
1683632185.533,-104.980,-77.637,-100.586,-169.922
1683632185.537,-82.031,-37.109,-46.875,-101.074
1683632185.541,-4.395,34.668,24.414,48.828
1683632185.545,30.762,28.320,15.625,82.031
1683632185.548,-20.020,-37.598,-59.082,-48.340
1683632185.552,-101.562,-89.355,-101.074,-173.340
1683632185.556,-84.961,-60.547,-52.246,-116.211
1683632185.560,15.137,12.207,19.531,47.852
1683632185.564,52.734,10.742,14.648,80.078
1683632185.581,-26.367,-52.734,-57.617,-50.781
1683632185.585,-113.770,-84.961,-97.168,-172.852
1683632185.589,-91.309,-46.387,-47.852,-121.582
1683632185.593,2.930,8.301,24.414,49.316
1683632185.597,47.852,12.207,23.438,99.609
1683632185.601,-7.812,-9.277,-39.062,-15.625
1683632185.605,-106.445,-57.617,-95.703,-155.762
1683632185.608,-110.352,-67.383,-74.707,-136.719
1683632185.612,-22.461,-10.254,-0.977,12.695
1683632185.616,37.109,20.020,22.461,100.098
1683632185.620,10.742,-26.367,-34.180,10.742
1683632185.624,-83.984,-72.754,-97.656,-141.602
1683632185.626,-116.699,-51.758,-80.078,-151.367
1683632185.630,-33.203,15.625,-2.441,-14.648
1683632185.634,25.391,36.133,29.297,85.449
1683632185.638,-13.184,-12.207,-23.926,14.648
1683632185.642,-97.168,-72.754,-93.262,-152.344
1683632185.646,-121.094,-50.781,-80.078,-177.246
1683632185.650,-52.734,12.207,-4.883,-45.410
1683632185.653,21.484,14.160,25.879,61.035
1683632185.657,0.000,-45.410,-25.879,2.930
1683632185.661,-83.496,-77.637,-91.309,-143.555
1683632185.665,-118.164,-66.895,-89.844,-184.082
1683632185.669,-62.012,-12.207,-14.160,-72.754
1683632185.671,29.785,13.184,35.156,60.059
1683632185.675,35.645,-20.020,-8.301,34.180
1683632185.679,-42.480,-63.477,-77.148,-102.539
1683632185.683,-87.402,-66.895,-83.984,-153.320
1683632185.687,-49.805,-31.738,-22.461,-55.664
1683632185.691,37.598,36.133,40.039,98.633
1683632185.695,45.898,13.672,16.113,106.445
1683632185.698,-40.039,-82.520,-66.895,-45.898
1683632185.702,-89.355,-94.238,-85.938,-139.160
1683632185.706,-56.641,-42.480,-29.785,-62.500
1683632185.710,23.926,11.230,30.273,91.797
1683632185.714,41.992,0.488,13.184,103.027
1683632185.716,-38.574,-67.871,-63.477,-43.457
1683632185.720,-107.422,-75.684,-88.379,-153.320
1683632185.724,-84.473,-18.555,-29.785,-103.027
1683632185.728,-5.371,-2.930,28.320,45.898
1683632185.732,26.367,-15.137,15.625,75.195
1683632185.736,-43.945,-39.551,-50.293,-67.383
1683632185.740,-124.512,-57.617,-90.820,-181.641
1683632185.743,-115.723,-49.805,-55.664,-141.602
1683632185.747,-30.273,-15.625,6.836,5.371
1683632185.751,20.020,11.719,20.996,69.824
1683632185.755,-40.039,-33.203,-45.898,-45.898
1683632185.759,-122.070,-71.777,-100.098,-192.383
1683632185.761,-116.699,-51.758,-67.383,-168.457
1683632185.765,-25.879,10.742,10.742,-8.301
1683632185.769,33.691,19.043,33.203,83.008
1683632185.773,-14.160,-30.762,-33.691,-8.301
1683632185.777,-100.098,-74.707,-94.238,-162.598
1683632185.781,-101.562,-46.875,-68.848,-144.531
1683632185.785,-17.578,18.555,10.742,16.113
1683632185.788,37.109,3.418,36.133,100.098
1683632185.792,-3.418,-47.852,-30.762,21.973
1683632185.796,-81.543,-71.777,-90.332,-118.652
1683632185.800,-108.887,-53.223,-70.801,-133.301
1683632185.804,-43.945,-0.488,3.418,6.836
1683632185.806,38.086,18.555,42.969,112.793
1683632185.810,18.066,-9.766,-2.930,55.176
1683632185.814,-70.801,-55.176,-69.824,-96.191
1683632185.818,-110.840,-56.641,-71.289,-153.809
1683632185.822,-58.105,-4.883,0.000,-40.039
1683632185.826,20.020,24.414,50.293,88.867
1683632185.830,10.254,-10.742,6.348,44.922
1683632185.833,-74.707,-63.477,-73.730,-108.887
1683632185.837,-123.047,-107.422,-93.750,-185.547
1683632185.841,-70.312,-73.242,-30.762,-103.516
1683632185.845,20.996,-0.977,32.715,46.387
1683632185.849,25.391,-13.672,2.441,36.133
1683632185.851,-67.871,-83.008,-79.590,-129.883
1683632185.855,-128.418,-86.426,-95.215,-208.496
1683632185.859,-81.543,-27.344,-35.156,-121.094
1683632185.863,1.953,0.488,25.391,26.855
1683632185.867,23.926,0.488,10.254,60.547
1683632185.871,-45.410,-30.273,-57.129,-68.848
1683632185.875,-116.699,-72.754,-95.703,-184.570
1683632185.878,-85.938,-51.758,-54.199,-115.234
1683632185.882,4.395,-11.230,22.949,48.340
1683632185.886,40.039,9.766,27.832,96.680
1683632185.890,-18.555,-47.363,-43.945,-22.461
1683632185.894,-98.633,-97.656,-89.355,-139.160
1683632185.896,-86.426,-54.688,-47.852,-89.355
1683632185.900,4.883,0.000,23.438,62.500
1683632185.904,49.316,6.836,29.785,123.535
1683632185.908,-14.160,-50.781,-37.598,7.812
1683632185.912,-94.727,-100.098,-93.750,-140.625
1683632185.916,-96.680,-49.316,-65.430,-135.254
1683632185.920,-18.066,11.230,7.324,14.648
1683632185.923,41.504,0.000,25.879,92.285
1683632185.927,-5.859,-79.102,-43.945,-23.926
1683632185.931,-87.891,-99.609,-104.980,-164.551
1683632185.935,-105.957,-52.246,-78.125,-148.926
1683632185.939,-28.320,5.859,5.371,-2.930
1683632185.956,50.781,25.391,40.527,107.422
1683632185.960,20.996,-12.695,-6.836,43.945
1683632185.964,-81.055,-56.152,-75.684,-119.629
1683632185.968,-104.492,-56.152,-71.289,-154.785
1683632185.972,-27.344,-13.672,0.488,-27.832
1683632185.976,42.969,38.086,41.992,93.262
1683632185.980,16.602,-1.465,-7.812,45.410
1683632185.983,-79.102,-88.867,-84.961,-117.676
1683632185.987,-112.793,-78.125,-83.984,-168.945
1683632185.991,-57.617,-23.926,-13.672,-62.500
1683632185.995,10.742,12.207,36.621,64.941
1683632185.999,13.672,-5.371,2.441,53.711
1683632186.001,-57.129,-59.082,-69.824,-92.285
1683632186.005,-98.145,-54.688,-77.637,-156.250
1683632186.009,-46.387,-18.066,-18.555,-43.457
1683632186.013,36.133,-2.930,36.621,95.215
1683632186.017,52.246,-16.113,11.230,82.520
1683632186.021,-24.414,-43.945,-62.012,-61.035
1683632186.025,-95.215,-61.523,-82.520,-144.043
1683632186.028,-53.711,-27.832,-24.902,-55.664
1683632186.032,38.574,-14.648,33.203,94.727
1683632186.036,48.828,-36.621,10.254,95.703
1683632186.040,-27.344,-65.918,-60.059,-52.734
1683632186.044,-92.285,-88.867,-87.891,-150.879
1683632186.046,-68.359,-60.547,-43.457,-90.332
1683632186.050,11.719,0.000,25.879,53.711
1683632186.054,48.340,13.184,27.344,86.426
1683632186.058,-13.184,-29.297,-36.133,-41.992
1683632186.062,-100.098,-68.848,-78.613,-158.203
1683632186.066,-88.379,-49.805,-41.016,-115.723
1683632186.070,-3.906,9.766,33.691,36.133
1683632186.073,36.133,-8.301,37.598,95.703
1683632186.077,-21.484,-77.148,-37.598,-22.461
1683632186.081,-111.816,-94.727,-86.426,-164.551
1683632186.085,-112.305,-55.664,-48.340,-137.695
1683632186.089,-20.508,-1.953,23.926,24.902
1683632186.091,39.551,8.301,42.480,107.422
1683632186.095,-10.254,-27.832,-15.625,8.789
1683632186.099,-94.238,-73.730,-76.660,-138.672
1683632186.103,-95.215,-55.176,-59.082,-125.000
1683632186.107,-14.648,6.348,17.578,23.926
1683632186.111,42.969,35.645,51.270,118.652
1683632186.115,14.160,-15.137,-5.859,43.945
1683632186.118,-58.594,-63.965,-73.730,-86.914
1683632186.122,-80.078,-82.520,-72.266,-117.676
1683632186.126,-8.789,-51.758,0.977,-5.371
1683632186.130,64.453,-4.395,48.828,115.723
1683632186.134,29.297,-34.180,5.859,64.453
1683632186.136,-59.082,-96.191,-67.871,-91.797
1683632186.140,-97.168,-92.285,-68.848,-142.090
1683632186.144,-43.945,-23.438,1.465,-23.438
1683632186.148,43.945,4.883,43.457,102.539
1683632186.152,36.133,-9.766,9.277,72.754
1683632186.156,-57.617,-32.227,-59.570,-74.219
1683632186.160,-111.328,-56.641,-71.777,-153.809
1683632186.163,-67.871,-47.363,-16.113,-76.660
1683632186.167,12.207,-9.766,39.062,49.805
1683632186.171,22.461,18.066,23.438,43.945
1683632186.175,-59.082,-41.992,-65.430,-101.074
1683632186.179,-118.652,-80.566,-94.238,-186.523
1683632186.181,-91.797,-43.945,-23.926,-94.238
1683632186.185,-11.230,7.812,40.527,60.059
1683632186.189,14.648,4.883,19.043,60.547
1683632186.193,-64.941,-62.012,-58.105,-97.168
1683632186.197,-129.883,-82.031,-89.355,-198.242
1683632186.201,-95.215,-24.414,-39.062,-121.582
1683632186.205,3.418,20.508,30.273,40.039
1683632186.208,49.805,4.883,21.484,86.914
1683632186.212,-21.973,-63.477,-54.199,-48.828
1683632186.216,-95.215,-93.750,-95.215,-159.180
1683632186.220,-70.801,-53.711,-49.316,-91.797
1683632186.224,10.742,8.789,36.133,70.801
1683632186.226,49.805,-3.418,33.691,118.652
1683632186.230,-13.672,-63.965,-41.992,-5.371
1683632186.234,-102.051,-92.773,-89.844,-135.742
1683632186.238,-104.980,-64.941,-52.246,-108.887
1683632186.242,-21.973,-13.672,22.461,40.039
1683632186.246,29.785,15.625,38.574,112.793
1683632186.250,-22.949,-20.020,-27.344,9.277
1683632186.253,-112.305,-94.238,-93.262,-140.137
1683632186.257,-118.164,-92.773,-67.383,-139.160
1683632186.261,-26.367,-15.137,11.230,3.906
1683632186.265,40.527,18.066,41.504,101.074
1683632186.269,8.789,-28.320,-14.648,19.531
1683632186.271,-90.820,-81.055,-86.426,-144.531
1683632186.275,-131.836,-55.176,-73.242,-174.805
1683632186.279,-57.617,9.277,2.441,-35.156
1683632186.283,15.625,9.277,31.738,66.406
1683632186.287,-7.324,-33.691,-20.020,-1.465
1683632186.291,-81.543,-65.918,-86.914,-147.461
1683632186.295,-103.516,-49.316,-78.613,-172.852
1683632186.298,-30.273,-4.395,-3.906,-32.715
1683632186.302,46.875,-8.789,35.156,84.961
1683632186.306,30.762,-32.227,-8.301,40.039
1683632186.310,-50.781,-62.500,-78.125,-91.309
1683632186.314,-89.844,-69.336,-80.566,-137.695
1683632186.331,-38.574,-31.250,-18.555,-32.227
1683632186.335,44.922,16.602,35.156,106.934
1683632186.339,51.270,-4.395,5.371,94.238
1683632186.343,-39.551,-60.547,-70.312,-56.641
1683632186.347,-95.703,-55.664,-83.496,-130.859
1683632186.351,-50.293,10.254,-26.855,-37.598
1683632186.355,40.527,30.762,25.879,97.168
1683632186.358,51.758,-16.602,8.789,88.379
1683632186.362,-40.527,-61.523,-60.547,-63.965
1683632186.366,-117.188,-84.961,-92.773,-181.152
1683632186.370,-79.102,-35.645,-36.621,-100.586
1683632186.374,10.742,10.742,31.738,64.941
1683632186.376,27.832,-10.742,19.043,77.637
1683632186.380,-34.668,-46.387,-53.711,-64.453
1683632186.384,-110.352,-78.125,-98.145,-192.871
1683632186.388,-102.539,-65.430,-55.176,-145.508
1683632186.392,-14.648,-6.836,17.578,11.719
1683632186.396,17.578,10.742,16.113,47.852
1683632186.400,-28.809,-24.414,-45.898,-55.176
1683632186.403,-88.867,-56.641,-87.402,-156.738
1683632186.407,-76.172,-48.828,-55.176,-117.188
1683632186.411,0.488,-23.438,7.324,18.555
1683632186.415,49.805,-6.348,20.020,82.031
1683632186.419,3.906,-41.016,-42.969,-6.348
1683632186.421,-80.566,-79.590,-100.586,-133.301
1683632186.425,-92.773,-51.270,-66.895,-117.676
1683632186.429,-12.207,-1.465,9.766,30.273
1683632186.433,48.340,19.531,36.133,125.000
1683632186.437,6.348,-21.484,-23.438,40.039
1683632186.441,-69.824,-57.129,-85.449,-100.586
1683632186.445,-94.238,-66.895,-72.754,-125.977
1683632186.448,-25.391,-41.992,-3.418,6.348
1683632186.452,57.617,5.859,35.156,125.488
1683632186.456,26.855,-19.531,-20.020,47.363
1683632186.460,-67.871,-64.941,-82.520,-106.934
1683632186.464,-102.539,-59.570,-74.219,-138.184
1683632186.466,-50.781,-28.320,-9.766,-16.602
