timestamps,TP9,AF7,AF8,TP10
1680450924,-32.715,-27.832,-17.578,-20.508
1680450924,-43.457,-28.32,-22.949,-27.344
1680450924,-41.992,-37.598,-34.668,-42.969
1680450924,-32.227,-40.527,-28.809,-43.457
1680450924,-34.18,-47.363,-23.438,-16.113
1680450924,-44.922,-60.547,-24.902,4.395
1680450924,-41.504,-66.406,-18.555,-21.973
1680450924,-22.949,-83.008,-27.344,-42.48
1680450924,-4.883,-88.867,-20.508,-15.625
1680450924,-12.695,-85.449,-5.371,12.695
1680450924,-30.762,-98.145,-10.742,3.906
1680450924,-36.133,-107.91,-26.367,-24.902
1680450924,-47.852,-109.863,-39.062,-42.48
1680450924,-47.852,-106.934,-35.645,-29.785
1680450924,-28.809,-98.633,-23.438,-6.348
1680450924,-23.926,-92.773,-25.391,-0.977
1680450924,-31.25,-104.492,-35.645,-16.602
1680450924,-31.25,-106.445,-37.598,-31.25
1680450924,-35.156,-102.051,-33.203,-21.484
1680450924,-38.086,-112.305,-33.203,-2.441
1680450924,-36.621,-111.816,-23.438,2.93
1680450924,-33.691,-99.121,-19.531,-2.441
1680450924,-28.809,-97.168,-24.902,-20.996
1680450924,-21.484,-93.262,-23.926,-14.648
1680450924,-15.137,-80.078,-12.695,10.254
1680450924,-5.859,-71.777,-2.441,20.996
1680450924,-30.273,-90.82,-22.949,-4.883
1680450924,-34.668,-101.074,-27.832,-28.32
1680450924,-23.926,-91.797,-20.02,-16.602
1680450924,-36.621,-83.496,-26.367,1.465
1680450924,-40.039,-86.426,-19.043,3.906
1680450924,-30.762,-90.332,-10.254,-0.977
1680450924,-22.461,-68.848,-15.625,-12.695
1680450924,-24.902,-49.805,-24.902,-21.484
1680450924,-32.715,-45.41,-25.879,-8.301
1680450924,-31.738,-37.109,-26.367,10.742
1680450924,-21.484,-20.02,-23.926,0.977
1680450924,-29.785,-20.02,-30.273,-30.273
1680450924,-32.715,-18.555,-31.25,-28.32
1680450924,-8.301,2.441,-13.672,2.93
1680450924,-5.371,11.23,-15.137,13.672
1680450924,-29.785,-5.859,-32.227,-9.277
1680450924,-33.691,-21.973,-27.832,-33.691
1680450924,-43.945,-27.832,-26.855,-34.18
1680450924,-36.621,-21.484,-26.855,-9.766
1680450924,-15.625,-14.16,-21.973,7.324
1680450924,-20.02,-10.742,-22.949,0.488
1680450924,-14.16,-0.977,-23.926,-22.461
1680450924,-15.137,-1.953,-32.715,-38.086
1680450924,-16.602,-2.93,-31.25,-30.762
1680450924,-3.418,-4.395,-23.926,-11.719
1680450924,0.977,-6.836,-26.855,-9.277
1680450924,-10.742,-16.113,-31.738,-30.762
1680450924,-15.625,-23.438,-29.785,-40.527
1680450924,-16.113,-27.832,-23.438,-30.762
1680450924,-22.949,-37.109,-22.461,-9.766
1680450924,-33.203,-43.945,-23.438,-13.184
1680450924,-39.551,-41.016,-17.09,-31.25
1680450924,-26.855,-37.109,-17.578,-38.574
1680450924,-6.836,-34.18,-25.391,-16.602
1680450924,-14.648,-32.715,-20.02,0.488
1680450924,-20.996,-32.715,-9.766,0.488
1680450924,-27.832,-28.809,-21.973,-12.207
1680450924,-30.762,-31.25,-29.297,-30.273
1680450924,-15.137,-32.715,-23.438,-29.297
1680450924,-12.207,-28.809,-20.996,-12.695
1680450924,-18.066,-32.715,-19.043,-0.488
1680450924,-15.137,-37.109,-22.949,-18.555
1680450924,-17.578,-36.621,-23.926,-41.992
1680450924,-20.508,-36.621,-17.09,-40.527
1680450924,-23.438,-40.527,-21.484,-28.809
1680450924,-25.879,-41.016,-19.043,-19.043
1680450924,-35.156,-45.41,-16.113,-30.273
1680450924,-32.715,-49.805,-26.855,-44.922
1680450924,-13.672,-51.27,-34.668,-43.945
1680450924,-19.043,-55.664,-25.391,-28.32
1680450924,-25.879,-57.129,-20.508,-13.184
1680450924,-25.879,-61.035,-27.344,-15.625
1680450924,-22.949,-61.035,-26.855,-37.598
1680450924,-9.277,-62.988,-31.738,-43.457
1680450924,-14.648,-80.566,-20.02,-26.855
1680450924,-1.953,-75.195,3.906,2.93
1680450924,9.766,-66.895,-5.859,1.465
1680450924,-13.672,-89.355,-25.879,-39.062
1680450924,-15.625,-87.891,-24.414,-42.969
1680450924,-10.742,-83.984,-12.695,-18.066
1680450924,-19.531,-91.309,-10.742,-4.883
1680450924,-21.973,-97.168,-7.324,-6.836
1680450924,-21.973,-99.609,-12.207,-26.855
1680450924,-9.766,-88.867,-14.648,-36.621
1680450924,1.953,-88.379,-11.23,-14.648
1680450924,-14.16,-103.027,-14.648,-2.441
1680450924,-28.32,-112.305,-13.672,-14.16
1680450924,-30.762,-103.516,-18.066,-26.855
1680450924,-22.949,-99.609,-35.156,-46.387
1680450924,-19.043,-103.027,-33.203,-41.992
1680450924,-13.184,-95.703,-20.996,-10.254
1680450924,-4.883,-89.844,-14.16,0.488
1680450924,-23.926,-92.285,-23.926,-21.973
1680450924,-21.973,-93.262,-37.109,-45.41
1680450924,1.465,-94.238,-31.738,-37.109
1680450924,-9.766,-92.773,-27.344,-14.16
1680450924,-22.461,-92.773,-31.738,-12.695
1680450924,-21.484,-90.332,-14.648,-20.02
1680450924,-13.184,-89.844,-6.348,-18.555
1680450924,-23.438,-89.355,-24.902,-16.602
1680450924,-29.785,-88.379,-29.785,-17.09
1680450924,-37.598,-93.262,-34.668,-27.832
1680450924,-47.363,-93.262,-38.574,-37.598
1680450924,-36.621,-84.473,-37.598,-45.41
1680450924,-14.16,-79.102,-35.645,-48.34
1680450924,-8.301,-78.125,-27.832,-19.531
1680450925,-23.438,-72.754,-18.555,-5.859
1680450925,-24.414,-64.453,-13.672,-18.555
1680450925,-17.578,-60.059,-17.09,-33.691
1680450925,-20.996,-69.336,-20.508,-43.945
1680450925,-18.066,-66.895,-20.996,-29.785
1680450925,-17.578,-58.105,-15.625,-9.277
1680450925,-22.461,-57.129,-13.184,-14.16
1680450925,-24.902,-57.617,-19.043,-34.668
1680450925,-10.254,-56.152,-22.461,-42.969
1680450925,-9.766,-48.828,-23.926,-27.344
1680450925,-11.23,-47.363,-17.09,-5.859
1680450925,-34.668,-59.57,-19.531,-9.766
1680450925,-52.734,-62.5,-36.133,-36.133
1680450925,-22.461,-52.246,-38.086,-49.316
1680450925,-25.879,-53.223,-19.043,-29.297
1680450925,-40.527,-60.547,-11.23,-5.371
1680450925,-40.527,-56.152,-24.902,-8.789
1680450925,-37.598,-48.828,-25.391,-30.273
1680450925,-23.926,-44.922,-20.996,-38.086
1680450925,-12.695,-48.828,-21.973,-24.414
1680450925,-23.438,-47.852,-23.926,-12.207
1680450925,-26.855,-41.992,-20.02,-17.09
1680450925,-26.367,-42.969,-19.531,-40.527
1680450925,-21.973,-43.457,-22.461,-46.387
1680450925,-8.301,-38.086,-21.973,-26.367
1680450925,-13.672,-30.762,-16.602,-4.883
1680450925,-28.809,-39.551,-12.695,2.93
1680450925,-35.156,-52.246,-24.902,-24.902
1680450925,-20.996,-45.898,-28.32,-46.875
1680450925,-13.672,-42.48,-22.949,-34.668
1680450925,-24.902,-44.922,-24.902,-12.207
1680450925,-29.297,-37.109,-20.996,4.883
1680450925,-32.715,-20.996,-21.973,-16.113
1680450925,-30.273,-24.902,-30.273,-50.293
1680450925,-25.391,-40.527,-35.645,-45.898
1680450925,-28.32,-41.504,-36.133,-21.973
1680450925,-26.855,-43.457,-32.715,-10.742
1680450925,-26.367,-38.086,-20.996,-31.25
1680450925,-27.344,-36.621,-15.625,-49.316
1680450925,-19.531,-33.203,-26.367,-32.227
1680450925,-18.555,-34.668,-19.531,-10.742
1680450925,-23.926,-41.992,-18.066,-5.859
1680450925,-28.32,-40.039,-25.391,-20.508
1680450925,-34.668,-42.48,-32.715,-37.109
1680450925,-34.668,-42.48,-28.809,-40.039
1680450925,-37.598,-38.086,-20.996,-23.926
1680450925,-43.945,-39.062,-22.949,-12.695
1680450925,-44.922,-38.086,-24.414,-30.273
1680450925,-42.969,-39.062,-22.949,-45.41
1680450925,-41.992,-38.574,-25.879,-41.992
1680450925,-35.645,-37.598,-25.879,-25.391
1680450925,-39.551,-42.48,-24.414,-10.742
1680450925,-47.363,-41.504,-28.809,-16.113
1680450925,-55.664,-35.156,-34.668,-42.48
1680450925,-47.852,-39.062,-39.551,-51.758
1680450925,-28.32,-44.922,-40.527,-28.809
1680450925,-29.785,-38.574,-33.691,-13.184
1680450925,-31.25,-36.621,-27.344,-15.625
1680450925,-34.18,-41.504,-32.227,-32.715
1680450925,-30.762,-44.434,-40.039,-38.086
1680450925,-29.297,-46.387,-37.598,-27.344
1680450925,-37.598,-40.039,-28.32,-12.695
1680450925,-27.344,-38.574,-20.508,3.906
1680450925,-23.438,-36.621,-21.484,-7.324
1680450925,-21.484,-37.598,-20.02,-23.926
1680450925,-14.16,-36.621,-16.113,-20.02
1680450925,-25.879,-34.668,-25.879,-5.859
1680450925,-29.297,-44.434,-27.832,-4.395
1680450925,-14.648,-33.691,-26.367,-21.973
1680450925,-15.625,-29.297,-30.762,-35.645
1680450925,-23.438,-36.133,-33.203,-26.367
1680450925,-25.879,-32.227,-28.809,-8.301
1680450925,-29.297,-30.273,-21.484,-13.184
1680450925,-32.227,-22.949,-20.996,-35.156
1680450925,-36.133,-21.484,-33.691,-45.898
1680450925,-33.203,-27.832,-35.645,-31.25
1680450925,-28.809,-33.203,-25.391,-2.93
1680450925,-29.785,-26.367,-18.066,1.465
1680450925,-32.227,-24.902,-23.926,-25.391
1680450925,-31.738,-34.668,-26.367,-47.363
1680450925,-31.738,-37.109,-21.484,-38.574
1680450925,-33.203,-35.156,-20.996,-24.902
1680450925,-34.668,-30.762,-21.973,-11.719
1680450925,-42.48,-36.621,-25.879,-21.484
1680450925,-45.898,-47.852,-33.203,-49.316
1680450925,-49.316,-47.852,-34.18,-51.27
1680450925,-46.387,-40.039,-37.109,-34.18
1680450925,-49.316,-49.316,-22.949,-28.32
1680450925,-49.805,-57.617,-16.602,-28.32
1680450925,-44.434,-48.828,-35.645,-47.852
1680450925,-38.086,-47.852,-39.062,-53.223
1680450925,-38.086,-54.199,-35.156,-27.832
1680450925,-35.645,-48.828,-24.902,-1.953
1680450925,-45.898,-48.828,-27.344,-12.695
1680450925,-51.27,-53.223,-27.832,-45.898
1680450925,-47.852,-45.898,-32.715,-42.969
1680450925,-41.992,-34.668,-34.18,-15.625
1680450925,-38.574,-28.809,-15.625,-7.324
1680450925,-42.969,-40.039,-18.555,-22.461
1680450925,-41.992,-46.875,-33.203,-36.133
1680450925,-46.875,-41.504,-32.715,-40.527
1680450925,-34.668,-34.18,-25.391,-24.902
1680450925,-29.297,-30.273,-18.066,-5.859
1680450925,-39.062,-29.297,-12.695,-16.602
1680450925,-41.016,-32.715,-20.02,-45.41
1680450925,-39.551,-29.785,-25.879,-46.875
1680450925,-34.668,-25.391,-22.949,-22.949
1680450925,-29.785,-33.203,-27.832,-7.324
1680450925,-35.645,-36.621,-31.738,-8.301
1680450925,-33.203,-26.855,-28.809,-22.461
1680450925,-23.438,-30.273,-35.156,-28.809
1680450925,-23.926,-30.762,-36.133,-23.926
1680450925,-27.344,-29.297,-37.598,-14.648
1680450925,-35.156,-35.156,-34.18,-5.371
1680450925,-41.992,-33.691,-34.668,-17.09
1680450925,-40.527,-35.645,-35.645,-39.551
1680450925,-33.691,-30.762,-26.367,-33.203
1680450925,-33.203,-26.367,-20.996,-8.789
1680450925,-39.062,-37.598,-17.09,-4.395
1680450925,-41.016,-45.898,-25.391,-17.578
1680450925,-43.945,-48.828,-30.273,-32.227
1680450925,-38.574,-44.434,-22.949,-37.598
1680450925,-33.203,-34.18,-7.324,-23.926
1680450925,-38.086,-26.367,-8.301,-7.324
1680450925,-40.527,-27.832,-32.715,-15.137
1680450925,-40.527,-32.227,-36.133,-42.48
1680450925,-35.645,-34.668,-32.715,-41.992
1680450925,-37.598,-37.598,-36.133,-11.23
1680450925,-38.574,-34.18,-29.297,4.883
1680450925,-33.203,-32.227,-28.32,-12.695
1680450925,-33.203,-33.203,-37.598,-39.062
1680450925,-27.832,-34.668,-34.18,-41.504
1680450925,-18.555,-33.691,-33.691,-27.344
1680450925,-25.391,-30.762,-17.578,-20.02
1680450925,-38.086,-33.691,-16.113,-27.344
1680450925,-36.621,-32.227,-35.156,-41.016
1680450925,-25.391,-33.203,-40.039,-50.781
1680450925,-29.785,-32.227,-39.551,-39.551
1680450925,-45.898,-41.504,-29.785,-13.672
1680450925,-53.223,-44.434,-27.832,-20.02
1680450925,-49.805,-36.621,-33.203,-46.387
1680450925,-40.527,-38.574,-35.156,-54.688
1680450925,-27.344,-38.086,-31.738,-29.297
1680450925,-28.32,-34.668,-27.344,-4.395
1680450925,-31.25,-26.855,-22.461,-14.648
1680450925,-20.996,-23.438,-20.508,-40.039
1680450925,-23.438,-32.715,-29.297,-54.688
1680450925,-29.297,-41.016,-39.062,-52.246
1680450925,-24.902,-33.203,-22.949,-24.902
1680450925,-20.996,-25.391,-3.906,-15.137
1680450925,-24.414,-24.902,-18.066,-38.574
1680450925,-32.227,-29.297,-27.344,-55.176
1680450925,-40.527,-24.902,-25.879,-47.363
1680450925,-39.551,-24.414,-20.996,-22.949
1680450925,-46.387,-25.879,-22.949,-18.066
1680450925,-56.152,-28.32,-33.691,-41.992
1680450925,-41.992,-29.785,-31.25,-50.781
1680450925,-40.527,-23.438,-23.926,-40.039
1680450925,-48.828,-22.461,-22.461,-32.715
1680450925,-45.898,-23.438,-20.996,-28.809
1680450925,-42.48,-28.809,-4.883,-35.645
1680450925,-49.316,-29.297,-5.859,-50.781
1680450925,-54.688,-31.738,-18.066,-42.48
1680450925,-46.875,-36.621,-18.555,-17.09
1680450925,-44.434,-25.879,-24.414,-9.766
1680450925,-52.734,-24.414,-23.926,-23.926
1680450925,-35.645,-36.621,-30.762,-36.133
1680450925,-20.02,-33.691,-33.203,-36.621
1680450925,-27.344,-26.855,-22.949,-17.578
1680450925,-28.32,-19.043,-18.066,1.465
1680450925,-27.832,-16.113,-23.438,-16.113
1680450925,-22.949,-20.508,-29.785,-41.016
1680450925,-19.043,-19.043,-23.438,-28.809
1680450925,-20.02,-18.066,-26.367,-13.672
1680450925,-34.18,-23.438,-38.086,-7.812
1680450925,-31.738,-24.902,-31.738,-3.418
1680450925,-21.973,-19.531,-39.551,-21.973
1680450925,-30.762,-19.531,-47.852,-44.922
1680450925,-23.438,-24.414,-37.598,-34.668
1680450925,-26.855,-18.066,-30.273,-14.648
1680450925,-33.691,-17.09,-29.297,-13.184
1680450925,-25.879,-11.719,-29.785,-27.832
1680450925,-29.297,-6.836,-34.18,-41.504
1680450925,-39.551,-19.531,-24.414,-20.996
1680450925,-36.133,-27.344,-17.09,0
1680450925,-36.133,-19.043,-23.926,-3.906
1680450925,-39.551,-11.23,-29.297,-25.879
1680450925,-31.25,-12.207,-34.668,-38.574
1680450925,-25.879,-11.23,-38.086,-23.926
1680450925,-31.25,-2.441,-27.832,-8.301
1680450925,-36.133,-5.371,-23.926,-4.395
1680450925,-39.551,-11.23,-31.25,-22.461
1680450925,-37.109,-10.742,-32.227,-41.504
1680450925,-31.738,-4.395,-25.391,-24.902
1680450925,-20.02,1.953,-27.344,-3.906
1680450925,-24.902,-4.883,-21.973,-8.789
1680450925,-30.762,-0.488,-20.508,-29.785
1680450925,-26.855,3.906,-28.809,-45.41
1680450925,-27.832,-2.93,-25.879,-46.387
1680450925,-21.484,-3.418,-21.973,-28.32
1680450925,-30.273,2.441,-21.484,-11.719
1680450925,-35.645,3.906,-20.996,-26.367
1680450925,-27.344,0,-24.902,-50.781
1680450925,-19.531,3.906,-22.461,-38.086
1680450925,-24.902,4.395,-22.461,-12.207
1680450925,-31.25,5.859,-17.578,-12.207
1680450925,-32.715,6.836,-24.902,-25.391
1680450925,-28.32,-2.441,-35.645,-43.457
1680450925,-24.414,-0.488,-26.855,-37.598
1680450925,-20.508,3.906,-29.785,-16.602
1680450925,-29.297,-1.465,-29.297,-16.113
1680450925,-43.457,-5.371,-28.32,-24.414
1680450925,-29.297,-1.465,-26.367,-40.039
1680450925,-26.855,-5.371,-23.438,-45.41
1680450925,-32.715,-12.695,-30.273,-28.32
1680450925,-31.25,-8.789,-26.367,-17.578
1680450925,-38.086,-6.348,-19.043,-21.973
1680450925,-47.363,-10.254,-28.809,-35.645
1680450925,-44.922,-10.742,-38.574,-42.969
1680450925,-35.156,-13.184,-30.273,-23.926
1680450925,-31.738,-12.695,-21.484,-1.953
1680450925,-31.738,-6.348,-15.137,-12.207
1680450925,-23.438,-6.348,-17.09,-28.32
1680450925,-18.066,-10.742,-19.043,-32.715
1680450925,-28.32,-13.672,-21.973,-30.762
1680450925,-23.926,-17.09,-23.926,-13.672
1680450925,-13.672,-13.184,-20.996,-8.789
1680450925,-31.25,-9.766,-28.809,-36.133
1680450925,-25.391,-12.207,-28.32,-41.504
1680450925,-10.742,-10.254,-11.23,-26.855
1680450925,-27.344,-12.695,-5.371,-17.578
1680450925,-38.086,-18.555,-19.043,-21.484
1680450925,-33.691,-18.066,-29.297,-44.922
1680450925,-27.344,-15.625,-30.273,-50.781
1680450925,-24.902,-17.578,-23.438,-25.391
1680450925,-21.484,-19.531,-6.836,-6.348
1680450925,-26.855,-12.207,-9.277,-6.836
1680450925,-40.039,-16.602,-21.973,-23.926
1680450925,-32.227,-28.809,-24.902,-45.898
1680450925,-22.949,-27.344,-22.461,-32.227
1680450925,-29.785,-29.785,-19.043,-5.371
1680450925,-33.203,-26.855,-19.531,-5.859
1680450925,-40.039,-23.926,-26.855,-25.391
1680450925,-43.457,-30.273,-32.227,-44.434
1680450925,-33.203,-36.621,-24.902,-38.086
1680450925,-33.691,-33.691,-12.695,-21.973
1680450925,-41.016,-26.367,-14.16,-20.02
1680450925,-32.715,-20.996,-17.578,-26.855
1680450925,-19.531,-20.996,-20.996,-32.227
1680450925,-22.461,-23.438,-26.367,-24.414
1680450925,-27.344,-22.461,-23.926,-11.23
1680450925,-33.203,-22.461,-21.484,-2.441
1680450925,-41.016,-24.902,-23.438,-18.555
1680450925,-42.48,-22.461,-29.785,-47.363
1680450925,-34.18,-21.973,-27.344,-43.457
1680450925,-29.785,-19.531,-26.367,-15.625
1680450926,-27.832,-18.555,-28.809,1.465
1680450926,-32.715,-17.09,-20.996,-3.906
1680450926,-33.203,-15.625,-28.809,-36.621
1680450926,-32.715,-25.879,-33.691,-51.27
1680450926,-23.926,-15.625,-20.02,-17.578
1680450926,-17.09,-7.812,-4.395,5.859
1680450926,-36.133,-23.438,-16.602,-12.695
1680450926,-33.691,-28.809,-33.691,-44.922
1680450926,-10.742,-22.461,-26.855,-47.363
1680450926,-16.602,-18.555,-30.273,-28.32
1680450926,-31.25,-13.672,-28.809,-9.277
1680450926,-34.668,-15.625,-12.695,-3.418
1680450926,-35.156,-27.344,-6.348,-23.438
1680450926,-40.039,-30.762,-18.555,-48.34
1680450926,-37.598,-26.855,-25.391,-38.574
1680450926,-35.156,-24.902,-18.555,-8.301
1680450926,-38.086,-30.762,-27.832,-8.301
1680450926,-26.855,-25.879,-29.785,-25.879
1680450926,-24.902,-18.066,-31.25,-44.922
1680450926,-19.043,-15.625,-27.832,-30.762
1680450926,-4.883,-15.137,-18.066,-4.883
1680450926,-19.043,-16.113,-31.738,-12.695
1680450926,-25.879,-13.184,-35.645,-26.367
1680450926,-11.23,-16.113,-22.949,-33.691
1680450926,-8.301,-18.066,-14.16,-36.133
1680450926,-19.043,-21.484,-14.648,-32.715
1680450926,-25.879,-24.902,-16.602,-25.391
1680450926,-32.227,-24.414,-20.02,-28.32
1680450926,-31.738,-22.461,-25.879,-35.645
1680450926,-14.16,-15.625,-25.391,-36.621
1680450926,-14.648,-9.766,-17.09,-17.09
1680450926,-38.574,-11.719,-14.648,-0.977
1680450926,-27.832,-10.742,-21.484,-13.184
1680450926,-7.812,-6.348,-17.578,-32.227
1680450926,-10.742,-3.906,-19.043,-35.645
1680450926,-21.484,-9.277,-32.227,-27.832
1680450926,-36.621,-20.508,-32.227,-16.602
1680450926,-46.387,-16.602,-24.902,-21.973
1680450926,-32.227,-6.836,-30.273,-40.527
1680450926,-17.09,2.441,-35.156,-39.062
1680450926,-19.531,1.465,-27.344,-24.902
1680450926,-21.484,-6.836,-13.184,-9.277
1680450926,-24.414,-7.812,-5.859,-12.207
1680450926,-27.344,-14.648,-20.508,-36.621
1680450926,-33.203,-18.066,-28.809,-39.062
1680450926,-18.555,-11.719,-24.414,-28.32
1680450926,-8.789,-9.277,-3.418,-16.602
1680450926,-12.695,-9.766,-2.93,-13.672
1680450926,-21.973,-12.695,-28.809,-31.738
1680450926,-9.766,-13.672,-22.461,-31.738
1680450926,0,-6.348,-10.254,-11.23
1680450926,-17.09,-12.207,-17.578,-1.953
1680450926,-29.297,-18.066,-16.113,-15.137
1680450926,-32.227,-24.414,-22.949,-41.504
1680450926,-28.809,-25.391,-27.832,-45.41
1680450926,-32.715,-24.414,-24.414,-28.32
1680450926,-36.621,-29.785,-31.25,-18.555
1680450926,-43.945,-27.344,-23.926,-23.438
1680450926,-39.551,-32.715,-19.531,-40.527
1680450926,-24.414,-34.668,-34.18,-45.41
1680450926,-19.531,-24.414,-39.551,-32.227
1680450926,-14.16,-14.648,-28.32,0.488
1680450926,-37.109,-26.855,-29.297,4.395
1680450926,-34.668,-33.691,-31.738,-26.855
1680450926,-24.902,-32.715,-23.926,-41.016
1680450926,-26.855,-31.738,-23.438,-32.227
1680450926,-21.973,-26.367,-23.926,-15.137
1680450926,-22.461,-26.367,-21.484,-9.766
1680450926,-20.02,-27.344,-26.367,-24.414
1680450926,-25.391,-25.879,-21.973,-36.133
1680450926,-23.438,-28.32,-19.043,-26.367
1680450926,-25.391,-27.344,-33.691,-11.23
1680450926,-37.109,-29.785,-33.691,-12.695
1680450926,-43.457,-35.645,-24.902,-22.461
1680450926,-30.762,-30.273,-22.461,-23.926
1680450926,-29.297,-25.391,-29.297,-23.926
1680450926,-39.062,-22.461,-25.391,-20.996
1680450926,-26.855,-21.973,-22.461,1.953
1680450926,-36.133,-30.762,-38.086,-12.207
1680450926,-40.527,-35.645,-44.922,-47.852
1680450926,-27.344,-36.133,-30.762,-45.898
1680450926,-20.508,-25.391,-22.461,-18.066
1680450926,-27.832,-24.902,-26.855,-12.695
1680450926,-41.504,-36.621,-32.715,-32.715
1680450926,-44.434,-39.062,-41.504,-50.781
1680450926,-37.109,-35.156,-34.18,-48.34
1680450926,-28.809,-27.344,-20.996,-26.367
1680450926,-35.156,-27.344,-18.066,-12.207
1680450926,-44.434,-32.715,-24.902,-22.461
1680450926,-41.504,-29.297,-26.855,-43.457
1680450926,-36.621,-28.809,-30.762,-47.852
1680450926,-35.156,-32.715,-33.691,-23.438
1680450926,-37.598,-29.785,-23.438,0.488
1680450926,-48.828,-22.461,-20.508,-11.23
1680450926,-50.781,-22.949,-26.367,-34.668
1680450926,-38.086,-30.273,-35.156,-48.828
1680450926,-51.27,-35.156,-29.297,-49.805
1680450926,-50.781,-33.691,-15.137,-27.832
1680450926,-46.875,-32.227,-20.02,-19.043
1680450926,-43.945,-34.18,-28.32,-36.621
1680450926,-35.645,-28.32,-24.414,-52.734
1680450926,-37.598,-27.832,-23.438,-42.969
1680450926,-29.297,-24.902,-19.531,-18.066
1680450926,-29.297,-15.137,-15.625,-20.02
1680450926,-23.438,-20.02,-25.879,-34.668
1680450926,-26.367,-25.879,-35.156,-49.805
1680450926,-26.855,-25.879,-39.062,-44.922
1680450926,-26.855,-26.855,-30.762,-18.555
1680450926,-36.133,-23.926,-15.137,-14.648
1680450926,-35.645,-16.602,-16.602,-39.551
1680450926,-33.691,-16.602,-28.32,-52.246
1680450926,-31.25,-18.555,-30.762,-34.18
1680450926,-32.715,-21.973,-20.996,-11.23
1680450926,-41.016,-24.902,-20.996,-4.395
1680450926,-41.016,-19.531,-25.879,-25.879
1680450926,-31.738,-21.484,-24.902,-42.48
1680450926,-20.996,-24.414,-27.832,-31.738
1680450926,-18.555,-18.066,-20.02,-8.789
1680450926,-20.996,-18.555,-26.367,-4.883
1680450926,-24.902,-26.855,-25.879,-20.996
1680450926,-23.926,-34.18,-17.09,-23.926
1680450926,-32.715,-32.227,-28.809,-22.949
1680450926,-35.645,-26.855,-28.32,-8.301
1680450926,-28.32,-26.855,-19.531,2.93
1680450926,-31.738,-25.391,-17.09,-17.09
1680450926,-35.156,-33.203,-23.926,-40.039
1680450926,-29.785,-38.574,-22.461,-43.945
1680450926,-10.254,-30.273,-17.09,-19.531
1680450926,-16.602,-30.762,-22.949,-0.488
1680450926,-26.855,-24.902,-23.926,-10.742
1680450926,-16.113,-25.879,-33.203,-26.855
1680450926,-19.043,-37.109,-25.391,-38.574
1680450926,-20.02,-33.691,-19.043,-28.32
1680450926,-17.578,-29.785,-27.832,-13.184
1680450926,-24.902,-36.621,-28.809,-18.555
1680450926,-22.461,-39.551,-40.039,-41.016
1680450926,-17.578,-41.992,-39.551,-53.711
1680450926,-27.344,-46.875,-31.738,-28.809
1680450926,-35.156,-47.363,-33.691,-7.812
1680450926,-29.785,-41.504,-28.809,-12.207
1680450926,-22.949,-38.086,-26.367,-29.785
1680450926,-18.555,-36.621,-31.25,-38.086
1680450926,-23.438,-38.574,-31.25,-28.809
1680450926,-27.832,-41.016,-29.785,-16.602
1680450926,-27.344,-41.992,-31.738,-12.207
1680450926,-26.855,-43.945,-37.598,-34.18
1680450926,-33.691,-46.387,-30.762,-51.758
1680450926,-31.25,-47.363,-22.461,-42.48
1680450926,-25.391,-39.062,-27.344,-19.531
1680450926,-30.273,-40.039,-27.344,-16.113
1680450926,-38.086,-49.316,-27.344,-38.086
1680450926,-29.785,-44.434,-32.715,-50.781
1680450926,-31.25,-44.922,-36.621,-38.086
1680450926,-42.969,-46.875,-32.715,-23.926
1680450926,-34.18,-46.387,-17.09,-18.555
1680450926,-32.715,-49.316,-20.996,-27.344
1680450926,-39.062,-54.199,-37.109,-40.039
1680450926,-26.855,-40.527,-29.297,-20.996
1680450926,-7.812,-37.598,-22.949,8.789
1680450926,-27.832,-50.781,-35.156,-8.301
1680450926,-38.086,-55.176,-43.945,-41.016
1680450926,-26.367,-51.27,-41.504,-38.574
1680450926,-30.273,-47.852,-36.133,-21.484
1680450926,-26.367,-53.711,-32.227,-20.996
1680450926,-20.02,-53.223,-28.809,-22.461
1680450926,-27.832,-39.551,-17.09,-21.973
1680450926,-30.762,-39.551,-20.02,-36.621
1680450926,-30.273,-49.805,-36.621,-40.527
1680450926,-14.648,-42.969,-29.785,-13.672
1680450926,-13.184,-41.992,-9.277,4.883
1680450926,-28.32,-51.27,-9.766,-14.648
1680450926,-23.926,-52.246,-35.156,-41.016
1680450926,-14.648,-39.551,-41.504,-29.297
1680450926,-15.625,-31.25,-38.086,-9.766
1680450926,-20.996,-38.574,-27.832,-6.348
1680450926,-27.832,-45.41,-22.461,-7.324
1680450926,-30.762,-49.805,-28.809,-25.391
1680450926,-25.879,-42.969,-27.832,-35.645
1680450926,-26.367,-37.598,-24.902,-10.742
1680450926,-30.762,-43.457,-30.762,1.465
1680450926,-33.203,-45.41,-27.832,-18.066
1680450926,-28.809,-44.922,-18.555,-33.691
1680450926,-29.785,-46.387,-28.32,-42.969
1680450926,-29.297,-41.992,-37.109,-25.879
1680450926,-24.902,-33.203,-26.855,-0.488
1680450926,-24.902,-23.438,-19.531,-4.883
1680450926,-27.344,-18.555,-25.391,-17.09
1680450926,-27.832,-21.484,-24.414,-21.973
1680450926,-35.156,-29.785,-22.949,-22.949
1680450926,-33.691,-20.508,-18.066,-7.324
1680450926,-23.438,-13.184,-12.207,-0.488
1680450926,-42.969,-21.484,-27.832,-32.227
1680450926,-38.086,-23.926,-15.137,-45.898
1680450926,-26.855,-20.508,0.977,-25.391
1680450926,-37.109,-20.996,-13.672,-10.254
1680450926,-36.133,-26.367,-20.508,-7.324
1680450926,-33.691,-21.973,-26.367,-16.113
1680450926,-30.762,-20.508,-25.879,-33.691
1680450926,-25.879,-22.461,-22.949,-38.086
1680450926,-31.25,-19.531,-17.578,-20.996
1680450926,-38.574,-15.137,-19.043,-7.324
1680450926,-31.738,-7.324,-17.09,-14.16
1680450926,-21.484,-5.371,-18.066,-20.02
1680450926,-15.137,-14.16,-14.648,-21.484
1680450926,-28.809,-19.531,9.277,-13.184
1680450926,-36.133,-18.066,0.977,2.93
1680450926,-22.949,-15.137,-15.625,-1.465
1680450926,-13.672,-12.695,-13.184,-28.809
1680450926,-19.043,-12.695,-19.531,-35.645
1680450926,-19.043,-7.812,-16.113,-13.184
1680450926,-20.02,-12.695,-2.93,13.672
1680450926,-30.273,-18.555,-15.137,4.395
1680450926,-31.738,-21.484,-25.879,-38.086
1680450926,-14.16,-15.625,-29.785,-40.527
1680450926,-16.113,-15.625,-32.715,-20.508
1680450926,-24.414,-30.273,-19.531,-12.695
1680450926,-21.973,-31.25,-0.977,-10.254
1680450926,-23.926,-27.344,-17.578,-23.926
1680450926,-22.949,-32.227,-39.062,-33.691
1680450926,-17.578,-33.691,-25.879,-27.832
1680450926,-18.555,-27.832,-16.602,-9.766
1680450926,-21.484,-26.367,-19.043,-3.418
1680450926,-17.578,-32.227,-19.531,-25.391
1680450926,-13.184,-29.785,-24.414,-32.715
1680450926,-14.648,-35.156,-20.996,-16.602
1680450926,-21.484,-37.109,-21.973,-1.953
1680450926,-28.32,-32.715,-30.762,-14.16
1680450926,-29.785,-38.086,-21.973,-38.086
1680450926,-21.973,-32.227,-23.438,-43.945
1680450926,-23.926,-31.25,-33.691,-27.832
1680450926,-29.785,-35.645,-32.227,-2.441
1680450926,-32.227,-36.621,-31.738,-9.766
1680450926,-29.297,-42.969,-45.41,-39.551
1680450926,-26.855,-48.34,-47.363,-54.688
1680450926,-23.926,-47.363,-41.504,-40.527
1680450926,-30.762,-44.434,-37.598,-21.484
1680450926,-41.992,-43.945,-34.18,-19.531
1680450926,-43.457,-38.086,-42.969,-33.691
1680450926,-37.598,-42.969,-36.133,-51.27
1680450926,-42.48,-52.246,-23.438,-43.945
1680450926,-40.039,-47.852,-27.832,-21.484
1680450926,-42.48,-46.387,-26.855,-15.625
1680450926,-46.875,-50.781,-20.996,-28.32
1680450926,-41.992,-47.852,-26.855,-35.156
1680450926,-32.715,-35.156,-28.809,-30.273
1680450926,-26.367,-28.809,-16.602,-24.414
1680450926,-40.039,-38.574,-13.184,-17.578
1680450926,-37.109,-41.992,-15.137,-20.508
1680450926,-26.855,-39.062,-22.461,-35.156
1680450926,-23.926,-31.25,-23.438,-33.203
1680450926,-29.297,-38.086,-11.23,-17.578
1680450926,-35.156,-47.852,-13.184,-2.93
1680450926,-32.715,-45.41,-26.367,-9.766
1680450926,-37.598,-39.551,-36.133,-34.668
1680450926,-32.715,-33.691,-34.18,-35.645
1680450926,-17.09,-38.086,-26.367,-17.578
1680450927,-26.855,-40.039,-21.973,-2.441
1680450927,-33.203,-33.691,-18.555,-2.441
1680450927,-23.926,-34.18,-21.973,-25.879
1680450927,-25.391,-43.945,-30.273,-37.109
1680450927,-23.926,-46.387,-31.738,-19.531
1680450927,-32.715,-42.969,-14.16,7.324
1680450927,-33.691,-43.457,-12.695,5.859
1680450927,-24.414,-50.293,-26.367,-25.879
1680450927,-24.902,-49.316,-23.926,-41.992
1680450927,-20.508,-42.969,-22.461,-28.32
1680450927,-12.695,-40.039,-20.508,-3.906
1680450927,-18.555,-44.922,-25.879,-11.719
1680450927,-26.855,-50.293,-22.949,-37.109
1680450927,-27.344,-46.875,-22.949,-37.109
1680450927,-18.555,-45.41,-29.297,-10.254
1680450927,-17.09,-42.969,-22.461,11.719
1680450927,-29.297,-54.199,-21.484,-9.277
1680450927,-22.949,-52.246,-21.973,-36.621
1680450927,-17.09,-41.992,-23.438,-42.48
1680450927,-29.297,-54.688,-29.297,-39.551
1680450927,-32.227,-65.918,-21.484,-18.555
1680450927,-33.203,-60.547,-7.324,-4.883
1680450927,-30.273,-55.176,-16.113,-14.648
1680450927,-27.344,-59.082,-22.949,-26.855
1680450927,-24.414,-60.059,-25.391,-17.09
1680450927,-23.438,-56.152,-22.461,0.488
1680450927,-32.227,-53.223,-19.531,4.395
1680450927,-41.992,-52.734,-23.438,-13.184
1680450927,-22.949,-48.34,-15.137,-32.227
1680450927,-15.137,-51.758,-13.672,-28.32
1680450927,-29.785,-57.129,-16.602,-15.625
1680450927,-30.273,-56.152,-15.625,2.441
1680450927,-26.855,-53.711,-15.137,-12.695
1680450927,-33.691,-49.805,-16.602,-41.504
1680450927,-29.297,-43.457,-19.531,-36.133
1680450927,-16.602,-43.457,-18.066,-19.043
1680450927,-22.461,-42.48,-17.09,-15.625
1680450927,-34.668,-39.062,-22.949,-26.855
1680450927,-25.879,-40.039,-29.785,-43.457
1680450927,-11.719,-39.062,-27.344,-43.945
1680450927,-18.555,-45.898,-24.902,-26.367
1680450927,-24.414,-47.852,-20.508,-10.742
1680450927,-22.949,-43.457,-22.949,-16.602
1680450927,-15.625,-48.34,-29.785,-35.156
1680450927,-17.09,-53.223,-18.555,-30.762
1680450927,-27.344,-53.711,-14.16,-12.695
1680450927,-25.879,-53.223,-20.02,4.395
1680450927,-22.949,-49.805,-10.254,3.418
1680450927,-27.832,-51.758,-12.207,-26.855
1680450927,-19.043,-51.27,-23.926,-43.945
1680450927,-9.277,-47.363,-25.391,-31.738
1680450927,-14.16,-46.875,-24.414,-3.906
1680450927,-24.414,-50.781,-21.484,-6.836
1680450927,-27.832,-48.828,-20.02,-28.809
1680450927,-21.973,-40.039,-28.32,-26.367
1680450927,-21.973,-41.992,-20.508,-7.812
1680450927,-25.879,-38.574,-16.602,-13.184
1680450927,-35.645,-20.996,-28.32,-20.508
1680450927,-30.273,-17.09,-23.926,-22.461
1680450927,-13.672,-18.555,-22.949,-39.551
1680450927,-20.508,-16.113,-24.902,-45.41
1680450927,-31.738,-18.555,-30.762,-32.715
1680450927,-32.227,-20.996,-29.785,-17.09
1680450927,-35.156,-17.09,-23.926,-29.297
1680450927,-29.785,-14.648,-22.461,-44.434
1680450927,-23.438,-9.766,-20.508,-33.691
1680450927,-30.273,-3.418,-14.16,-16.113
1680450927,-34.668,-10.254,-3.906,-10.254
1680450927,-37.109,-14.16,-10.254,-21.484
1680450927,-29.297,-6.348,-17.09,-37.109
1680450927,-10.742,3.418,-16.113,-26.855
1680450927,-21.484,1.465,-17.09,-14.648
1680450927,-35.645,-2.441,-20.02,-12.695
1680450927,-35.645,2.93,-28.809,-15.625
1680450927,-26.855,10.254,-29.297,-33.691
1680450927,-21.484,9.277,-27.832,-42.969
1680450927,-28.32,5.371,-27.344,-26.367
1680450927,-37.109,5.859,-25.391,-16.113
1680450927,-33.691,5.859,-19.043,-27.344
1680450927,-29.297,4.883,-17.09,-48.828
1680450927,-26.855,9.277,-24.414,-49.805
1680450927,-23.926,10.742,-27.344,-24.902
1680450927,-26.855,12.695,-21.973,-12.695
1680450927,-31.25,18.066,-12.207,-17.578
1680450927,-31.25,23.926,-16.113,-37.109
1680450927,-23.926,24.414,-31.25,-44.922
1680450927,-23.438,20.508,-30.273,-15.625
1680450927,-27.344,20.508,-23.438,6.348
1680450927,-29.785,24.902,-24.902,-5.859
1680450927,-27.344,32.715,-24.414,-28.809
1680450927,-24.414,25.391,-19.043,-43.457
1680450927,-23.926,15.625,-15.625,-28.32
1680450927,-28.809,19.531,-15.137,-8.301
1680450927,-33.203,20.508,-16.602,-12.207
1680450927,-34.668,11.719,-19.531,-34.18
1680450927,-30.762,6.836,-25.879,-50.781
1680450927,-19.043,7.812,-25.391,-33.691
1680450927,-22.461,7.812,-15.137,-2.93
1680450927,-36.133,5.859,-19.531,-4.883
1680450927,-35.156,0.488,-24.902,-27.344
1680450927,-23.926,-3.418,-20.996,-31.25
1680450927,-23.926,-3.906,-21.484,-25.879
1680450927,-28.809,-10.254,-20.996,-11.23
1680450927,-34.668,-16.113,-15.137,-6.348
1680450927,-32.715,-17.578,-18.066,-31.25
1680450927,-32.227,-18.066,-28.32,-48.828
1680450927,-32.715,-17.578,-27.832,-43.457
1680450927,-32.715,-20.996,-25.391,-15.137
1680450927,-42.48,-23.926,-26.367,-0.977
1680450927,-42.48,-20.996,-28.809,-22.461
1680450927,-33.691,-21.973,-36.133,-39.551
1680450927,-31.738,-21.973,-35.156,-33.691
1680450927,-27.344,-21.973,-26.855,-11.719
1680450927,-31.738,-13.672,-21.484,0
1680450927,-43.457,-19.531,-22.949,-21.484
1680450927,-31.738,-33.691,-33.203,-42.969
1680450927,-27.344,-33.203,-26.855,-28.32
1680450927,-35.645,-32.227,-13.184,-13.184
1680450927,-40.039,-32.715,-26.367,-16.602
1680450927,-46.875,-36.133,-34.18,-26.367
1680450927,-48.34,-35.645,-31.738,-39.551
1680450927,-43.457,-32.227,-34.668,-48.828
1680450927,-44.434,-30.762,-35.156,-34.668
1680450927,-42.48,-25.879,-25.879,-13.672
1680450927,-52.734,-28.32,-20.508,-16.602
1680450927,-57.129,-32.715,-26.855,-36.133
1680450927,-43.945,-33.203,-29.785,-45.41
1680450927,-40.039,-33.203,-27.344,-26.855
1680450927,-36.133,-30.762,-14.16,6.348
1680450927,-34.668,-30.762,-5.859,-12.207
1680450927,-38.574,-27.832,-19.531,-43.945
1680450927,-27.832,-21.484,-22.949,-36.621
1680450927,-22.949,-18.066,-12.207,-16.602
1680450927,-34.668,-26.855,-17.578,-9.766
1680450927,-32.715,-32.715,-20.996,-17.578
1680450927,-27.344,-29.297,-19.531,-37.109
1680450927,-25.391,-31.25,-25.391,-42.48
1680450927,-23.438,-20.02,-25.879,-19.531
1680450927,-25.879,-17.09,-23.926,-5.371
1680450927,-28.809,-29.785,-19.531,-8.301
1680450927,-31.25,-36.133,-12.695,-25.391
1680450927,-30.273,-38.574,-12.695,-41.016
1680450927,-33.203,-40.039,-26.855,-28.809
1680450927,-34.668,-35.156,-24.902,-1.465
1680450927,-43.457,-33.691,-20.996,-5.859
1680450927,-48.34,-32.227,-27.344,-30.762
1680450927,-40.039,-29.785,-23.438,-40.039
1680450927,-37.109,-28.32,-20.508,-25.391
1680450927,-43.457,-30.273,-17.09,-6.836
1680450927,-53.711,-37.598,-13.184,3.906
1680450927,-51.758,-38.574,-16.602,-9.277
1680450927,-42.48,-41.016,-8.789,-36.133
1680450927,-36.133,-41.504,1.465,-42.48
1680450927,-37.109,-42.969,-16.602,-18.555
1680450927,-44.922,-48.34,-27.832,-3.906
1680450927,-38.574,-51.27,-27.832,-26.855
1680450927,-31.25,-49.805,-30.273,-42.969
1680450927,-24.902,-42.969,-27.832,-28.809
1680450927,-17.578,-47.363,-23.438,-11.23
1680450927,-26.367,-54.199,-19.531,-6.836
1680450927,-31.738,-49.805,-17.578,-18.555
1680450927,-25.879,-45.41,-26.367,-38.574
1680450927,-19.531,-51.758,-40.039,-40.527
1680450927,-22.461,-59.57,-28.32,-21.973
1680450927,-26.367,-56.152,-16.113,-9.277
1680450927,-28.809,-50.781,-25.391,-17.09
1680450927,-31.25,-60.059,-32.715,-42.48
1680450927,-25.879,-61.523,-35.645,-50.781
1680450927,-20.508,-52.734,-32.715,-26.367
1680450927,-24.414,-46.875,-25.391,-5.859
1680450927,-40.039,-50.293,-26.367,-12.207
1680450927,-49.805,-55.176,-30.762,-40.039
1680450927,-39.551,-55.664,-28.32,-49.316
1680450927,-33.203,-58.105,-30.762,-26.855
1680450927,-41.016,-60.059,-12.695,-9.277
1680450927,-51.758,-62.012,-1.953,-13.184
1680450927,-50.293,-65.43,-27.832,-27.832
1680450927,-40.039,-63.965,-31.25,-34.18
1680450927,-34.668,-60.547,-30.273,-23.926
1680450927,-34.18,-58.594,-26.855,-1.465
1680450927,-41.992,-57.617,-25.391,-7.812
1680450927,-39.062,-58.594,-22.461,-31.738
1680450927,-21.484,-54.199,-23.926,-32.227
1680450927,-19.531,-47.363,-29.785,-24.902
1680450927,-31.25,-54.688,-30.273,-20.508
1680450927,-30.762,-54.199,-20.996,-11.719
1680450927,-27.832,-50.293,-20.508,-26.367
1680450927,-33.691,-57.617,-21.973,-39.062
1680450927,-25.391,-55.176,-25.879,-21.484
1680450927,-22.949,-48.34,-31.738,-7.324
1680450927,-48.34,-54.199,-21.484,0.977
1680450927,-46.875,-63.965,-29.297,-4.883
1680450927,-24.902,-63.965,-44.922,-31.738
1680450927,-26.855,-60.059,-41.016,-41.504
1680450927,-31.738,-62.012,-25.879,-24.414
1680450927,-35.156,-59.57,-23.438,-14.16
1680450927,-36.621,-61.523,-27.832,-34.18
1680450927,-36.133,-67.871,-30.762,-52.734
1680450927,-36.621,-65.918,-45.898,-36.621
1680450927,-38.086,-71.777,-41.992,-22.461
1680450927,-39.062,-79.102,-20.996,-30.273
1680450927,-36.133,-78.125,-21.973,-31.25
1680450927,-38.574,-82.031,-26.855,-46.875
1680450927,-40.527,-83.008,-28.809,-53.711
1680450927,-32.715,-74.707,-27.344,-29.785
1680450927,-31.25,-69.336,-20.996,-14.16
1680450927,-34.668,-74.707,-23.438,-27.832
1680450927,-37.109,-74.707,-29.785,-41.992
1680450927,-30.762,-68.359,-23.438,-38.086
1680450927,-23.438,-62.5,-20.996,-22.949
1680450927,-25.391,-64.453,-24.902,-13.184
1680450927,-33.203,-71.777,-24.414,-29.785
1680450927,-32.715,-74.707,-34.18,-43.945
1680450927,-27.344,-71.777,-40.527,-36.133
1680450927,-28.809,-65.43,-31.25,-30.762
1680450927,-32.227,-62.5,-27.344,-26.855
1680450927,-48.34,-68.359,-29.297,-38.574
1680450927,-53.223,-65.918,-32.715,-50.781
1680450927,-39.062,-62.988,-35.156,-52.734
1680450927,-39.551,-71.777,-35.645,-46.387
1680450927,-41.504,-72.266,-31.738,-29.297
1680450927,-43.457,-69.336,-28.32,-27.344
1680450927,-38.574,-69.824,-31.25,-43.945
1680450927,-31.738,-72.754,-37.598,-59.57
1680450927,-26.367,-73.73,-30.273,-40.527
1680450927,-30.762,-67.383,-20.02,-15.625
1680450927,-38.574,-59.57,-30.273,-18.555
1680450927,-35.156,-55.176,-31.738,-27.832
1680450927,-30.273,-53.223,-30.762,-43.945
1680450927,-26.855,-52.734,-32.227,-35.156
1680450927,-28.32,-49.805,-29.785,-8.789
1680450927,-41.992,-48.828,-25.391,-9.277
1680450927,-42.969,-53.711,-31.25,-29.297
1680450927,-27.832,-50.293,-30.762,-41.504
1680450927,-20.02,-44.434,-28.809,-30.273
1680450927,-30.762,-55.176,-24.414,-20.02
1680450927,-41.016,-57.617,-9.277,-20.996
1680450927,-34.668,-44.922,-26.855,-27.832
1680450927,-28.32,-44.922,-38.086,-43.945
1680450927,-27.344,-47.852,-27.832,-42.969
1680450927,-35.645,-47.852,-27.344,-27.344
1680450927,-39.551,-45.41,-29.785,-20.996
1680450927,-38.086,-42.969,-20.996,-21.973
1680450927,-34.668,-42.48,-17.578,-25.879
1680450927,-28.32,-36.133,-19.043,-36.621
1680450927,-24.414,-28.809,-15.137,-29.297
1680450927,-32.227,-35.156,-19.043,-15.625
1680450927,-45.41,-44.922,-10.742,-25.391
1680450927,-39.551,-47.852,-12.207,-42.969
1680450927,-30.273,-47.852,-30.762,-43.945
1680450927,-35.156,-42.48,-20.02,-27.344
1680450927,-38.086,-41.992,-14.16,-15.625
1680450927,-39.062,-45.41,-22.949,-6.836
1680450927,-47.363,-44.922,-28.809,-29.297
1680450927,-39.062,-43.945,-28.809,-39.062
1680450927,-24.414,-40.039,-19.531,-16.113
1680450928,-28.32,-41.992,-18.066,-9.766
1680450928,-31.738,-35.645,-20.508,-18.066
1680450928,-29.297,-29.785,-18.555,-27.344
1680450928,-23.438,-35.645,-22.949,-37.109
1680450928,-23.438,-38.574,-25.391,-31.25
1680450928,-26.367,-33.203,-21.973,-4.883
1680450928,-33.203,-36.621,-21.484,-7.324
1680450928,-36.133,-39.062,-25.879,-27.832
1680450928,-30.762,-30.273,-36.133,-32.715
1680450928,-32.227,-31.738,-34.18,-21.484
1680450928,-36.133,-41.016,-30.762,-5.859
1680450928,-38.086,-43.457,-31.738,-10.742
1680450928,-31.25,-44.922,-35.645,-35.645
1680450928,-21.484,-36.621,-37.598,-38.086
1680450928,-15.137,-34.668,-23.438,-23.438
1680450928,-11.23,-41.992,-12.695,-8.301
1680450928,-22.949,-39.062,-19.043,-4.395
1680450928,-23.926,-35.156,-15.625,-22.461
1680450928,-12.207,-30.762,-19.531,-30.273
1680450928,-13.672,-30.762,-28.809,-19.531
1680450928,-24.414,-32.715,-20.508,-3.906
1680450928,-29.785,-30.762,-9.277,3.418
1680450928,-30.762,-32.715,-14.648,-3.418
1680450928,-36.621,-40.039,-27.344,-30.273
1680450928,-36.621,-41.016,-29.297,-45.898
1680450928,-27.344,-33.203,-22.461,-13.672
1680450928,-26.367,-35.645,-17.578,-7.324
1680450928,-35.156,-40.527,-20.996,-34.18
1680450928,-38.574,-42.969,-29.297,-50.293
1680450928,-34.18,-45.898,-32.715,-43.945
1680450928,-24.902,-40.527,-23.438,-9.766
1680450928,-23.926,-43.945,-22.461,-2.441
1680450928,-31.738,-52.246,-23.926,-20.996
1680450928,-35.156,-53.223,-27.832,-35.156
1680450928,-23.438,-48.34,-35.645,-33.203
1680450928,-24.414,-43.945,-41.504,-14.648
1680450928,-33.691,-43.457,-33.203,2.93
1680450928,-34.668,-37.598,-20.996,0
1680450928,-34.18,-41.504,-25.879,-30.762
1680450928,-22.949,-45.41,-27.344,-38.086
1680450928,-2.441,-35.645,-20.02,-3.906
1680450928,2.441,-30.762,-16.602,14.16
1680450928,-17.578,-35.645,-17.578,-5.371
1680450928,-24.902,-39.551,-24.414,-28.32
1680450928,-12.207,-39.062,-27.832,-25.391
1680450928,-3.906,-32.715,-21.973,-4.883
1680450928,-10.254,-35.156,-15.137,5.371
1680450928,-17.578,-36.133,-18.066,-3.418
1680450928,-16.113,-28.32,-27.832,-21.484
1680450928,-13.184,-23.926,-24.414,-25.391
1680450928,-12.207,-24.414,-22.461,-14.648
1680450928,-15.137,-32.715,-25.879,-0.977
1680450928,-17.09,-33.691,-24.414,-3.418
1680450928,-21.484,-32.227,-20.508,-20.996
1680450928,-24.414,-38.574,-27.832,-32.715
1680450928,-24.414,-39.062,-27.832,-33.691
1680450928,-23.926,-38.086,-22.461,-3.906
1680450928,-22.461,-37.598,-20.996,18.066
1680450928,-28.809,-32.227,-26.367,-12.207
1680450928,-26.855,-35.156,-33.691,-34.18
1680450928,-20.02,-30.762,-31.25,-15.137
1680450928,-13.184,-34.668,-13.672,3.418
1680450928,-18.555,-54.199,2.441,3.418
1680450928,-19.531,-40.527,-6.836,-2.441
1680450928,-7.324,-20.996,-18.555,-23.926
1680450928,-10.254,-24.414,-14.648,-27.832
1680450928,-18.555,-27.832,-14.16,3.906
1680450928,-20.508,-27.344,-9.766,15.625
1680450928,-20.02,-26.855,-7.324,-11.23
1680450928,-21.484,-30.273,-18.555,-38.086
1680450928,-25.879,-36.133,-23.438,-31.25
1680450928,-26.367,-38.086,-19.531,-3.906
1680450928,-22.461,-40.039,-23.438,0
1680450928,-20.996,-38.086,-24.414,-21.484
1680450928,-21.484,-39.551,-32.715,-42.48
1680450928,-22.461,-42.48,-31.25,-29.297
1680450928,-27.832,-43.457,-22.461,-17.09
1680450928,-32.227,-39.062,-21.973,-20.02
1680450928,-27.832,-35.645,-20.508,-19.531
1680450928,-21.973,-35.156,-18.555,-35.156
1680450928,-26.855,-37.598,-15.625,-37.109
1680450928,-37.109,-43.457,-23.926,-25.879
1680450928,-36.621,-43.457,-23.438,-16.113
1680450928,-39.062,-43.457,-19.043,-18.555
1680450928,-45.41,-46.387,-23.438,-39.551
1680450928,-41.504,-41.016,-32.227,-40.039
1680450928,-37.598,-41.504,-39.551,-25.879
1680450928,-41.992,-51.758,-34.18,-20.508
1680450928,-47.852,-51.27,-28.32,-20.02
1680450928,-46.875,-45.41,-38.086,-28.32
1680450928,-37.598,-43.457,-41.016,-43.457
1680450928,-36.621,-39.062,-32.715,-40.527
1680450928,-40.527,-30.762,-25.391,-14.648
1680450928,-39.062,-32.227,-28.32,-6.836
1680450928,-39.551,-40.039,-34.668,-26.367
1680450928,-37.109,-41.016,-30.762,-46.387
1680450928,-38.574,-40.039,-26.367,-41.504
1680450928,-35.645,-31.25,-20.996,-12.695
1680450928,-28.32,-28.32,-26.367,-0.977
1680450928,-29.297,-34.18,-29.785,-22.461
1680450928,-34.668,-36.621,-23.926,-48.828
1680450928,-35.645,-32.227,-31.25,-44.922
1680450928,-39.062,-29.785,-28.809,-15.625
1680450928,-36.133,-31.25,-19.531,-8.301
1680450928,-30.762,-33.203,-26.367,-26.367
1680450928,-27.832,-29.785,-36.621,-31.25
1680450928,-27.832,-23.438,-30.273,-31.25
1680450928,-34.668,-26.367,-22.461,-23.438
1680450928,-27.832,-27.832,-19.043,-7.324
1680450928,-25.879,-20.508,-21.484,-16.602
1680450928,-32.227,-25.391,-24.902,-44.434
1680450928,-36.621,-33.691,-34.668,-49.805
1680450928,-38.574,-34.18,-34.668,-20.02
1680450928,-29.297,-31.25,-22.949,4.395
1680450928,-22.461,-31.25,-22.461,-9.766
1680450928,-35.645,-35.156,-34.668,-38.574
1680450928,-42.969,-35.645,-39.551,-36.133
1680450928,-35.156,-36.133,-30.273,-14.16
1680450928,-32.227,-37.598,-19.043,0
1680450928,-32.715,-34.18,-17.09,-5.371
1680450928,-34.668,-30.273,-23.438,-30.273
1680450928,-41.504,-30.762,-30.762,-42.969
1680450928,-41.992,-36.621,-32.227,-32.227
1680450928,-29.785,-33.203,-27.344,-3.418
1680450928,-23.926,-31.25,-29.297,-11.23
1680450928,-27.832,-30.762,-34.668,-45.898
1680450928,-30.762,-28.809,-38.086,-49.805
1680450928,-33.691,-33.691,-41.016,-28.32
1680450928,-31.738,-36.621,-32.227,-5.371
1680450928,-30.273,-34.18,-21.484,-10.254
1680450928,-33.691,-30.273,-24.414,-29.785
1680450928,-39.062,-38.086,-23.926,-40.527
1680450928,-28.32,-42.969,-28.32,-25.879
1680450928,-26.855,-37.109,-13.184,-0.488
1680450928,-32.227,-39.062,-2.93,-12.695
1680450928,-34.18,-42.969,-36.133,-47.363
1680450928,-40.527,-49.805,-44.922,-63.477
1680450928,-47.852,-50.293,-43.457,-52.246
1680450928,-33.691,-40.527,-29.785,-23.926
1680450928,-18.555,-36.133,-14.648,-6.836
1680450928,-28.32,-41.016,-27.832,-28.32
1680450928,-30.762,-43.945,-38.086,-51.27
1680450928,-42.969,-48.34,-40.527,-37.598
1680450928,-38.574,-48.34,-36.621,-12.207
1680450928,-23.926,-44.922,-25.879,-5.859
1680450928,-25.391,-31.738,-21.484,-25.391
1680450928,-35.156,-30.762,-34.668,-51.758
1680450928,-42.969,-40.039,-34.668,-53.223
1680450928,-41.504,-42.969,-28.809,-15.625
1680450928,-33.691,-32.715,-25.391,10.742
1680450928,-30.762,-26.855,-18.066,-7.324
1680450928,-39.551,-35.156,-25.879,-43.945
1680450928,-45.898,-36.621,-28.809,-48.34
1680450928,-33.691,-33.203,-16.113,-21.484
1680450928,-32.715,-30.273,-9.766,-1.465
1680450928,-39.062,-26.855,-15.625,-3.418
1680450928,-38.086,-24.902,-20.02,-27.832
1680450928,-38.086,-20.02,-15.625,-40.527
1680450928,-36.133,-26.855,-17.09,-16.602
1680450928,-31.738,-26.855,-22.461,14.16
1680450928,-30.273,-23.438,-14.16,1.465
1680450928,-36.133,-31.738,-14.648,-33.203
1680450928,-41.504,-41.504,-24.414,-46.387
1680450928,-32.227,-35.645,-23.438,-22.461
1680450928,-24.902,-22.949,-16.113,10.254
1680450928,-27.344,-23.438,-17.578,4.883
1680450928,-32.227,-32.227,-28.32,-36.621
1680450928,-27.344,-32.715,-27.832,-42.48
1680450928,-22.461,-27.344,-22.461,-15.137
1680450928,-12.207,-23.438,-15.625,9.766
1680450928,-12.207,-26.367,-22.461,2.441
1680450928,-30.273,-36.621,-33.691,-30.273
1680450928,-40.039,-41.504,-16.113,-47.363
1680450928,-32.227,-35.156,-12.207,-27.344
1680450928,-18.555,-30.762,-19.531,10.742
1680450928,-12.207,-31.25,-19.531,10.742
1680450928,-14.648,-31.25,-20.508,-19.043
1680450928,-26.367,-34.18,-29.297,-46.875
1680450928,-29.785,-36.133,-39.551,-43.457
1680450928,-26.367,-37.598,-26.855,-14.16
1680450928,-25.391,-35.645,-11.23,-8.301
1680450928,-22.461,-30.273,-11.23,-22.949
1680450928,-29.785,-30.273,-23.926,-38.574
1680450928,-35.156,-32.227,-20.996,-45.41
1680450928,-28.809,-38.086,-9.766,-16.113
1680450928,-24.414,-36.621,-19.043,4.883
1680450928,-30.273,-32.227,-28.32,-23.438
1680450928,-31.25,-32.227,-26.855,-45.898
1680450928,-33.203,-30.273,-22.949,-45.898
1680450928,-31.738,-29.297,-19.531,-32.227
1680450928,-14.648,-28.809,-13.184,-15.137
1680450928,-17.578,-32.227,-14.648,-25.879
1680450928,-29.785,-34.18,-23.926,-42.969
1680450928,-25.391,-24.902,-28.32,-40.039
1680450928,-22.461,-28.809,-30.273,-21.484
1680450928,-15.625,-38.086,-12.695,0.488
1680450928,-7.812,-32.227,-21.973,-12.695
1680450928,-21.484,-30.273,-44.922,-56.641
1680450928,-34.18,-32.715,-35.156,-59.082
1680450928,-19.043,-22.949,-23.926,-21.973
1680450928,-2.93,-17.09,-16.602,11.23
1680450928,-3.906,-23.926,-6.836,8.789
1680450928,-14.648,-28.809,-14.648,-23.438
1680450928,-17.578,-32.715,-22.949,-37.598
1680450928,-5.371,-32.227,-17.09,-20.02
1680450928,-6.348,-26.367,-13.672,5.371
1680450928,-11.719,-22.461,-13.184,1.953
1680450928,-17.578,-27.832,-22.461,-22.949
1680450928,-21.973,-31.25,-34.668,-39.551
1680450928,-14.16,-25.391,-24.902,-22.949
1680450928,-13.672,-20.02,-15.625,12.695
1680450928,-16.602,-21.484,-12.695,8.301
1680450928,-23.438,-26.367,-23.926,-33.691
1680450928,-29.785,-31.738,-26.367,-57.617
1680450928,-29.785,-33.203,-24.902,-34.18
1680450928,-22.949,-31.738,-24.902,-2.93
1680450928,-19.531,-31.738,-20.508,-0.488
1680450928,-23.438,-28.809,-29.785,-18.555
1680450928,-26.855,-32.227,-28.32,-27.832
1680450928,-27.344,-41.016,-41.992,-36.133
1680450928,-19.531,-40.527,-43.945,-33.203
1680450928,-19.043,-36.621,-19.043,-11.23
1680450928,-30.273,-37.598,-22.461,-30.273
1680450928,-32.715,-40.527,-35.156,-58.594
1680450928,-26.367,-38.574,-27.832,-42.48
1680450928,-14.16,-38.574,-21.484,-12.695
1680450928,-10.254,-39.062,-19.043,-13.184
1680450928,-17.578,-32.227,-18.066,-26.367
1680450928,-21.484,-32.227,-34.18,-50.293
1680450928,-21.484,-34.18,-34.668,-52.246
1680450928,-26.367,-36.621,-25.879,-23.926
1680450928,-24.414,-34.668,-24.414,-7.812
1680450928,-24.902,-37.109,-29.785,-25.879
1680450928,-34.668,-40.527,-35.645,-57.617
1680450928,-36.133,-41.992,-42.48,-56.152
1680450928,-25.391,-42.969,-46.387,-20.02
1680450928,-16.113,-35.156,-28.809,7.812
1680450928,-19.531,-29.785,-25.879,-5.371
1680450928,-25.391,-29.785,-33.691,-34.18
1680450928,-22.949,-36.133,-37.109,-49.316
1680450928,-26.855,-45.41,-30.762,-33.203
1680450928,-24.414,-36.621,-25.391,-8.789
1680450928,-19.043,-28.32,-25.391,-15.625
1680450928,-29.785,-31.738,-28.32,-40.039
1680450928,-37.598,-31.25,-31.738,-54.199
1680450928,-34.18,-27.832,-25.391,-35.156
1680450928,-23.438,-27.832,-25.391,-8.301
1680450928,-22.461,-29.785,-32.715,-16.602
1680450928,-40.039,-32.715,-36.133,-44.922
1680450928,-53.711,-36.133,-41.504,-55.664
1680450928,-47.363,-30.762,-41.992,-31.25
1680450928,-33.203,-31.25,-24.902,0
1680450928,-34.18,-38.086,-20.996,-10.254
1680450928,-40.527,-28.809,-34.668,-35.156
1680450928,-48.828,-30.762,-39.551,-48.34
1680450928,-53.711,-39.551,-44.922,-43.457
1680450929,-49.805,-39.551,-21.973,-25.391
1680450929,-42.48,-32.715,-0.977,-15.137
1680450929,-42.969,-28.32,-20.508,-38.574
1680450929,-53.711,-33.203,-33.203,-62.5
1680450929,-51.27,-34.668,-28.809,-44.434
1680450929,-37.109,-28.32,-20.996,-12.695
1680450929,-31.25,-39.062,-26.367,-3.906
1680450929,-42.48,-49.316,-35.156,-26.367
1680450929,-61.523,-44.922,-36.621,-57.129
1680450929,-61.523,-44.434,-29.297,-53.223
1680450929,-50.293,-42.48,-26.367,-17.578
1680450929,-49.805,-40.039,-29.297,-5.371
1680450929,-53.711,-40.039,-18.555,-32.715
1680450929,-60.059,-38.086,-26.855,-56.152
1680450929,-60.059,-35.156,-32.227,-47.363
1680450929,-45.898,-34.18,-25.879,-14.16
1680450929,-38.086,-32.715,-23.926,3.906
1680450929,-42.48,-33.203,-24.414,-15.625
1680450929,-40.527,-23.438,-32.715,-38.086
1680450929,-37.109,-22.949,-33.691,-37.598
1680450929,-36.133,-32.715,-23.926,-18.555
1680450929,-24.902,-29.297,-21.484,-4.883
1680450929,-21.484,-22.949,-28.809,-20.508
1680450929,-30.273,-23.438,-20.508,-53.711
1680450929,-32.715,-24.902,-18.066,-49.316
1680450929,-17.578,-18.066,-33.203,-8.789
1680450929,-6.348,-19.043,-22.461,8.301
1680450929,-11.719,-21.973,-19.531,-15.625
1680450929,-26.855,-20.508,-31.25,-49.316
1680450929,-35.156,-19.043,-33.691,-52.734
1680450929,-28.809,-23.438,-30.273,-28.809
1680450929,-25.391,-26.855,-25.879,-2.93
1680450929,-25.879,-27.832,-27.832,-8.789
1680450929,-32.227,-25.391,-33.691,-39.062
1680450929,-34.668,-25.391,-40.039,-48.34
1680450929,-28.809,-30.762,-30.273,-17.09
1680450929,-17.578,-28.32,-17.09,9.766
1680450929,-19.531,-27.832,-16.113,-5.859
1680450929,-33.691,-31.25,-25.879,-37.598
1680450929,-39.551,-37.109,-31.738,-43.945
1680450929,-28.32,-33.691,-29.785,-28.32
1680450929,-16.602,-31.738,-23.926,-3.906
1680450929,-22.461,-34.668,-21.973,-4.883
1680450929,-28.809,-35.156,-19.043,-38.086
1680450929,-30.762,-38.086,-20.996,-48.34
1680450929,-26.855,-31.738,-28.32,-29.785
1680450929,-17.578,-24.902,-11.23,-5.859
1680450929,-13.672,-24.414,-3.906,6.836
1680450929,-27.832,-25.879,-16.602,-12.695
1680450929,-41.016,-27.832,-22.949,-39.551
1680450929,-32.715,-26.367,-22.461,-29.297
1680450929,-37.109,-26.367,-20.02,-14.16
1680450929,-36.621,-30.273,-17.09,3.906
1680450929,-27.344,-28.32,-13.184,-1.465
1680450929,-51.758,-35.645,-18.066,-43.945
1680450929,-70.312,-44.434,-23.438,-58.105
1680450929,-62.5,-40.039,-20.508,-29.785
1680450929,-42.969,-29.785,-7.812,0
1680450929,-41.016,-26.855,-11.719,-23.926
1680450929,-53.711,-29.297,-24.902,-57.617
1680450929,-49.805,-24.902,-24.902,-50.781
1680450929,-40.527,-22.949,-19.043,-20.508
1680450929,-35.156,-20.02,-12.695,-0.488
1680450929,-36.133,-22.949,-18.066,-20.508
1680450929,-36.133,-28.32,-24.902,-52.734
1680450929,-35.645,-25.879,-23.926,-51.27
1680450929,-29.297,-21.973,-23.926,-20.02
1680450929,-31.25,-25.879,-19.531,-1.465
1680450929,-33.203,-28.809,-20.508,2.93
1680450929,-33.203,-18.066,-14.16,-21.973
1680450929,-39.551,-24.414,-15.137,-48.828
1680450929,-34.668,-33.203,-22.461,-29.785
1680450929,-26.855,-32.227,-16.113,-4.395
1680450929,-33.691,-31.738,-18.555,-7.324
1680450929,-39.062,-32.227,-32.715,-36.133
1680450929,-42.969,-38.086,-40.039,-48.34
1680450929,-36.133,-39.062,-39.551,-27.344
1680450929,-21.484,-35.645,-40.039,-6.348
1680450929,-36.133,-37.109,-30.762,-11.719
1680450929,-38.086,-33.691,-23.926,-42.48
1680450929,-39.062,-30.762,-25.879,-59.57
1680450929,-39.551,-30.762,-24.414,-47.363
1680450929,-30.273,-33.203,-22.949,-18.066
1680450929,-33.691,-37.598,-25.391,-6.836
1680450929,-44.434,-41.016,-23.926,-36.133
1680450929,-49.805,-38.086,-13.184,-57.129
1680450929,-37.598,-35.645,-18.066,-39.062
1680450929,-29.785,-37.598,-22.949,-11.23
1680450929,-30.762,-33.691,-19.043,-1.953
1680450929,-25.879,-28.32,-30.762,-18.555
1680450929,-35.156,-32.227,-37.598,-47.852
1680450929,-45.41,-30.762,-32.715,-42.48
1680450929,-37.109,-27.832,-21.973,-13.672
1680450929,-31.738,-25.879,-14.648,-6.836
1680450929,-33.203,-27.344,-18.066,-22.461
1680450929,-41.504,-32.715,-28.32,-47.363
1680450929,-48.828,-37.109,-21.484,-54.688
1680450929,-39.551,-36.621,-23.926,-21.973
1680450929,-28.809,-29.785,-31.25,1.953
1680450929,-25.391,-28.32,-20.02,-14.648
1680450929,-37.109,-33.203,-23.438,-40.527
1680450929,-45.898,-37.598,-25.391,-44.922
1680450929,-31.738,-35.156,-18.066,-16.113
1680450929,-22.949,-34.668,-15.625,10.742
1680450929,-30.762,-36.621,-18.555,-9.277
1680450929,-41.992,-32.227,-20.02,-42.969
1680450929,-35.156,-31.25,-25.879,-42.48
1680450929,-20.02,-31.25,-22.461,-13.184
1680450929,-19.043,-34.668,-9.766,4.883
1680450929,-20.996,-28.32,-9.766,-5.859
1680450929,-20.996,-20.508,-20.508,-33.203
1680450929,-31.738,-32.715,-32.715,-41.992
1680450929,-33.691,-41.016,-26.367,-29.297
1680450929,-20.996,-38.086,-16.602,-6.836
1680450929,-19.043,-37.109,-13.672,-7.324
1680450929,-34.668,-40.527,-29.785,-38.574
1680450929,-42.969,-39.062,-40.039,-49.316
1680450929,-30.762,-36.621,-33.203,-36.133
1680450929,-21.973,-36.133,-35.645,-17.578
1680450929,-20.996,-33.691,-22.461,-8.301
1680450929,-17.578,-29.297,-9.277,-29.297
1680450929,-20.02,-24.902,-26.855,-52.246
1680450929,-20.508,-26.855,-35.645,-46.387
1680450929,-14.648,-26.855,-25.879,-12.207
1680450929,-15.137,-21.484,-20.02,0.488
1680450929,-17.578,-19.043,-23.926,-31.738
1680450929,-23.438,-24.414,-31.25,-45.41
1680450929,-25.879,-21.484,-31.738,-25.391
1680450929,-18.066,-20.996,-21.484,0
1680450929,-17.09,-24.414,-10.742,1.465
1680450929,-23.926,-26.855,-16.602,-24.414
1680450929,-40.527,-30.273,-22.949,-40.527
1680450929,-42.48,-30.273,-29.785,-35.156
1680450929,-30.762,-30.273,-20.996,-20.996
1680450929,-24.414,-27.832,-20.508,-9.277
1680450929,-31.25,-30.762,-30.762,-33.691
1680450929,-57.617,-36.133,-31.25,-63.477
1680450929,-52.246,-37.598,-37.598,-51.758
1680450929,-33.691,-32.227,-36.133,-20.508
1680450929,-34.18,-28.32,-22.461,-5.371
1680450929,-29.785,-34.18,-20.996,-28.809
1680450929,-36.621,-31.738,-27.832,-58.594
1680450929,-45.41,-32.715,-26.367,-55.664
1680450929,-34.668,-31.25,-18.555,-19.043
1680450929,-19.531,-23.926,-5.859,12.695
1680450929,-23.926,-20.508,-5.371,-10.742
1680450929,-41.504,-29.785,-31.25,-51.758
1680450929,-45.898,-41.504,-32.715,-52.246
1680450929,-41.016,-39.062,-26.855,-29.297
1680450929,-32.227,-33.691,-19.531,-0.977
1680450929,-36.133,-33.203,-14.16,-9.766
1680450929,-44.922,-37.109,-23.438,-42.48
1680450929,-43.945,-38.574,-31.738,-44.434
1680450929,-38.086,-29.297,-23.926,-18.066
1680450929,-29.297,-20.02,-11.719,-1.465
1680450929,-33.691,-24.414,-15.137,-14.648
1680450929,-36.621,-29.297,-24.414,-30.273
1680450929,-36.621,-24.414,-27.832,-46.387
1680450929,-37.109,-31.25,-23.926,-34.668
1680450929,-27.344,-34.18,-20.996,2.441
1680450929,-28.809,-26.855,-28.809,-3.906
1680450929,-39.551,-30.762,-29.785,-42.969
1680450929,-41.504,-39.062,-22.949,-50.293
1680450929,-39.551,-41.016,-17.09,-28.809
1680450929,-28.32,-37.109,-23.438,-14.648
1680450929,-18.066,-31.738,-11.719,-8.789
1680450929,-28.809,-33.203,-7.324,-28.809
1680450929,-29.297,-36.133,-26.367,-40.527
1680450929,-23.926,-38.086,-16.602,-17.578
1680450929,-27.344,-37.109,-6.836,13.672
1680450929,-29.297,-40.039,-14.648,9.766
1680450929,-41.504,-41.016,-24.902,-32.227
1680450929,-50.781,-33.203,-26.367,-53.223
1680450929,-34.668,-30.273,-18.555,-36.621
1680450929,-20.996,-31.738,-16.602,-13.184
1680450929,-21.484,-33.691,-21.484,-7.812
1680450929,-32.227,-36.133,-28.32,-21.973
1680450929,-41.016,-34.18,-26.855,-39.551
1680450929,-35.645,-37.109,-22.461,-40.527
1680450929,-26.855,-41.504,-22.949,-28.32
1680450929,-26.367,-41.992,-16.602,-16.602
1680450929,-23.926,-35.645,-15.625,-29.297
1680450929,-24.414,-33.691,-28.809,-52.734
1680450929,-32.227,-38.086,-32.715,-45.41
1680450929,-36.621,-42.48,-27.344,-17.09
1680450929,-33.203,-40.039,-22.461,-1.465
1680450929,-30.273,-41.016,-27.832,-19.043
1680450929,-37.109,-44.434,-27.344,-47.852
1680450929,-41.992,-41.504,-21.973,-49.316
1680450929,-34.668,-34.18,-21.973,-21.484
1680450929,-28.809,-30.273,-19.531,1.465
1680450929,-25.391,-32.227,-19.043,-9.766
1680450929,-35.156,-42.969,-28.32,-38.574
1680450929,-43.457,-48.828,-25.391,-44.434
1680450929,-32.715,-41.016,-19.531,-20.508
1680450929,-28.809,-37.598,-19.043,-11.23
1680450929,-30.273,-33.203,-16.602,-22.461
1680450929,-35.645,-33.691,-22.461,-42.48
1680450929,-37.109,-35.156,-27.344,-54.199
1680450929,-34.668,-34.18,-25.391,-33.691
1680450929,-24.414,-34.18,-19.043,-1.465
1680450929,-15.625,-30.762,-18.555,-6.348
1680450929,-27.832,-34.668,-25.879,-40.527
1680450929,-25.879,-37.109,-26.855,-48.34
1680450929,-15.625,-31.738,-10.742,-18.555
1680450929,-10.254,-23.926,-2.441,8.789
1680450929,-2.441,-16.602,-20.996,1.953
1680450929,-3.418,-14.648,-26.855,-16.602
1680450929,-16.602,-23.438,-21.973,-32.227
1680450929,-20.996,-34.668,-23.926,-27.344
1680450929,-19.531,-36.133,-21.973,-10.254
1680450929,-16.602,-36.621,-18.066,-11.23
1680450929,-20.508,-36.133,-20.508,-23.926
1680450929,-29.785,-30.273,-25.391,-26.855
1680450929,-29.785,-30.762,-32.227,-21.973
1680450929,-21.484,-36.133,-12.695,-12.695
1680450929,-17.09,-34.18,1.465,-5.371
1680450929,-17.578,-31.25,-21.973,-22.461
1680450929,-30.273,-35.156,-30.762,-45.898
1680450929,-42.48,-39.062,-27.832,-44.922
1680450929,-30.273,-28.809,-19.043,-11.23
1680450929,-27.344,-30.273,-20.508,12.207
1680450929,-24.414,-32.715,-26.855,-16.113
1680450929,-31.25,-34.18,-30.762,-47.852
1680450929,-38.574,-37.109,-29.785,-35.645
1680450929,-27.832,-27.832,-23.926,-4.883
1680450929,-26.367,-33.691,-24.414,1.953
1680450929,-28.809,-41.992,-31.25,-11.719
1680450929,-31.738,-36.621,-35.156,-38.574
1680450929,-34.668,-26.367,-34.18,-40.039
1680450929,-28.32,-25.879,-24.902,-5.371
1680450929,-26.855,-33.203,-19.043,4.395
1680450929,-27.832,-32.715,-20.02,-10.254
1680450929,-29.785,-33.203,-26.367,-31.738
1680450929,-38.086,-35.156,-31.25,-36.621
1680450929,-39.062,-32.227,-24.902,-8.789
1680450929,-30.273,-31.738,-21.973,12.695
1680450929,-24.414,-29.297,-21.484,5.371
1680450929,-38.086,-35.645,-22.949,-23.438
1680450929,-41.504,-41.992,-26.367,-32.715
1680450929,-31.738,-37.109,-28.809,-16.113
1680450929,-26.855,-29.785,-20.996,-0.977
1680450929,-22.949,-29.785,-18.066,-3.418
1680450929,-21.973,-31.25,-31.738,-33.691
1680450929,-31.738,-35.645,-45.41,-45.898
1680450929,-33.691,-40.039,-47.852,-31.738
1680450929,-24.414,-38.574,-36.133,-7.812
1680450929,-17.09,-33.203,-25.879,-3.906
1680450929,-20.508,-24.902,-30.273,-25.391
1680450929,-23.926,-15.137,-30.273,-40.527
1680450929,-23.438,-17.578,-18.066,-26.855
1680450929,-20.996,-24.414,-18.066,5.859
1680450929,-19.043,-26.367,-24.902,12.695
1680450929,-21.484,-27.344,-28.809,-13.672
1680450929,-24.414,-33.691,-28.809,-51.27
1680450929,-20.996,-35.156,-25.879,-43.945
1680450930,-22.461,-31.25,-28.32,-8.301
1680450930,-23.926,-27.344,-20.508,-2.441
1680450930,-24.902,-23.926,-17.09,-16.602
1680450930,-22.949,-25.391,-22.461,-29.297
1680450930,-25.391,-27.344,-22.949,-29.297
1680450930,-29.785,-21.484,-13.672,-16.602
1680450930,-31.738,-25.391,-8.789,-8.301
1680450930,-37.109,-27.344,-24.414,-30.762
1680450930,-40.039,-23.926,-25.879,-47.852
1680450930,-41.504,-26.367,-24.414,-38.086
1680450930,-43.945,-27.344,-30.762,-20.508
1680450930,-41.992,-24.414,-25.879,-10.254
1680450930,-35.156,-21.484,-23.926,-20.02
1680450930,-40.039,-27.344,-25.391,-48.828
1680450930,-39.551,-33.691,-21.484,-52.734
1680450930,-33.691,-31.738,-13.184,-20.996
1680450930,-35.156,-35.156,-15.625,0.977
1680450930,-32.227,-35.645,-20.996,-1.953
1680450930,-26.367,-32.715,-25.879,-29.785
1680450930,-27.344,-38.086,-30.762,-38.574
1680450930,-39.551,-37.598,-27.344,-18.555
1680450930,-39.062,-34.668,-14.648,-5.371
1680450930,-39.062,-35.156,-22.949,-26.367
1680450930,-40.039,-34.668,-33.203,-49.316
1680450930,-30.762,-33.691,-30.273,-43.945
1680450930,-21.484,-30.273,-23.438,-21.973
1680450930,-19.531,-29.297,-16.113,-2.93
1680450930,-22.949,-31.738,-24.902,-17.578
1680450930,-25.391,-29.785,-23.926,-42.969
1680450930,-21.484,-25.879,-17.578,-37.598
1680450930,-21.484,-30.273,-14.16,-14.16
1680450930,-27.832,-37.598,-15.137,3.418
1680450930,-35.645,-38.086,-8.789,-1.465
1680450930,-37.109,-37.109,-8.301,-25.391
1680450930,-27.832,-29.785,-20.02,-30.273
1680450930,-24.902,-33.691,-18.555,-15.625
1680450930,-35.156,-40.039,-20.996,-2.441
1680450930,-27.344,-33.691,-17.578,-2.93
1680450930,-21.484,-38.574,-15.137,-22.461
1680450930,-28.809,-43.457,-23.438,-33.691
1680450930,-26.367,-41.016,-24.902,-26.855
1680450930,-21.484,-37.109,-22.949,-10.742
1680450930,-9.766,-53.711,-26.855,0.488
1680450930,-28.809,-63.965,-26.855,0.977
1680450930,-22.461,-39.062,-14.16,-23.438
1680450930,-15.625,-30.762,-18.066,-37.109
1680450930,-42.969,-41.992,-28.809,-14.648
1680450930,-45.41,-43.457,-31.25,-5.859
1680450930,-39.062,-37.598,-34.18,-31.25
1680450930,-31.738,-33.691,-41.016,-41.504
1680450930,-38.086,-31.738,-40.527,-28.809
1680450930,-41.504,-29.785,-30.762,-11.719
1680450930,-34.668,-28.32,-31.738,-2.93
1680450930,-35.645,-27.344,-30.762,-19.531
1680450930,-40.527,-30.273,-31.738,-47.852
1680450930,-40.527,-36.621,-22.461,-53.223
1680450930,-35.156,-37.598,-9.766,-33.203
1680450930,-41.504,-39.551,-19.043,-18.555
1680450930,-46.875,-41.504,-27.832,-29.785
1680450930,-37.598,-45.41,-24.902,-49.805
1680450930,-37.109,-42.48,-19.043,-47.363
1680450930,-41.016,-38.574,-23.438,-18.066
1680450930,-42.969,-46.387,-30.762,-14.16
1680450930,-43.945,-47.363,-34.18,-32.715
1680450930,-34.668,-43.945,-33.203,-43.457
1680450930,-36.133,-39.062,-34.668,-45.41
1680450930,-41.016,-41.992,-38.086,-30.762
1680450930,-41.504,-50.781,-22.949,-23.926
1680450930,-45.898,-52.734,-28.32,-25.391
1680450930,-39.551,-47.852,-41.992,-36.621
1680450930,-32.227,-44.922,-39.062,-63.965
1680450930,-34.18,-41.016,-35.156,-58.105
1680450930,-41.992,-36.133,-27.832,-31.738
1680450930,-49.316,-41.504,-28.809,-30.762
1680450930,-40.527,-39.062,-30.762,-44.434
1680450930,-23.438,-31.738,-36.133,-42.48
1680450930,-26.367,-34.668,-28.809,-32.715
1680450930,-35.645,-39.551,-27.344,-23.926
1680450930,-39.062,-40.039,-22.949,-19.531
1680450930,-49.316,-44.434,-17.09,-40.527
1680450930,-34.18,-41.992,-28.809,-50.293
1680450930,-24.414,-35.156,-34.668,-31.25
1680450930,-30.273,-34.18,-32.715,-13.184
1680450930,-30.762,-35.645,-27.832,-17.09
1680450930,-29.297,-34.18,-28.32,-34.668
1680450930,-31.25,-36.621,-34.668,-47.363
1680450930,-39.551,-40.527,-40.039,-39.551
1680450930,-34.668,-36.133,-33.691,-10.254
1680450930,-37.109,-34.18,-23.926,-7.812
1680450930,-45.41,-32.227,-30.762,-40.527
1680450930,-34.668,-28.809,-40.039,-50.293
1680450930,-31.738,-29.785,-36.133,-35.645
1680450930,-36.621,-32.715,-27.832,-19.531
1680450930,-39.551,-38.086,-24.902,-17.09
1680450930,-46.875,-37.598,-30.273,-44.922
1680450930,-43.457,-36.621,-36.133,-64.453
1680450930,-30.273,-35.645,-37.598,-49.805
1680450930,-32.227,-36.133,-35.645,-31.25
1680450930,-30.273,-34.18,-24.414,-23.926
1680450930,-34.668,-32.227,-23.926,-31.25
1680450930,-41.504,-37.109,-36.621,-41.016
1680450930,-37.598,-35.156,-33.691,-35.156
1680450930,-42.969,-36.621,-31.25,-20.02
1680450930,-44.922,-45.41,-35.156,-18.066
1680450930,-41.992,-43.945,-35.645,-39.062
1680450930,-42.48,-47.363,-34.668,-46.387
1680450930,-38.086,-43.945,-30.273,-41.504
1680450930,-33.691,-36.133,-31.738,-25.391
1680450930,-46.875,-36.133,-32.715,-17.09
1680450930,-52.246,-40.039,-31.25,-24.414
1680450930,-38.086,-44.922,-28.809,-40.527
1680450930,-34.668,-46.387,-28.809,-43.457
1680450930,-41.016,-43.945,-29.297,-24.902
1680450930,-40.527,-38.574,-17.578,-9.277
1680450930,-44.922,-45.41,-18.066,-19.043
1680450930,-47.363,-48.828,-35.645,-45.41
1680450930,-40.527,-41.016,-34.18,-54.688
1680450930,-35.645,-36.133,-18.066,-40.039
1680450930,-41.504,-38.086,-18.066,-22.949
1680450930,-56.152,-41.504,-29.785,-35.156
1680450930,-59.57,-41.016,-36.133,-58.594
1680450930,-43.945,-36.621,-39.551,-58.105
1680450930,-43.945,-33.203,-36.621,-42.969
1680450930,-46.875,-33.691,-33.203,-31.738
1680450930,-43.945,-32.715,-30.273,-30.762
1680450930,-42.48,-25.879,-26.855,-42.48
1680450930,-31.738,-30.273,-27.344,-46.387
1680450930,-36.133,-36.621,-23.926,-38.086
1680450930,-41.016,-36.133,-17.578,-14.16
1680450930,-41.504,-38.086,-18.555,-8.789
1680450930,-40.039,-38.574,-33.691,-33.203
1680450930,-34.18,-32.715,-39.062,-42.48
1680450930,-34.18,-29.785,-30.273,-37.598
1680450930,-39.551,-31.25,-22.949,-19.531
1680450930,-45.41,-31.25,-18.066,-14.648
1680450930,-45.898,-34.18,-21.973,-35.645
1680450930,-33.203,-34.18,-25.879,-42.969
1680450930,-21.973,-24.414,-28.809,-29.785
1680450930,-16.602,-23.926,-21.484,-1.953
1680450930,-21.484,-23.926,-12.207,10.254
1680450930,-34.668,-23.438,-15.625,-12.207
1680450930,-34.668,-24.902,-18.066,-37.598
1680450930,-30.273,-18.066,-17.09,-32.227
1680450930,-31.25,-15.625,-18.066,-11.23
1680450930,-33.203,-20.996,-16.602,-2.441
1680450930,-38.086,-27.344,-20.02,-19.043
1680450930,-32.227,-27.832,-29.785,-44.922
1680450930,-26.367,-25.391,-31.738,-45.898
1680450930,-29.297,-20.996,-27.344,-27.832
1680450930,-29.297,-16.113,-22.461,-19.531
1680450930,-37.109,-19.043,-34.18,-35.156
1680450930,-51.27,-28.809,-28.32,-61.035
1680450930,-44.922,-34.18,-22.949,-55.664
1680450930,-30.762,-19.043,-43.457,-29.297
1680450930,-37.109,-12.695,-40.039,-12.695
1680450930,-45.41,-19.531,-30.762,-22.949
1680450930,-39.551,-19.043,-35.645,-54.199
1680450930,-37.109,-13.184,-37.109,-62.5
1680450930,-50.781,-15.625,-33.691,-42.48
1680450930,-57.617,-24.414,-34.18,-34.18
1680450930,-53.223,-17.578,-27.832,-40.039
1680450930,-50.781,-4.395,-22.461,-49.316
1680450930,-57.617,-8.301,-26.367,-61.035
1680450930,-57.129,-9.766,-14.648,-47.852
1680450930,-51.758,-3.418,-8.301,-26.367
1680450930,-50.781,6.836,-20.996,-20.508
1680450930,-47.852,11.719,-33.203,-39.551
1680450930,-41.992,8.789,-34.18,-46.387
1680450930,-33.691,20.508,-24.414,-15.137
1680450930,-39.062,25.391,-17.578,-0.977
1680450930,-44.922,25.391,-17.578,-12.695
1680450930,-37.109,21.484,-18.555,-25.879
1680450930,-34.18,5.859,-33.203,-39.062
1680450930,-45.41,0.488,-37.598,-34.668
1680450930,-47.363,-4.395,-19.043,-11.719
1680450930,-48.34,-15.625,-10.742,-7.812
1680450930,-47.363,-21.973,-25.879,-38.086
1680450930,-31.738,-16.602,-32.715,-52.246
1680450930,-29.297,-9.277,-38.086,-35.645
1680450930,-29.785,-11.719,-38.086,-19.531
1680450930,-40.039,-9.766,-28.32,-13.184
1680450930,-48.34,-10.254,-26.855,-28.809
1680450930,-39.551,-20.02,-28.809,-48.34
1680450930,-32.227,-22.461,-20.508,-41.992
1680450930,-34.18,-24.902,-15.137,-20.02
1680450930,-34.668,-24.414,-9.766,-13.672
1680450930,-41.016,-24.902,-6.348,-28.809
1680450930,-43.457,-33.203,-16.602,-53.223
1680450930,-29.297,-35.645,-26.367,-45.41
1680450930,-26.855,-28.32,-16.113,-19.531
1680450930,-32.715,-23.438,-16.113,-15.625
1680450930,-42.48,-23.438,-25.879,-28.809
1680450930,-42.48,-20.508,-27.344,-41.504
1680450930,-27.832,-15.625,-34.18,-35.645
1680450930,-20.996,-10.254,-31.25,-20.02
1680450930,-30.762,-13.672,-21.973,-17.578
1680450930,-41.016,-21.973,-27.344,-30.273
1680450930,-36.133,-19.043,-31.738,-40.527
1680450930,-35.645,-10.742,-30.273,-35.645
1680450930,-36.621,-6.836,-27.832,-22.949
1680450930,-33.691,-12.207,-20.996,-7.324
1680450930,-36.621,-9.766,-22.461,-4.395
1680450930,-33.203,-5.371,-25.879,-23.926
1680450930,-28.32,-10.742,-21.973,-34.18
1680450930,-27.344,-7.324,-14.16,-18.555
1680450930,-30.762,-1.953,-9.277,-2.93
1680450930,-30.273,-11.23,-9.766,-6.836
1680450930,-33.203,-19.531,-20.02,-33.691
1680450930,-34.18,-16.602,-26.367,-54.688
1680450930,-28.32,-13.672,-23.438,-35.645
1680450930,-21.973,-10.254,-19.043,-4.883
1680450930,-23.438,-17.09,-17.578,-8.789
1680450930,-26.367,-17.578,-17.578,-20.508
1680450930,-19.531,-12.695,-16.113,-20.02
1680450930,-13.184,-15.137,-14.16,-13.672
1680450930,-16.602,-17.578,-14.16,3.418
1680450930,-17.578,-11.719,-18.555,-4.883
1680450930,-29.297,-14.16,-23.438,-29.785
1680450930,-31.738,-20.508,-25.879,-39.551
1680450930,-19.531,-16.602,-25.391,-32.227
1680450930,-23.438,-16.113,-24.414,-15.625
1680450930,-33.691,-13.184,-18.555,-6.836
1680450930,-28.809,-16.602,-23.438,-20.508
1680450930,-26.855,-19.043,-31.25,-27.344
1680450930,-24.414,-17.09,-21.973,-17.09
1680450930,-20.508,-12.695,-11.23,-2.93
1680450930,-29.785,-12.207,-8.789,7.324
1680450930,-33.203,-16.602,-18.066,-9.277
1680450930,-23.926,-16.602,-28.809,-24.902
1680450930,-14.16,-13.672,-30.273,-12.695
1680450930,-17.09,-19.043,-23.438,2.441
1680450930,-31.25,-31.25,-17.09,-6.348
1680450930,-33.203,-26.367,-17.578,-22.949
1680450930,-26.367,-19.043,-25.391,-35.645
1680450930,-21.484,-18.066,-24.902,-24.414
1680450930,-13.672,-15.137,-12.207,-4.395
1680450930,-16.113,-18.555,-8.301,0.488
1680450930,-23.438,-21.973,-13.672,-9.277
1680450930,-31.25,-26.855,-22.461,-30.762
1680450930,-27.832,-28.32,-20.508,-31.738
1680450930,-25.391,-26.367,-18.555,-18.066
1680450930,-37.109,-24.902,-15.625,-3.418
1680450930,-38.086,-19.043,-17.09,-14.648
1680450930,-27.832,-18.066,-25.391,-43.945
1680450930,-19.043,-23.438,-31.25,-44.922
1680450930,-15.137,-16.113,-31.25,-20.02
1680450930,-11.23,-6.348,-20.996,-5.371
1680450930,-16.602,-13.184,-17.09,-20.02
1680450930,-21.484,-22.949,-24.414,-37.598
1680450930,-17.09,-20.996,-40.039,-41.992
1680450930,-15.137,-19.531,-37.598,-24.902
1680450930,-15.625,-22.949,-23.926,-1.465
1680450930,-18.066,-26.367,-29.297,0.488
1680450930,-20.508,-25.391,-30.273,-16.602
1680450930,-19.043,-27.344,-26.855,-31.738
1680450930,-25.879,-28.32,-21.484,-25.879
1680450931,-32.227,-28.809,-11.719,-5.859
1680450931,-30.273,-23.438,-11.23,-3.906
1680450931,-35.645,-29.297,-16.602,-23.438
1680450931,-41.016,-39.551,-27.344,-39.551
1680450931,-34.668,-42.48,-32.715,-36.133
1680450931,-38.574,-36.621,-21.484,-20.508
1680450931,-45.41,-26.855,-15.625,-19.043
1680450931,-39.551,-29.297,-20.02,-32.227
1680450931,-33.691,-43.457,-27.344,-42.969
1680450931,-27.832,-36.621,-28.32,-38.086
1680450931,-28.809,-21.484,-22.949,-12.695
1680450931,-40.527,-22.461,-22.949,-14.648
1680450931,-28.809,-28.809,-23.926,-41.016
1680450931,-16.602,-29.785,-21.973,-52.734
1680450931,-29.785,-30.762,-23.438,-48.34
1680450931,-31.25,-28.809,-22.949,-28.809
1680450931,-28.32,-26.855,-25.879,-20.996
1680450931,-34.668,-29.785,-34.18,-36.621
1680450931,-29.297,-26.855,-30.273,-51.27
1680450931,-29.297,-26.855,-29.297,-49.316
1680450931,-28.809,-20.996,-28.809,-31.25
1680450931,-26.855,-18.555,-23.438,-12.207
1680450931,-30.762,-22.461,-28.32,-15.625
1680450931,-28.32,-22.461,-26.855,-39.551
1680450931,-22.461,-22.949,-23.926,-47.363
1680450931,-20.508,-23.438,-25.879,-34.668
1680450931,-23.926,-33.203,-21.973,-23.926
1680450931,-29.297,-39.551,-25.391,-28.32
1680450931,-26.855,-35.156,-35.156,-35.645
1680450931,-19.043,-30.762,-27.832,-31.738
1680450931,-17.578,-28.809,-23.438,-16.113
1680450931,-12.695,-27.344,-28.809,-9.766
1680450931,-22.461,-25.391,-21.973,-21.484
1680450931,-41.992,-23.438,-25.879,-36.621
1680450931,-33.203,-22.461,-33.203,-40.039
1680450931,-16.602,-23.438,-26.855,-26.855
1680450931,-13.672,-23.926,-20.996,-4.395
1680450931,-28.809,-23.926,-13.184,-2.93
1680450931,-31.738,-25.391,-10.254,-26.367
1680450931,-24.902,-30.273,-15.137,-35.645
1680450931,-23.926,-29.785,-14.648,-20.02
1680450931,-19.531,-25.879,-16.113,-1.465
1680450931,-27.832,-24.902,-16.113,-10.254
1680450931,-39.062,-26.367,-21.973,-21.973
1680450931,-34.668,-20.996,-30.762,-32.227
1680450931,-28.32,-17.09,-19.043,-28.809
1680450931,-33.203,-25.879,-16.113,-7.324
1680450931,-37.109,-23.438,-20.02,-9.766
1680450931,-37.598,-20.508,-22.461,-22.461
1680450931,-40.527,-20.02,-23.926,-35.156
1680450931,-33.203,-20.02,-26.855,-37.598
1680450931,-30.273,-26.855,-29.785,-16.602
1680450931,-26.367,-27.832,-16.113,-0.488
1680450931,-29.785,-23.926,-2.441,-11.719
1680450931,-32.227,-23.926,-12.207,-33.203
1680450931,-16.113,-32.227,-22.949,-26.367
1680450931,-16.602,-34.668,-19.531,-6.836
1680450931,-29.785,-29.785,-13.672,-5.859
1680450931,-27.832,-30.762,-16.602,-14.16
1680450931,-27.344,-37.109,-21.484,-32.715
1680450931,-29.785,-41.992,-21.973,-39.551
1680450931,-20.508,-34.18,-20.02,-6.348
1680450931,-23.438,-32.227,-23.438,5.859
1680450931,-24.414,-40.039,-28.809,-9.277
1680450931,-21.973,-40.039,-16.113,-26.855
1680450931,-32.227,-44.434,-7.812,-33.691
1680450931,-29.785,-41.504,-25.391,-11.719
1680450931,-22.461,-37.109,-23.438,11.719
1680450931,-25.879,-32.715,-11.719,0
1680450931,-29.785,-38.086,-21.973,-35.645
1680450931,-29.297,-44.434,-40.039,-40.039
1680450931,-30.273,-42.48,-37.109,-21.973
1680450931,-31.25,-42.48,-25.391,-6.836
1680450931,-35.156,-40.039,-18.555,-12.695
1680450931,-32.715,-41.504,-23.438,-34.18
1680450931,-24.414,-48.828,-27.832,-30.273
1680450931,-20.02,-49.316,-17.578,-10.742
1680450931,-23.438,-46.387,-17.578,-11.719
1680450931,-35.156,-48.34,-29.297,-24.414
1680450931,-37.109,-51.758,-31.738,-44.922
1680450931,-29.297,-55.664,-32.227,-52.734
1680450931,-32.715,-62.012,-28.809,-35.645
1680450931,-29.297,-59.082,-27.344,-14.648
1680450931,-20.508,-61.523,-24.902,-1.953
1680450931,-23.926,-65.43,-33.691,-27.832
1680450931,-30.762,-60.547,-44.922,-60.547
1680450931,-42.48,-62.012,-42.48,-55.664
1680450931,-45.41,-65.43,-33.203,-36.133
1680450931,-40.039,-62.988,-36.621,-28.809
1680450931,-38.574,-54.688,-41.016,-43.945
1680450931,-41.016,-62.5,-35.156,-52.734
1680450931,-34.668,-63.477,-28.32,-42.969
1680450931,-28.32,-53.223,-16.602,-21.484
1680450931,-27.344,-57.129,-19.043,-14.16
1680450931,-24.414,-60.547,-22.949,-28.809
1680450931,-27.344,-65.43,-22.949,-50.781
1680450931,-27.344,-64.453,-26.855,-42.969
1680450931,-22.461,-53.223,-24.414,-12.207
1680450931,-24.414,-52.734,-20.02,-4.883
1680450931,-23.438,-52.734,-10.742,-20.508
1680450931,-15.625,-51.27,-15.137,-37.109
1680450931,-12.695,-52.246,-29.297,-35.156
1680450931,-13.672,-56.152,-27.344,-10.254
1680450931,-22.949,-53.223,-27.832,-5.371
1680450931,-29.297,-49.316,-31.25,-23.438
1680450931,-18.555,-54.199,-30.273,-35.645
1680450931,-20.02,-57.129,-20.508,-30.762
1680450931,-27.344,-55.176,-22.461,-13.184
1680450931,-20.508,-56.641,-30.273,2.93
1680450931,-12.695,-53.223,-27.832,-7.324
1680450931,-15.137,-55.176,-12.207,-23.438
1680450931,-8.789,-55.176,-5.859,-25.391
1680450931,-12.207,-52.734,-22.949,-18.066
1680450931,-22.461,-57.129,-18.555,-0.488
1680450931,-26.367,-53.711,-18.555,-6.836
1680450931,-30.273,-52.246,-22.461,-26.855
1680450931,-31.25,-58.105,-25.879,-36.133
1680450931,-35.645,-52.734,-19.531,-26.367
1680450931,-35.156,-51.758,-12.695,1.465
1680450931,-27.344,-56.152,-21.484,4.395
1680450931,-28.809,-52.734,-26.367,-24.902
1680450931,-29.785,-48.34,-19.531,-33.203
1680450931,-35.156,-51.27,-16.113,-18.555
1680450931,-31.25,-50.293,-14.16,-0.488
1680450931,-31.25,-44.922,-15.137,-0.977
1680450931,-34.18,-44.922,-23.438,-16.602
1680450931,-26.367,-48.34,-26.855,-35.645
1680450931,-31.25,-54.688,-25.391,-38.086
1680450931,-42.48,-51.758,-27.344,-11.23
1680450931,-43.457,-42.48,-26.367,-5.859
1680450931,-41.016,-40.039,-25.391,-28.809
1680450931,-35.156,-41.992,-33.203,-45.898
1680450931,-34.18,-42.48,-33.691,-33.203
1680450931,-34.668,-37.598,-11.719,-9.277
1680450931,-34.18,-38.574,-2.93,-4.395
1680450931,-38.574,-37.598,-31.738,-21.484
1680450931,-39.551,-29.297,-29.297,-30.762
1680450931,-31.738,-26.367,-16.602,-26.367
1680450931,-24.414,-24.414,-15.137,-9.277
1680450931,-29.785,-21.484,-13.672,6.836
1680450931,-35.156,-18.555,-15.137,-7.324
1680450931,-33.691,-18.066,-25.879,-28.809
1680450931,-32.227,-20.996,-29.297,-23.438
1680450931,-31.738,-19.043,-16.602,-13.184
1680450931,-34.668,-15.625,-20.02,-8.301
1680450931,-28.32,-5.859,-24.902,-0.488
1680450931,-34.18,-6.836,-22.949,-25.391
1680450931,-33.691,-13.672,-24.902,-41.016
1680450931,-20.508,-10.254,-14.16,-12.695
1680450931,-24.414,-11.23,-3.418,1.465
1680450931,-26.855,-19.531,-12.207,-12.207
1680450931,-25.879,-28.32,-32.227,-39.062
1680450931,-27.832,-35.156,-40.527,-44.922
1680450931,-25.391,-37.109,-35.156,-25.879
1680450931,-25.879,-41.992,-30.762,-17.09
1680450931,-30.762,-46.875,-34.668,-23.926
1680450931,-22.461,-43.945,-34.18,-38.086
1680450931,-18.066,-38.086,-28.809,-40.527
1680450931,-26.367,-40.039,-38.086,-27.832
1680450931,-31.25,-36.621,-42.48,-5.859
1680450931,-22.949,-36.133,-13.672,-1.953
1680450931,-23.438,-41.992,-3.906,-37.598
1680450931,-29.785,-39.062,-21.973,-42.969
1680450931,-23.926,-38.086,-19.531,-20.508
1680450931,-18.555,-41.992,-13.184,2.441
1680450931,-20.996,-41.016,-15.137,-1.953
1680450931,-30.273,-49.316,-23.438,-33.203
1680450931,-26.367,-55.176,-29.297,-42.48
1680450931,-13.184,-53.711,-32.227,-28.809
1680450931,-18.066,-48.34,-24.902,-4.395
1680450931,-22.461,-46.875,-21.484,-3.418
1680450931,-29.297,-49.805,-30.273,-30.273
1680450931,-30.273,-49.316,-16.602,-49.316
1680450931,-17.09,-42.969,-19.531,-32.227
1680450931,-14.16,-41.016,-29.785,-3.418
1680450931,-13.184,-49.805,-24.414,-5.859
1680450931,-25.391,-57.129,-31.738,-31.25
1680450931,-24.414,-50.781,-37.109,-57.617
1680450931,-15.625,-39.551,-37.109,-42.48
1680450931,-19.043,-39.062,-29.297,-10.254
1680450931,-14.16,-37.598,-17.578,-7.324
1680450931,-14.16,-35.645,-21.973,-28.32
1680450931,-14.16,-38.574,-28.809,-55.176
1680450931,-19.531,-41.992,-21.484,-53.223
1680450931,-26.367,-51.758,-11.719,-28.32
1680450931,-30.762,-53.711,-18.555,-14.16
1680450931,-32.715,-46.875,-35.645,-26.855
1680450931,-36.133,-48.828,-44.434,-52.734
1680450931,-36.133,-51.27,-28.32,-53.223
1680450931,-30.762,-45.41,-20.02,-32.227
1680450931,-40.039,-44.434,-27.344,-24.414
1680450931,-48.828,-42.969,-23.926,-29.297
1680450931,-42.969,-42.48,-27.344,-51.758
1680450931,-37.109,-35.645,-29.785,-57.129
1680450931,-34.18,-35.156,-27.344,-31.25
1680450931,-40.527,-45.41,-18.066,-22.949
1680450931,-46.875,-46.387,-17.09,-37.109
1680450931,-33.203,-39.062,-28.809,-52.734
1680450931,-23.926,-42.969,-36.621,-49.805
1680450931,-33.691,-50.781,-36.621,-33.203
1680450931,-41.992,-50.293,-26.367,-16.113
1680450931,-40.039,-47.363,-26.367,-19.531
1680450931,-36.133,-43.945,-30.273,-41.016
1680450931,-41.992,-47.852,-40.039,-50.781
1680450931,-40.039,-48.34,-38.574,-33.691
1680450931,-32.715,-32.715,-27.832,-16.602
1680450931,-35.645,-34.668,-20.996,-26.855
1680450931,-36.621,-47.363,-28.32,-41.992
1680450931,-28.809,-42.48,-39.062,-40.039
1680450931,-20.508,-34.668,-37.109,-28.809
1680450931,-24.414,-37.598,-34.668,-15.625
1680450931,-34.18,-41.504,-24.414,-9.766
1680450931,-35.645,-41.992,-26.855,-27.344
1680450931,-31.25,-41.016,-35.156,-52.734
1680450931,-34.668,-42.969,-36.621,-39.551
1680450931,-42.969,-51.758,-37.109,-11.719
1680450931,-41.992,-50.781,-36.133,-16.602
1680450931,-31.25,-36.621,-36.621,-34.668
1680450931,-30.762,-43.945,-33.203,-49.316
1680450931,-34.668,-61.523,-42.48,-47.852
1680450931,-31.25,-50.781,-38.574,-17.578
1680450931,-30.762,-32.227,-28.32,-4.395
1680450931,-29.785,-39.551,-32.227,-31.738
1680450931,-30.273,-49.805,-34.668,-51.27
1680450931,-34.18,-45.898,-36.621,-38.086
1680450931,-41.992,-44.922,-27.344,-24.902
1680450931,-42.969,-46.875,-25.879,-10.742
1680450931,-41.016,-46.875,-30.762,-24.414
1680450931,-47.852,-44.434,-33.691,-55.664
1680450931,-36.133,-38.086,-20.02,-43.945
1680450931,-34.18,-42.48,-7.324,-25.879
1680450931,-48.34,-47.852,-19.531,-17.578
1680450931,-49.805,-41.992,-21.484,-27.344
1680450931,-46.875,-43.457,-29.297,-58.594
1680450931,-43.945,-47.363,-31.738,-56.641
1680450931,-39.551,-43.945,-28.32,-20.996
1680450931,-35.645,-37.598,-24.414,-7.812
1680450931,-38.086,-39.551,-19.531,-24.414
1680450931,-38.574,-46.875,-28.809,-44.922
1680450931,-36.133,-40.039,-31.25,-43.945
1680450931,-34.668,-30.762,-20.508,-19.043
1680450931,-36.621,-31.738,-8.789,-0.977
1680450931,-44.434,-43.457,-18.066,-8.301
1680450931,-43.457,-46.875,-29.785,-40.039
1680450931,-35.156,-40.527,-29.297,-50.781
1680450931,-30.762,-32.715,-25.879,-28.809
1680450931,-24.414,-31.738,-22.949,-7.324
1680450931,-29.297,-29.785,-26.367,-6.836
1680450931,-41.992,-33.203,-36.133,-31.25
1680450931,-30.273,-33.691,-27.832,-40.039
1680450931,-20.996,-27.832,-21.484,-25.879
1680450931,-29.297,-32.715,-24.414,-10.254
1680450931,-35.156,-34.18,-15.625,-8.789
1680450931,-32.227,-24.902,-13.184,-24.414
1680450931,-27.832,-39.551,-29.785,-40.039
1680450931,-29.297,-48.34,-31.738,-28.809
1680450932,-31.25,-40.039,-16.602,-15.137
1680450932,-40.527,-34.668,-13.672,-12.695
1680450932,-45.898,-30.762,-26.855,-38.086
1680450932,-38.574,-31.25,-36.621,-57.129
1680450932,-32.227,-34.668,-33.691,-41.992
1680450932,-32.227,-33.691,-36.621,-27.832
1680450932,-41.992,-33.203,-36.621,-28.32
1680450932,-51.27,-37.109,-37.598,-39.551
1680450932,-45.898,-32.227,-46.387,-55.176
1680450932,-33.203,-22.949,-34.668,-48.828
1680450932,-30.762,-26.855,-20.508,-25.391
1680450932,-34.18,-34.18,-19.531,-21.973
1680450932,-40.039,-38.086,-18.066,-28.32
1680450932,-45.41,-37.598,-26.855,-49.805
1680450932,-41.016,-41.992,-33.691,-52.734
1680450932,-41.992,-49.805,-28.32,-25.391
1680450932,-43.457,-45.898,-35.156,-11.719
1680450932,-36.621,-35.156,-31.25,-22.949
1680450932,-31.738,-37.109,-30.762,-45.41
1680450932,-27.832,-38.086,-34.18,-43.457
1680450932,-17.578,-35.156,-26.367,-12.207
1680450932,-14.16,-25.879,-34.18,1.953
1680450932,-25.391,-29.297,-42.969,-23.438
1680450932,-23.926,-39.062,-36.133,-42.48
1680450932,-12.695,-36.133,-29.785,-41.992
1680450932,-20.996,-32.715,-28.809,-26.855
1680450932,-30.762,-32.227,-22.949,-9.277
1680450932,-23.438,-33.203,-22.461,-12.207
1680450932,-40.039,-27.832,-25.879,-35.645
1680450932,-51.27,-28.32,-38.086,-39.551
1680450932,-33.691,-31.738,-36.133,-16.113
1680450932,-34.668,-29.297,-25.879,0
1680450932,-43.457,-37.109,-25.879,-14.16
1680450932,-48.34,-37.598,-28.32,-35.645
1680450932,-55.176,-30.273,-31.738,-45.898
1680450932,-46.875,-36.621,-32.227,-38.086
1680450932,-37.598,-36.133,-32.715,-12.207
1680450932,-44.434,-29.297,-30.762,-12.207
1680450932,-47.363,-23.438,-34.18,-31.25
1680450932,-42.48,-20.508,-40.039,-35.156
1680450932,-39.551,-21.484,-40.527,-35.645
1680450932,-27.832,-17.09,-27.832,-20.508
1680450932,-31.25,-11.719,-17.578,-11.719
1680450932,-49.805,-14.16,-21.973,-35.156
1680450932,-33.691,-22.949,-35.645,-48.828
1680450932,-21.484,-17.578,-41.992,-29.785
1680450932,-27.344,-10.254,-16.602,-7.324
1680450932,-34.668,-21.484,1.953,-1.465
1680450932,-32.715,-23.926,-16.113,-22.461
1680450932,-26.855,-11.23,-19.531,-36.621
1680450932,-31.738,-14.16,-24.902,-27.344
1680450932,-32.227,-17.578,-27.344,-11.23
1680450932,-37.598,-14.648,-24.414,-13.672
1680450932,-43.457,-14.16,-27.832,-28.809
1680450932,-38.574,-15.625,-29.785,-54.688
1680450932,-29.785,-16.113,-28.32,-48.828
1680450932,-31.738,-15.625,-25.391,-20.508
1680450932,-36.133,-11.719,-24.902,-12.207
1680450932,-37.598,-18.066,-25.391,-16.602
1680450932,-28.809,-22.461,-22.949,-26.367
1680450932,-24.902,-16.113,-27.344,-34.668
1680450932,-29.297,-15.137,-23.926,-22.949
1680450932,-28.809,-18.555,-18.066,-4.395
1680450932,-28.32,-26.367,-20.508,-13.672
1680450932,-28.809,-28.809,-34.18,-38.574
1680450932,-24.414,-25.391,-38.574,-37.109
1680450932,-23.926,-25.391,-27.832,-19.043
1680450932,-27.832,-22.949,-13.672,-5.859
1680450932,-30.273,-17.578,-13.184,-7.324
1680450932,-26.367,-22.461,-8.301,-29.297
1680450932,-20.508,-24.414,-7.812,-36.621
1680450932,-26.855,-25.879,-29.785,-27.344
1680450932,-31.25,-28.32,-24.902,-10.254
1680450932,-32.715,-32.715,-20.508,-13.672
1680450932,-29.785,-36.621,-25.879,-33.691
1680450932,-24.414,-39.551,-32.227,-41.992
1680450932,-26.367,-36.133,-30.762,-31.738
1680450932,-32.227,-30.273,-22.461,-15.137
1680450932,-23.438,-30.762,-20.996,-2.441
1680450932,-21.484,-33.203,-25.879,-19.531
1680450932,-26.855,-32.227,-27.344,-39.062
1680450932,-19.043,-25.391,-23.926,-20.996
1680450932,-22.949,-30.762,-27.344,-2.93
1680450932,-34.18,-38.574,-29.297,-9.277
1680450932,-38.574,-37.109,-28.809,-31.738
1680450932,-31.738,-38.086,-30.762,-47.363
1680450932,-28.809,-37.598,-30.273,-31.738
1680450932,-37.109,-34.18,-25.879,-7.324
1680450932,-35.156,-32.227,-23.926,-17.578
1680450932,-33.691,-33.203,-30.762,-46.387
1680450932,-41.504,-32.715,-39.062,-56.641
1680450932,-32.715,-30.273,-30.762,-38.574
1680450932,-25.879,-26.367,-20.996,-24.902
1680450932,-33.203,-19.043,-12.207,-15.625
1680450932,-32.715,-23.438,-14.648,-22.461
1680450932,-25.879,-28.809,-34.18,-36.133
1680450932,-14.16,-23.438,-30.273,-23.438
1680450932,-14.16,-21.484,-14.16,-1.465
1680450932,-15.137,-17.578,-20.508,7.812
1680450932,-22.949,-21.484,-29.785,-25.391
1680450932,-30.762,-27.832,-32.227,-59.082
1680450932,-28.32,-27.832,-35.156,-43.945
1680450932,-26.855,-28.32,-37.109,-25.879
1680450932,-24.414,-24.414,-30.273,-6.836
1680450932,-30.273,-26.367,-28.809,-12.207
1680450932,-35.156,-18.555,-37.598,-43.457
1680450932,-31.738,-18.555,-46.875,-44.434
1680450932,-27.344,-30.273,-46.875,-29.297
1680450932,-29.785,-32.227,-19.531,-17.09
1680450932,-28.809,-26.855,-12.207,-19.531
1680450932,-27.832,-25.391,-26.367,-34.668
1680450932,-26.367,-20.996,-25.391,-32.715
1680450932,-19.531,-18.066,-24.902,-19.043
1680450932,-22.949,-27.832,-24.414,-7.324
1680450932,-42.48,-32.715,-23.438,-17.09
1680450932,-45.41,-32.227,-21.973,-37.109
1680450932,-32.715,-29.785,-26.367,-34.668
1680450932,-26.855,-23.438,-26.367,-16.113
1680450932,-29.297,-20.02,-20.996,-0.488
1680450932,-30.273,-24.414,-20.996,-8.789
1680450932,-26.367,-29.785,-21.484,-29.297
1680450932,-21.973,-21.973,-29.785,-35.156
1680450932,-24.902,-17.578,-28.32,-20.508
1680450932,-30.762,-23.438,-23.438,-1.465
1680450932,-30.762,-21.973,-20.508,6.348
1680450932,-35.156,-31.25,-28.32,-23.438
1680450932,-35.645,-38.574,-41.992,-55.176
1680450932,-24.414,-32.715,-38.086,-36.133
1680450932,-24.414,-33.691,-32.227,-8.301
1680450932,-23.926,-29.297,-25.879,-4.395
1680450932,-21.484,-36.133,-25.391,-32.227
1680450932,-30.762,-46.387,-21.973,-56.152
1680450932,-34.668,-35.156,-21.973,-41.504
1680450932,-32.715,-26.855,-21.484,-16.113
1680450932,-31.25,-25.879,-19.043,-10.742
1680450932,-27.344,-25.879,-27.344,-23.438
1680450932,-30.273,-29.297,-31.738,-32.715
1680450932,-42.48,-33.203,-31.738,-41.016
1680450932,-33.691,-38.086,-28.809,-34.18
1680450932,-21.973,-36.133,-22.461,-16.602
1680450932,-28.809,-39.062,-24.902,-28.809
1680450932,-31.738,-38.086,-28.32,-54.199
1680450932,-29.297,-32.227,-24.902,-51.758
1680450932,-21.484,-37.598,-27.832,-34.18
1680450932,-28.809,-37.598,-26.367,-25.879
1680450932,-40.039,-31.738,-26.855,-33.691
1680450932,-40.039,-23.438,-33.691,-49.805
1680450932,-29.297,-15.625,-30.762,-38.574
1680450932,-26.855,-11.719,-31.738,-21.484
1680450932,-39.551,-13.184,-36.621,-21.484
1680450932,-39.062,-21.973,-32.227,-27.344
1680450932,-29.297,-24.902,-24.902,-34.668
1680450932,-21.973,-20.996,-27.344,-31.25
1680450932,-24.902,-18.066,-28.32,-14.16
1680450932,-32.715,-26.367,-25.391,0.488
1680450932,-39.551,-29.297,-27.832,-12.695
1680450932,-36.133,-29.297,-35.156,-31.25
1680450932,-29.785,-28.809,-33.203,-36.621
1680450932,-32.715,-19.531,-25.879,-25.391
1680450932,-32.227,-20.508,-14.648,-4.395
1680450932,-34.18,-20.996,-12.695,-9.277
1680450932,-32.715,-17.578,-28.32,-33.691
1680450932,-31.738,-23.438,-31.738,-46.875
1680450932,-33.203,-25.879,-28.32,-29.297
1680450932,-31.25,-29.785,-22.461,-10.742
1680450932,-41.992,-25.879,-18.066,-13.184
1680450932,-37.109,-24.414,-21.484,-29.785
1680450932,-28.809,-25.391,-26.855,-35.645
1680450932,-32.227,-28.809,-24.902,-26.367
1680450932,-32.227,-25.879,-28.809,-8.789
1680450932,-33.203,-20.996,-25.879,-9.277
1680450932,-41.992,-26.855,-20.02,-29.785
1680450932,-39.551,-26.367,-24.414,-38.086
1680450932,-35.156,-29.297,-18.555,-24.414
1680450932,-32.227,-31.25,-13.184,-5.371
1680450932,-41.016,-31.25,-16.602,-14.648
1680450932,-48.34,-30.273,-17.578,-33.691
1680450932,-44.922,-22.461,-20.996,-48.828
1680450932,-33.691,-18.066,-24.414,-44.434
1680450932,-31.25,-25.879,-21.484,-24.414
1680450932,-41.016,-29.785,-18.066,-17.09
1680450932,-44.434,-27.344,-8.301,-29.785
1680450932,-39.551,-27.344,-17.578,-46.875
1680450932,-35.645,-28.809,-31.738,-43.945
1680450932,-29.785,-27.344,-24.902,-20.02
1680450932,-34.18,-23.438,-21.973,-13.672
1680450932,-37.109,-20.508,-27.832,-26.855
1680450932,-37.109,-18.066,-28.32,-41.016
1680450932,-43.457,-23.926,-28.32,-41.504
1680450932,-41.504,-19.043,-23.926,-22.461
1680450932,-39.551,-18.066,-17.09,-7.812
1680450932,-45.41,-30.273,-27.344,-20.02
1680450932,-49.805,-30.273,-23.438,-41.504
1680450932,-39.551,-34.18,-16.602,-39.062
1680450932,-32.227,-35.156,-28.32,-13.184
1680450932,-37.598,-31.738,-29.297,-6.348
1680450932,-36.621,-28.809,-27.344,-19.043
1680450932,-28.32,-31.25,-26.367,-31.738
1680450932,-29.297,-35.645,-32.227,-39.551
1680450932,-33.203,-36.133,-33.203,-33.691
1680450932,-33.691,-32.715,-28.32,-19.531
1680450932,-34.668,-24.902,-20.02,-16.113
1680450932,-34.18,-29.297,-24.902,-32.715
1680450932,-27.832,-35.156,-33.203,-40.039
1680450932,-23.926,-35.156,-21.484,-29.297
1680450932,-24.902,-33.203,-15.625,-10.254
1680450932,-33.691,-30.273,-17.578,-6.836
1680450932,-31.25,-30.273,-24.902,-28.32
1680450932,-26.367,-33.203,-33.203,-41.016
1680450932,-20.02,-29.785,-22.949,-25.879
1680450932,-22.461,-24.902,-13.672,-9.766
1680450932,-30.762,-28.32,-14.16,-8.301
1680450932,-29.297,-30.273,-20.508,-24.902
1680450932,-24.414,-27.832,-20.02,-31.738
1680450932,-20.508,-28.32,-22.461,-18.066
1680450932,-19.043,-30.273,-14.16,-8.789
1680450932,-22.461,-30.273,-1.953,-2.441
1680450932,-21.484,-23.438,-19.531,-19.043
1680450932,-15.137,-26.855,-27.344,-36.133
1680450932,-11.23,-32.227,-20.996,-27.832
1680450932,-14.648,-24.902,-20.02,-11.719
1680450932,-26.855,-26.367,-17.578,-4.883
1680450932,-26.855,-37.598,-19.043,-22.461
1680450932,-17.578,-35.645,-19.043,-35.645
1680450932,-7.812,-30.762,-16.113,-27.344
1680450932,-11.23,-26.367,-17.09,-9.766
1680450932,-19.531,-32.227,-15.137,-3.418
1680450932,-23.438,-39.551,-13.672,-16.602
1680450932,-25.879,-37.109,-24.414,-35.156
1680450932,-20.996,-33.691,-36.133,-31.25
1680450932,-17.578,-28.809,-24.414,-8.301
1680450932,-19.531,-33.691,-16.113,6.836
1680450932,-25.391,-39.062,-25.879,-10.742
1680450932,-24.902,-31.25,-27.344,-36.621
1680450932,-21.484,-30.273,-28.809,-34.18
1680450932,-23.926,-36.621,-35.156,-15.137
1680450932,-20.02,-33.691,-26.367,1.465
1680450932,-21.484,-24.902,-20.996,-2.441
1680450932,-27.344,-29.297,-23.438,-26.855
1680450932,-21.484,-36.621,-15.625,-30.762
1680450932,-25.391,-32.715,-20.996,-9.277
1680450932,-30.273,-29.297,-26.367,2.93
1680450932,-26.367,-29.297,-27.344,-15.137
1680450932,-27.344,-32.227,-26.855,-37.598
1680450932,-30.762,-31.25,-26.855,-37.598
1680450932,-28.32,-29.785,-21.484,-27.344
1680450932,-22.949,-32.227,-15.137,-10.742
1680450932,-30.762,-35.156,-18.555,-12.695
1680450932,-30.273,-31.25,-30.273,-39.551
1680450932,-17.578,-23.926,-35.645,-49.316
1680450932,-28.809,-33.691,-27.344,-39.551
1680450932,-43.945,-41.992,-11.23,-21.973
1680450932,-38.086,-37.598,-9.277,-13.672
1680450932,-34.668,-28.32,-19.531,-31.25
1680450932,-30.762,-29.297,-29.297,-45.41
1680450932,-24.414,-32.715,-31.25,-30.762
1680450933,-28.809,-28.32,-21.973,-10.254
1680450933,-32.227,-22.949,-17.09,-11.23
1680450933,-29.785,-29.297,-22.461,-28.32
1680450933,-26.367,-36.133,-36.133,-41.992
1680450933,-21.484,-28.809,-44.922,-26.855
1680450933,-19.531,-16.602,-23.926,-5.859
1680450933,-23.926,-17.09,-2.93,7.812
1680450933,-27.832,-22.461,-15.625,-1.465
1680450933,-24.902,-20.996,-26.855,-34.18
1680450933,-14.16,-16.113,-26.855,-29.297
1680450933,-18.555,-17.09,-20.02,-9.277
1680450933,-27.344,-20.996,-18.555,-5.859
1680450933,-23.438,-10.742,-17.09,-17.578
1680450933,-23.926,-17.578,-22.461,-40.527
1680450933,-24.902,-31.738,-28.32,-46.875
1680450933,-20.02,-27.344,-22.949,-31.738
1680450933,-16.113,-20.996,-18.555,-21.973
1680450933,-20.996,-18.066,-19.043,-27.344
1680450933,-25.879,-24.902,-20.996,-41.504
1680450933,-20.02,-31.738,-23.926,-37.109
1680450933,-24.414,-28.809,-24.414,-14.16
1680450933,-34.18,-31.738,-9.277,-2.93
1680450933,-24.414,-30.762,-8.789,-14.648
1680450933,-28.32,-29.785,-24.414,-36.133
1680450933,-28.32,-30.273,-31.25,-40.527
1680450933,-16.602,-27.832,-30.762,-28.32
1680450933,-23.926,-32.227,-26.367,-12.207
1680450933,-37.598,-38.574,-29.785,-16.602
1680450933,-37.109,-40.527,-35.156,-41.016
1680450933,-22.461,-32.227,-31.25,-49.316
1680450933,-18.066,-25.879,-24.414,-31.738
1680450933,-23.438,-33.203,-24.414,-10.742
1680450933,-24.414,-35.645,-21.484,-11.23
1680450933,-28.809,-32.227,-17.09,-32.715
1680450933,-31.25,-26.855,-29.785,-39.551
1680450933,-27.344,-31.738,-32.227,-27.344
1680450933,-25.391,-29.297,-25.879,-9.766
1680450933,-28.809,-20.508,-20.508,-4.395
1680450933,-26.367,-24.902,-21.484,-17.578
1680450933,-21.484,-27.344,-27.832,-29.785
1680450933,-22.461,-24.902,-25.879,-21.484
1680450933,-27.832,-24.902,-22.949,-3.418
1680450933,-36.621,-28.32,-21.484,-5.859
1680450933,-41.504,-35.156,-27.344,-23.926
1680450933,-38.574,-37.598,-34.668,-39.551
1680450933,-29.785,-31.25,-27.832,-24.902
1680450933,-29.785,-32.227,-17.578,-1.953
1680450933,-34.18,-37.598,-16.113,-3.418
1680450933,-33.203,-39.551,-27.832,-14.16
1680450933,-36.621,-35.645,-33.691,-25.391
1680450933,-31.25,-28.809,-30.273,-23.926
1680450933,-21.973,-23.926,-23.926,-7.324
1680450933,-25.391,-24.414,-17.578,0.977
1680450933,-27.832,-23.438,-21.484,-20.02
1680450933,-27.344,-27.832,-30.762,-43.945
1680450933,-23.926,-35.645,-29.297,-37.109
1680450933,-20.508,-39.551,-20.02,-17.09
1680450933,-24.414,-36.133,-21.973,-4.395
1680450933,-30.273,-34.668,-24.414,-8.789
1680450933,-34.18,-38.086,-25.879,-32.227
1680450933,-27.344,-40.039,-27.832,-29.785
1680450933,-20.996,-37.109,-23.926,-11.23
1680450933,-28.32,-34.18,-24.414,-2.441
1680450933,-34.18,-39.551,-28.809,-6.348
1680450933,-32.227,-41.992,-28.809,-30.762
1680450933,-17.578,-34.668,-30.762,-33.203
1680450933,-18.555,-27.344,-26.855,-10.254
1680450933,-32.227,-33.691,-14.648,-1.953
1680450933,-33.691,-37.109,-16.113,-8.789
1680450933,-31.25,-28.809,-27.832,-25.879
1680450933,-22.461,-23.926,-28.32,-35.156
1680450933,-21.484,-25.391,-21.484,-21.973
1680450933,-31.25,-32.715,-21.973,-7.324
1680450933,-38.086,-33.203,-29.297,-13.184
1680450933,-31.738,-29.785,-31.738,-30.762
1680450933,-27.832,-28.809,-28.32,-36.133
1680450933,-28.32,-24.902,-31.25,-27.832
1680450933,-25.391,-20.02,-24.902,-5.371
1680450933,-26.855,-20.508,-7.324,-1.465
1680450933,-24.414,-26.855,-6.836,-21.484
1680450933,-28.809,-30.762,-22.949,-34.668
1680450933,-26.367,-27.832,-22.949,-25.879
1680450933,-19.043,-20.02,-12.207,-3.906
1680450933,-30.762,-15.137,-10.742,-1.465
1680450933,-39.551,-13.184,-19.043,-22.461
1680450933,-34.18,-16.113,-26.367,-47.852
1680450933,-26.367,-19.531,-29.785,-40.039
1680450933,-25.879,-20.02,-23.438,-11.719
1680450933,-27.344,-19.043,-29.297,-10.742
1680450933,-20.508,-9.277,-33.691,-24.902
1680450933,-22.461,-15.625,-14.16,-41.992
1680450933,-20.996,-23.438,-14.648,-37.109
1680450933,-17.578,-16.602,-24.414,-17.578
1680450933,-23.438,-16.113,-23.926,-11.719
1680450933,-34.18,-12.695,-22.461,-14.16
1680450933,-42.48,-18.066,-27.344,-32.715
1680450933,-34.18,-19.531,-32.715,-28.809
1680450933,-27.832,-9.766,-24.414,-1.953
1680450933,-35.156,-11.719,-19.531,6.348
1680450933,-33.691,-14.16,-23.438,-13.184
1680450933,-29.297,-15.137,-38.086,-46.387
1680450933,-24.902,-15.137,-35.156,-48.34
1680450933,-20.996,-18.066,-23.438,-20.996
1680450933,-21.484,-20.508,-31.738,-11.719
1680450933,-22.461,-18.066,-28.32,-26.367
1680450933,-21.973,-17.578,-21.973,-43.945
1680450933,-28.32,-20.996,-28.809,-47.363
1680450933,-23.926,-23.926,-34.18,-30.762
1680450933,-21.973,-19.043,-22.461,-10.254
1680450933,-32.227,-19.531,-19.531,-16.602
1680450933,-36.133,-29.785,-28.32,-46.387
1680450933,-27.832,-30.762,-27.832,-45.898
1680450933,-23.926,-21.484,-20.508,-26.367
1680450933,-31.738,-18.066,-13.672,-6.836
1680450933,-39.062,-20.996,-25.879,-11.719
1680450933,-37.598,-26.367,-35.156,-42.969
1680450933,-27.344,-29.297,-36.133,-57.617
1680450933,-26.855,-26.367,-31.738,-41.992
1680450933,-36.133,-26.367,-30.762,-15.137
1680450933,-42.969,-27.344,-30.273,-8.301
1680450933,-37.598,-28.809,-32.715,-36.133
1680450933,-31.25,-28.32,-33.203,-63.477
1680450933,-23.438,-20.02,-30.762,-44.922
1680450933,-31.25,-24.902,-32.715,-18.555
1680450933,-46.387,-30.273,-28.809,-15.137
1680450933,-40.527,-20.508,-22.461,-38.086
1680450933,-39.062,-27.344,-36.621,-61.523
1680450933,-30.762,-32.227,-42.969,-45.898
1680450933,-21.973,-20.996,-29.297,-14.648
1680450933,-30.762,-20.508,-25.879,-15.625
1680450933,-36.133,-27.344,-32.715,-40.039
1680450933,-37.109,-28.32,-39.062,-55.664
1680450933,-28.32,-26.855,-36.133,-45.41
1680450933,-20.02,-23.926,-32.227,-26.367
1680450933,-23.926,-23.926,-29.785,-16.602
1680450933,-28.809,-26.367,-29.785,-29.297
1680450933,-32.227,-25.391,-35.156,-49.805
1680450933,-22.461,-16.113,-32.715,-30.762
1680450933,-19.043,-20.02,-31.738,-12.207
1680450933,-24.902,-24.902,-32.227,-7.324
1680450933,-30.762,-26.367,-20.508,-15.625
1680450933,-34.668,-24.414,-23.926,-42.48
1680450933,-31.25,-20.996,-40.527,-41.016
1680450933,-37.109,-29.297,-39.062,-21.973
1680450933,-41.992,-30.273,-35.645,-10.742
1680450933,-33.691,-20.996,-33.691,-19.531
1680450933,-36.621,-20.02,-35.156,-41.016
1680450933,-37.598,-27.344,-41.992,-46.875
1680450933,-26.367,-24.902,-38.086,-26.855
1680450933,-30.273,-17.09,-25.879,-3.906
1680450933,-39.062,-24.414,-32.715,-17.578
1680450933,-40.527,-29.785,-42.48,-47.852
1680450933,-35.645,-32.227,-41.016,-57.129
1680450933,-25.879,-35.645,-34.18,-42.969
1680450933,-28.809,-30.762,-36.133,-29.785
1680450933,-33.691,-32.227,-41.016,-33.691
1680450933,-36.133,-33.691,-38.574,-46.875
1680450933,-35.645,-33.203,-39.062,-53.223
1680450933,-26.855,-30.762,-36.621,-40.527
1680450933,-27.344,-30.762,-32.227,-20.508
1680450933,-34.668,-37.109,-31.25,-15.137
1680450933,-32.715,-36.621,-31.25,-31.25
1680450933,-31.25,-40.039,-34.18,-40.527
1680450933,-31.25,-50.781,-29.785,-28.32
1680450933,-31.738,-52.246,-28.32,-9.277
1680450933,-34.18,-47.363,-26.367,-10.742
1680450933,-40.527,-44.922,-29.785,-39.551
1680450933,-38.086,-43.945,-38.086,-51.758
1680450933,-31.25,-44.434,-28.809,-36.133
1680450933,-30.762,-43.457,-24.414,-18.555
1680450933,-32.715,-41.016,-20.996,-17.09
1680450933,-27.344,-36.621,-19.531,-31.738
1680450933,-22.461,-37.598,-20.508,-46.387
1680450933,-21.973,-32.227,-17.578,-32.227
1680450933,-19.531,-32.715,-11.23,-11.719
1680450933,-28.32,-42.969,-11.23,-8.789
1680450933,-27.832,-38.574,-15.137,-10.254
1680450933,-19.531,-31.738,-14.648,-29.297
1680450933,-17.578,-33.203,-14.648,-28.32
1680450933,-9.766,-37.598,-13.672,-0.488
1680450933,-7.812,-38.574,-12.207,2.93
1680450933,-16.113,-36.133,-15.625,-6.348
1680450933,-19.043,-39.551,-20.508,-20.996
1680450933,-14.16,-45.41,-19.531,-23.926
1680450933,-13.672,-51.758,-23.438,-16.113
1680450933,-20.02,-52.734,-27.344,-0.977
1680450933,-26.855,-55.664,-27.832,-7.324
1680450933,-28.809,-67.871,-37.109,-34.668
1680450933,-24.902,-65.918,-40.527,-35.156
1680450933,-33.691,-60.547,-27.344,-13.672
1680450933,-40.039,-64.453,-25.391,-1.465
1680450933,-34.668,-64.453,-28.809,-17.09
1680450933,-35.645,-65.43,-26.855,-41.992
1680450933,-30.762,-68.848,-31.25,-41.016
1680450933,-29.297,-62.5,-26.855,-15.137
1680450933,-33.203,-60.547,-17.578,-3.418
1680450933,-32.715,-64.453,-20.996,-16.602
1680450933,-33.691,-59.57,-27.344,-34.18
1680450933,-25.879,-61.035,-30.762,-42.969
1680450933,-24.414,-62.988,-37.598,-27.832
1680450933,-34.18,-62.988,-23.438,-3.906
1680450933,-34.668,-62.012,-15.625,-10.742
1680450933,-29.297,-61.035,-29.297,-41.992
1680450933,-27.344,-61.035,-31.25,-49.316
1680450933,-32.715,-61.035,-28.809,-33.203
1680450933,-29.785,-53.711,-22.949,-12.695
1680450933,-40.039,-53.711,-25.391,-13.672
1680450933,-38.574,-56.152,-26.367,-31.738
1680450933,-20.508,-52.734,-26.855,-41.992
1680450933,-18.066,-44.434,-25.879,-24.414
1680450933,-18.555,-41.016,-16.602,1.953
1680450933,-25.879,-48.828,-13.672,-1.953
1680450933,-29.785,-52.246,-23.438,-22.949
1680450933,-20.996,-48.34,-22.461,-38.574
1680450933,-21.973,-43.945,-10.254,-33.691
1680450933,-28.32,-43.457,-14.16,-19.043
1680450933,-30.762,-47.363,-20.508,-16.602
1680450933,-36.133,-50.293,-16.602,-29.297
1680450933,-36.621,-43.457,-22.949,-45.41
1680450933,-29.785,-46.387,-29.785,-41.016
1680450933,-25.879,-46.387,-25.879,-13.184
1680450933,-34.668,-39.551,-21.973,-4.395
1680450933,-42.48,-43.457,-25.879,-20.508
1680450933,-36.133,-41.016,-31.738,-44.434
1680450933,-34.668,-46.387,-35.645,-46.387
1680450933,-28.809,-43.457,-34.18,-25.879
1680450933,-25.879,-34.18,-27.832,-19.043
1680450933,-45.898,-43.945,-25.391,-39.551
1680450933,-41.504,-40.527,-28.809,-50.293
1680450933,-26.367,-37.109,-35.645,-42.969
1680450933,-28.32,-43.945,-31.25,-34.18
1680450933,-29.785,-40.527,-30.273,-15.625
1680450933,-34.18,-40.039,-29.297,-15.625
1680450933,-38.574,-40.039,-27.344,-39.551
1680450933,-38.574,-45.898,-33.691,-43.945
1680450933,-35.645,-49.316,-35.645,-16.113
1680450933,-30.273,-49.316,-12.695,7.812
1680450933,-26.855,-45.898,-7.812,2.93
1680450933,-21.484,-39.062,-25.879,-18.066
1680450933,-21.973,-44.434,-34.18,-39.062
1680450933,-27.832,-48.34,-35.645,-31.25
1680450933,-25.391,-39.062,-22.949,-12.695
1680450933,-31.25,-35.645,-24.902,-20.508
1680450933,-35.156,-35.156,-36.133,-31.738
1680450933,-40.039,-40.039,-38.086,-43.457
1680450933,-45.898,-38.574,-33.691,-44.922
1680450933,-43.945,-35.156,-22.461,-29.297
1680450933,-51.27,-40.527,-25.391,-29.785
1680450933,-51.27,-45.41,-32.227,-55.176
1680450933,-38.086,-39.551,-35.156,-68.848
1680450933,-34.668,-33.691,-35.156,-56.152
1680450933,-37.598,-38.574,-27.344,-37.598
1680450933,-40.527,-41.992,-30.762,-33.203
1680450933,-52.246,-42.969,-39.062,-46.387
1680450933,-51.27,-46.387,-43.457,-59.082
1680450933,-39.551,-45.41,-28.32,-46.387
1680450934,-30.762,-42.48,-20.508,-9.277
1680450934,-24.902,-36.621,-23.926,7.812
1680450934,-25.879,-37.109,-21.484,-15.625
1680450934,-22.949,-41.992,-24.902,-42.48
1680450934,-18.066,-37.109,-23.438,-41.992
1680450934,-13.672,-27.832,-17.578,-14.16
1680450934,-14.16,-27.344,-20.02,-7.812
1680450934,-10.254,-33.691,-23.926,-28.32
1680450934,-0.977,-30.762,-26.367,-41.504
1680450934,-1.953,-28.32,-29.785,-37.598
1680450934,-10.254,-32.715,-30.762,-25.391
1680450934,-17.578,-33.203,-20.02,-15.137
1680450934,-27.832,-37.109,-20.996,-29.297
1680450934,-35.156,-35.645,-26.367,-51.27
1680450934,-35.156,-33.203,-29.785,-54.199
1680450934,-34.18,-35.645,-33.203,-40.039
1680450934,-33.691,-34.18,-19.531,-19.043
1680450934,-37.109,-33.203,-17.578,-23.438
1680450934,-35.156,-32.227,-26.855,-50.293
1680450934,-31.738,-34.668,-30.273,-55.176
1680450934,-29.297,-32.715,-25.391,-28.809
1680450934,-31.738,-35.156,-22.461,-2.441
1680450934,-46.387,-37.109,-28.809,0
1680450934,-49.316,-42.969,-25.879,-30.273
1680450934,-31.25,-48.828,-26.855,-37.598
1680450934,-18.066,-35.645,-30.273,-10.742
1680450934,-14.648,-30.762,-14.648,5.859
1680450934,-17.578,-38.086,-9.766,0
1680450934,-26.367,-34.668,-24.414,-24.902
1680450934,-26.855,-32.227,-29.297,-39.551
1680450934,-22.461,-32.227,-30.762,-18.066
1680450934,-21.973,-30.273,-28.809,3.906
1680450934,-20.508,-30.762,-17.09,-2.93
1680450934,-30.273,-33.203,-15.625,-22.461
1680450934,-30.762,-30.273,-21.973,-33.691
1680450934,-32.227,-31.25,-21.973,-30.762
1680450934,-44.434,-41.016,-26.855,-14.16
1680450934,-52.734,-43.457,-30.273,-10.742
1680450934,-56.152,-40.527,-24.414,-33.691
1680450934,-53.223,-39.062,-35.156,-57.129
1680450934,-50.293,-38.574,-35.156,-49.805
1680450934,-44.922,-33.691,-24.414,-18.066
1680450934,-42.48,-34.18,-21.973,-10.742
1680450934,-37.109,-33.691,-20.996,-25.879
1680450934,-30.762,-24.902,-21.973,-37.598
1680450934,-22.461,-26.855,-25.391,-31.25
1680450934,-25.391,-34.18,-17.578,-8.789
1680450934,-19.043,-30.762,-11.23,6.348
1680450934,-16.113,-26.855,-17.09,-4.883
1680450934,-16.602,-23.926,-17.09,-24.414
1680450934,-9.766,-23.926,-16.113,-21.973
1680450934,-14.648,-37.598,-16.602,-1.465
1680450934,-19.531,-45.41,-14.648,9.277
1680450934,-20.02,-43.457,-6.836,-12.207
1680450934,-22.461,-41.504,-18.555,-34.668
1680450934,-18.066,-41.504,-32.715,-22.461
1680450934,-8.789,-36.621,-23.438,-2.441
1680450934,-16.602,-35.156,-16.113,1.953
1680450934,-30.762,-35.645,-15.137,-11.719
1680450934,-29.785,-34.668,-24.414,-30.762
1680450934,-26.367,-37.109,-24.902,-34.668
1680450934,-21.973,-34.18,-24.902,-19.043
1680450934,-20.996,-31.738,-28.809,-4.883
1680450934,-25.879,-36.621,-25.879,-14.16
1680450934,-32.227,-40.527,-22.461,-38.574
1680450934,-25.879,-40.039,-15.625,-45.898
1680450934,-18.555,-37.109,-23.438,-26.367
1680450934,-27.344,-38.574,-22.949,-7.812
1680450934,-27.832,-35.156,-16.602,-8.301
1680450934,-16.602,-31.738,-22.949,-25.879
1680450934,-8.789,-30.762,-33.203,-33.203
1680450934,-5.859,-26.367,-27.344,-20.02
1680450934,-15.137,-27.344,-23.926,-4.395
1680450934,-23.438,-23.438,-15.137,-5.371
1680450934,-21.973,-26.855,-19.531,-31.25
1680450934,-20.02,-31.738,-35.156,-39.062
1680450934,-20.508,-26.855,-20.02,-20.02
1680450934,-20.508,-23.438,-15.137,1.953
1680450934,-29.297,-27.344,-27.344,-1.953
1680450934,-32.227,-30.762,-34.18,-28.32
1680450934,-22.949,-33.691,-34.668,-39.551
1680450934,-22.461,-33.691,-28.809,-25.879
1680450934,-27.832,-30.762,-24.414,-5.371
1680450934,-30.762,-30.273,-26.855,-1.953
1680450934,-29.297,-34.18,-32.227,-21.484
1680450934,-27.832,-32.715,-32.715,-44.922
1680450934,-23.926,-27.344,-33.691,-40.039
1680450934,-29.297,-33.203,-21.973,-18.555
1680450934,-37.598,-35.645,-19.043,-13.184
1680450934,-28.809,-28.809,-24.414,-22.949
1680450934,-15.137,-21.484,-29.785,-42.48
1680450934,-17.578,-22.949,-26.855,-43.457
1680450934,-25.391,-25.879,-14.648,-21.484
1680450934,-32.227,-24.902,-30.273,-18.066
1680450934,-33.691,-28.32,-36.133,-25.879
1680450934,-28.32,-21.973,-35.156,-34.668
1680450934,-24.414,-21.973,-36.621,-30.762
1680450934,-21.973,-21.973,-29.785,-16.113
1680450934,-23.926,-18.555,-26.855,-13.672
1680450934,-32.715,-26.367,-15.137,-20.996
1680450934,-33.691,-25.391,-5.859,-48.828
1680450934,-28.809,-21.484,-25.391,-49.805
1680450934,-24.902,-24.902,-24.414,-22.461
1680450934,-30.273,-25.879,-17.09,-10.742
1680450934,-36.621,-29.785,-24.902,-23.438
1680450934,-35.645,-26.367,-26.367,-39.062
1680450934,-30.273,-24.414,-27.832,-39.062
1680450934,-31.25,-24.902,-24.414,-24.414
1680450934,-40.039,-26.367,-16.602,-9.277
1680450934,-41.016,-20.508,-18.066,-13.184
1680450934,-37.109,-19.531,-9.277,-34.18
1680450934,-37.598,-22.949,0.977,-37.598
1680450934,-34.18,-22.461,-11.719,-18.555
1680450934,-29.785,-23.926,-17.09,-2.441
1680450934,-34.668,-29.785,-27.832,-8.301
1680450934,-34.668,-38.086,-33.691,-32.227
1680450934,-27.344,-33.691,-32.227,-36.621
1680450934,-19.531,-29.297,-30.762,-11.23
1680450934,-16.113,-34.18,-21.484,1.953
1680450934,-18.066,-28.32,-20.02,-7.812
1680450934,-21.973,-22.461,-27.832,-21.484
1680450934,-25.879,-27.344,-29.297,-35.645
1680450934,-27.344,-39.062,-16.602,-43.457
1680450934,-37.598,-47.363,-11.719,-32.227
1680450934,-41.992,-43.457,-29.785,-18.066
1680450934,-41.504,-36.133,-33.203,-30.273
1680450934,-34.18,-40.527,-34.668,-48.828
1680450934,-35.645,-49.316,-41.016,-43.945
1680450934,-41.992,-45.898,-39.062,-17.09
1680450934,-35.156,-41.016,-25.879,-3.418
1680450934,-33.691,-41.504,-25.391,-26.855
1680450934,-30.273,-43.945,-34.18,-51.758
1680450934,-28.32,-41.992,-32.227,-36.133
1680450934,-29.785,-34.18,-20.996,-12.207
1680450934,-37.109,-29.785,-13.184,-6.348
1680450934,-36.133,-28.32,-21.484,-12.695
1680450934,-34.668,-31.25,-28.32,-27.344
1680450934,-33.203,-32.715,-29.785,-34.18
1680450934,-26.367,-32.715,-31.738,-13.672
1680450934,-41.016,-44.434,-36.621,-8.301
1680450934,-43.457,-41.504,-32.715,-24.902
1680450934,-36.133,-32.715,-29.297,-41.016
1680450934,-32.715,-33.691,-34.668,-40.527
1680450934,-30.273,-39.062,-36.133,-17.578
1680450934,-36.621,-38.086,-28.32,-8.301
1680450934,-39.062,-31.738,-23.438,-21.484
1680450934,-39.062,-37.109,-32.715,-43.457
1680450934,-37.598,-45.898,-44.434,-46.387
1680450934,-38.574,-46.875,-40.039,-30.762
1680450934,-35.156,-38.086,-29.297,-9.766
1680450934,-27.832,-33.691,-26.367,-9.766
1680450934,-29.297,-40.039,-28.809,-39.551
1680450934,-40.039,-43.945,-36.133,-41.504
1680450934,-36.133,-36.133,-33.691,-20.508
1680450934,-38.086,-31.25,-24.414,-9.766
1680450934,-47.852,-35.645,-20.508,-13.672
1680450934,-44.922,-37.598,-23.438,-33.203
1680450934,-33.691,-36.621,-28.809,-37.598
1680450934,-35.156,-34.668,-28.809,-33.691
1680450934,-44.434,-34.668,-28.32,-19.043
1680450934,-39.062,-36.621,-16.113,-12.695
1680450934,-34.668,-34.668,-7.812,-36.621
1680450934,-35.156,-29.785,-20.996,-43.457
1680450934,-25.879,-28.809,-21.973,-30.273
1680450934,-16.113,-25.879,-14.16,-5.371
1680450934,-17.578,-21.973,-18.555,0
1680450934,-15.625,-25.879,-26.367,-23.438
1680450934,-6.836,-30.762,-36.621,-37.109
1680450934,-9.766,-31.25,-39.062,-32.227
1680450934,-12.207,-23.926,-27.832,-11.23
1680450934,-18.066,-24.414,-19.043,-2.93
1680450934,-20.02,-27.832,-24.414,-25.879
1680450934,-21.484,-35.645,-16.113,-41.992
1680450934,-26.855,-37.109,-16.602,-35.645
1680450934,-36.621,-36.621,-35.645,-18.555
1680450934,-41.504,-33.691,-22.461,-10.254
1680450934,-38.574,-32.715,-19.531,-25.879
1680450934,-34.668,-30.762,-32.227,-42.969
1680450934,-36.621,-27.344,-29.785,-49.316
1680450934,-48.828,-30.273,-27.344,-38.086
1680450934,-47.852,-26.367,-22.949,-15.625
1680450934,-42.969,-21.973,-15.137,-22.461
1680450934,-40.527,-24.414,-27.344,-41.016
1680450934,-40.039,-30.762,-27.344,-48.34
1680450934,-35.156,-34.668,-9.277,-39.062
1680450934,-28.32,-33.203,-19.531,-17.578
1680450934,-27.344,-29.785,-28.32,-10.742
1680450934,-20.508,-30.762,-31.25,-31.738
1680450934,-14.648,-28.809,-29.785,-40.527
1680450934,-12.695,-25.391,-30.273,-19.531
1680450934,-21.484,-30.762,-30.762,-11.23
1680450934,-31.738,-35.645,-20.996,-20.508
1680450934,-24.414,-33.691,-24.414,-40.039
1680450934,-20.02,-28.809,-33.691,-48.828
1680450934,-21.484,-25.879,-30.762,-31.738
1680450934,-24.902,-36.621,-30.762,-5.859
1680450934,-28.32,-45.898,-25.879,-4.395
1680450934,-25.391,-37.109,-25.879,-25.879
1680450934,-21.973,-34.18,-25.391,-34.18
1680450934,-25.391,-39.551,-19.043,-23.926
1680450934,-29.785,-37.598,-18.555,-1.465
1680450934,-40.039,-36.133,-15.137,-4.395
1680450934,-39.551,-31.738,-14.648,-31.25
1680450934,-35.156,-32.715,-22.461,-40.527
1680450934,-36.621,-35.156,-23.926,-28.32
1680450934,-34.18,-31.25,-20.508,-5.371
1680450934,-33.691,-32.715,-18.555,-0.488
1680450934,-43.457,-39.551,-26.367,-26.367
1680450934,-37.109,-45.41,-33.691,-47.363
1680450934,-22.461,-42.48,-33.691,-37.598
1680450934,-23.438,-40.039,-27.832,-16.113
1680450934,-31.738,-39.062,-30.762,-13.672
1680450934,-35.156,-35.645,-35.156,-31.738
1680450934,-26.367,-32.715,-35.156,-43.945
1680450934,-21.484,-28.809,-33.203,-31.738
1680450934,-29.297,-26.367,-28.32,-19.043
1680450934,-34.18,-31.25,-28.809,-11.719
1680450934,-30.273,-28.32,-32.227,-21.973
1680450934,-32.227,-31.25,-32.715,-50.781
1680450934,-22.949,-37.109,-31.738,-40.527
1680450934,-15.137,-34.18,-30.762,-11.23
1680450934,-29.785,-36.621,-26.367,-17.578
1680450934,-40.527,-41.992,-29.297,-36.621
1680450934,-40.527,-45.898,-36.621,-48.34
1680450934,-37.598,-41.016,-39.551,-49.805
1680450934,-35.645,-36.621,-33.203,-34.668
1680450934,-36.621,-33.691,-33.203,-22.949
1680450934,-37.598,-33.691,-36.621,-26.855
1680450934,-47.363,-40.527,-41.016,-47.363
1680450934,-39.551,-40.527,-27.344,-60.059
1680450934,-43.457,-42.48,-7.324,-45.898
1680450934,-53.223,-47.363,-18.555,-33.691
1680450934,-36.621,-41.016,-33.691,-35.645
1680450934,-29.785,-30.273,-38.086,-44.434
1680450934,-30.762,-37.598,-34.18,-51.27
1680450934,-38.086,-46.387,-35.156,-44.922
1680450934,-43.945,-40.527,-29.785,-22.461
1680450934,-41.992,-35.156,-24.902,-14.648
1680450934,-31.738,-38.574,-29.297,-31.25
1680450934,-25.879,-39.551,-34.668,-37.598
1680450934,-26.855,-36.133,-31.738,-27.344
1680450934,-24.902,-25.391,-21.484,-6.836
1680450934,-24.902,-21.973,-14.648,-9.277
1680450934,-29.785,-35.156,-22.461,-38.086
1680450934,-29.297,-39.062,-27.832,-42.969
1680450934,-19.043,-34.18,-22.461,-25.391
1680450934,-19.043,-34.668,-20.508,-5.371
1680450934,-27.344,-38.574,-24.414,-7.324
1680450934,-32.715,-34.668,-24.902,-34.668
1680450934,-32.715,-30.762,-32.227,-44.922
1680450934,-32.227,-28.809,-32.715,-29.297
1680450934,-31.25,-25.879,-25.391,-6.836
1680450934,-38.574,-27.344,-23.926,-3.906
1680450934,-43.457,-26.367,-25.391,-23.926
1680450934,-32.715,-31.25,-24.902,-32.227
1680450934,-19.043,-34.668,-27.344,-27.832
1680450935,-14.648,-33.203,-23.926,-21.973
1680450935,-22.461,-33.203,-16.113,-13.184
1680450935,-14.648,-23.438,-16.602,-22.949
1680450935,-10.254,-18.555,-25.879,-39.551
1680450935,-15.625,-16.113,-32.227,-30.273
1680450935,-20.508,-20.508,-22.461,-16.113
1680450935,-26.367,-29.785,-17.09,-14.16
1680450935,-28.32,-30.762,-21.973,-29.297
1680450935,-27.832,-34.668,-25.879,-48.34
1680450935,-15.137,-24.902,-20.02,-45.898
1680450935,-25.391,-20.996,-20.02,-25.879
1680450935,-41.992,-29.785,-20.02,-14.648
1680450935,-41.992,-29.785,-8.301,-28.32
1680450935,-44.922,-32.227,-10.254,-47.363
1680450935,-38.086,-29.785,-18.555,-39.551
1680450935,-29.785,-26.855,-8.789,-24.414
1680450935,-31.25,-29.297,-8.301,-19.531
1680450935,-45.41,-37.598,-21.973,-35.156
1680450935,-54.688,-39.062,-31.738,-58.105
1680450935,-42.969,-37.109,-32.227,-55.176
1680450935,-39.062,-41.992,-28.32,-33.691
1680450935,-45.898,-41.016,-21.484,-12.695
1680450935,-44.922,-35.156,-26.367,-15.625
1680450935,-33.691,-31.738,-19.043,-36.133
1680450935,-30.762,-40.527,-10.254,-40.039
1680450935,-29.297,-45.41,-29.297,-32.227
1680450935,-22.949,-36.133,-30.273,-21.484
1680450935,-20.996,-31.25,-17.09,-14.16
1680450935,-20.02,-25.879,-17.578,-27.344
1680450935,-16.113,-20.02,-27.344,-35.156
1680450935,-9.277,-24.414,-32.227,-20.996
1680450935,-12.695,-30.273,-26.855,-2.93
1680450935,-19.531,-31.738,-24.902,-12.695
1680450935,-16.113,-22.461,-21.973,-28.32
1680450935,-15.625,-20.02,-26.367,-33.203
1680450935,-23.438,-31.738,-18.066,-28.809
1680450935,-26.367,-32.715,-14.648,-13.672
1680450935,-26.367,-24.414,-22.949,-14.648
1680450935,-26.367,-27.344,-20.508,-29.297
1680450935,-33.691,-33.691,-26.367,-42.48
1680450935,-38.086,-33.203,-29.297,-35.156
1680450935,-37.598,-35.156,-28.809,-20.02
1680450935,-46.875,-33.691,-21.484,-19.043
1680450935,-47.852,-30.762,-22.461,-31.25
1680450935,-39.062,-41.016,-32.227,-53.223
1680450935,-41.016,-37.109,-29.297,-49.316
1680450935,-45.898,-28.32,-20.02,-26.855
1680450935,-49.316,-35.156,-14.16,-26.367
1680450935,-51.27,-36.621,-25.879,-36.621
1680450935,-37.109,-31.738,-28.32,-51.27
1680450935,-23.438,-28.809,-28.32,-48.828
1680450935,-23.926,-25.391,-30.762,-21.973
1680450935,-29.297,-25.391,-30.762,-6.836
1680450935,-29.297,-30.273,-37.598,-20.02
1680450935,-18.555,-29.785,-40.527,-38.086
1680450935,-11.719,-31.738,-32.715,-45.41
1680450935,-10.254,-30.762,-32.227,-22.461
1680450935,-16.602,-24.902,-32.715,-7.324
1680450935,-26.367,-28.809,-16.602,-22.461
1680450935,-26.855,-33.691,-15.625,-40.527
1680450935,-15.137,-27.832,-27.344,-38.574
1680450935,-6.348,-24.414,-20.508,-12.695
1680450935,-20.508,-24.414,-20.508,1.465
1680450935,-29.297,-25.391,-28.809,-9.766
1680450935,-28.809,-25.391,-36.133,-31.25
1680450935,-24.902,-25.391,-32.227,-34.18
1680450935,-15.137,-21.484,-20.02,-15.625
1680450935,-26.367,-23.438,-9.766,-6.348
1680450935,-37.109,-25.391,-20.02,-18.555
1680450935,-30.762,-20.508,-27.344,-31.25
1680450935,-20.996,-27.344,-28.32,-36.621
1680450935,-17.09,-30.273,-36.621,-30.273
1680450935,-18.066,-28.809,-24.902,-5.859
1680450935,-24.902,-29.297,-17.09,-6.836
1680450935,-29.785,-32.715,-27.344,-41.016
1680450935,-22.949,-33.691,-34.18,-53.711
1680450935,-19.531,-30.762,-28.809,-42.48
1680450935,-26.855,-26.367,-20.02,-26.855
1680450935,-34.18,-25.879,-18.066,-18.555
1680450935,-36.133,-33.203,-28.809,-36.621
1680450935,-23.926,-35.156,-26.367,-44.922
1680450935,-16.113,-31.25,-21.484,-30.762
1680450935,-25.879,-34.18,-28.32,-20.996
1680450935,-33.203,-40.039,-24.414,-20.508
1680450935,-38.086,-40.039,-22.949,-34.18
1680450935,-33.691,-39.062,-24.902,-48.828
1680450935,-30.762,-41.016,-27.832,-47.852
1680450935,-30.273,-41.992,-29.297,-27.344
1680450935,-24.414,-38.086,-22.461,-12.695
1680450935,-29.297,-33.691,-22.949,-27.832
1680450935,-35.156,-34.668,-30.273,-43.945
1680450935,-23.438,-33.203,-27.344,-36.133
1680450935,-17.09,-31.25,-15.625,-16.602
1680450935,-23.438,-29.785,-12.695,-10.254
1680450935,-32.715,-31.738,-27.832,-22.461
1680450935,-31.25,-33.691,-33.203,-36.621
1680450935,-24.902,-40.039,-28.32,-33.691
1680450935,-24.902,-40.527,-22.461,-19.531
1680450935,-30.273,-35.645,-22.461,-2.93
1680450935,-39.062,-35.645,-24.902,-11.23
1680450935,-41.992,-38.086,-30.762,-46.875
1680450935,-32.715,-40.527,-26.367,-49.805
1680450935,-27.344,-42.969,-17.578,-22.949
1680450935,-38.574,-43.457,-21.973,-9.766
1680450935,-50.293,-43.945,-24.902,-30.273
1680450935,-47.852,-40.527,-23.926,-49.805
1680450935,-44.434,-37.598,-29.785,-46.875
1680450935,-39.551,-36.133,-25.391,-24.902
1680450935,-32.227,-31.25,-14.648,-5.859
1680450935,-41.992,-36.621,-16.602,-15.625
1680450935,-45.898,-41.992,-25.879,-36.621
1680450935,-33.691,-38.086,-30.762,-42.969
1680450935,-27.832,-35.156,-26.367,-23.926
1680450935,-29.785,-33.203,-18.555,-4.395
1680450935,-31.738,-25.391,-15.137,-2.441
1680450935,-26.855,-24.902,-19.531,-20.996
1680450935,-26.367,-35.156,-29.785,-51.758
1680450935,-26.855,-31.738,-26.855,-35.156
1680450935,-34.668,-26.855,-20.508,-10.254
1680450935,-45.898,-31.738,-20.996,-12.207
1680450935,-40.527,-33.691,-20.996,-23.926
1680450935,-27.344,-24.902,-21.484,-33.691
1680450935,-34.18,-27.344,-23.926,-26.855
1680450935,-38.574,-35.156,-16.602,-15.137
1680450935,-32.715,-30.273,-12.695,-10.254
1680450935,-40.527,-28.809,-17.09,-28.809
1680450935,-39.062,-26.855,-18.066,-47.363
1680450935,-29.297,-25.391,-18.066,-34.18
1680450935,-20.996,-30.273,-11.719,-17.578
1680450935,-24.414,-25.391,-5.371,-12.207
1680450935,-30.273,-20.508,-16.602,-22.949
1680450935,-22.461,-29.785,-18.555,-36.621
1680450935,-13.184,-31.738,-26.855,-33.203
1680450935,-16.113,-22.949,-29.297,-14.648
1680450935,-25.879,-26.855,-20.996,-1.465
1680450935,-20.996,-26.367,-23.438,-11.23
1680450935,-20.02,-22.949,-25.879,-29.785
1680450935,-28.32,-28.809,-31.25,-43.457
1680450935,-23.438,-31.738,-26.855,-22.461
1680450935,-25.879,-31.738,-15.625,0
1680450935,-37.109,-32.227,-16.113,-12.695
1680450935,-30.762,-25.879,-19.043,-31.25
1680450935,-18.555,-28.809,-18.555,-35.645
1680450935,-20.02,-33.691,-9.277,-12.207
1680450935,-29.785,-28.809,-12.207,-1.465
1680450935,-35.645,-32.227,-18.555,-22.949
1680450935,-33.203,-32.715,-26.855,-45.898
1680450935,-23.926,-27.344,-35.645,-46.875
1680450935,-24.902,-26.367,-25.879,-25.391
1680450935,-33.203,-21.484,-25.391,-11.719
1680450935,-38.086,-20.996,-29.785,-19.043
1680450935,-44.922,-24.902,-33.691,-45.41
1680450935,-37.598,-18.555,-39.551,-56.152
1680450935,-31.738,-6.348,-36.621,-29.785
1680450935,-41.504,-13.184,-27.344,-17.09
1680450935,-45.898,-18.066,-29.297,-24.414
1680450935,-38.086,-9.277,-35.156,-42.48
1680450935,-31.25,-7.812,-35.645,-56.152
1680450935,-31.738,-4.883,-35.645,-47.363
1680450935,-34.668,-3.418,-31.25,-28.32
1680450935,-41.504,-1.953,-30.273,-29.297
1680450935,-41.504,-1.465,-31.25,-48.34
1680450935,-31.738,-2.93,-35.645,-62.012
1680450935,-19.531,-0.977,-34.18,-42.48
1680450935,-14.16,0,-30.273,-7.812
1680450935,-28.809,-1.953,-27.832,-9.277
1680450935,-37.109,-9.277,-33.203,-36.621
1680450935,-41.016,-20.508,-43.945,-56.641
1680450935,-47.363,-27.344,-42.48,-43.945
1680450935,-42.48,-24.414,-41.992,-23.926
1680450935,-39.551,-19.043,-36.133,-29.297
