timestamps,TP9,AF7,AF8,TP10
1683642727.342,-29.785,-36.621,-26.367,-23.926
1683642727.346,-52.246,-52.246,-28.809,-56.152
1683642727.350,-46.387,-43.457,-30.762,-46.875
1683642727.354,-27.832,-35.156,-25.879,-8.789
1683642727.358,-18.555,-38.574,-26.367,9.277
1683642727.362,-25.391,-38.086,-34.180,-14.160
1683642727.366,-36.133,-36.133,-39.551,-48.828
1683642727.369,-37.598,-36.621,-39.062,-48.828
1683642727.373,-30.762,-41.016,-29.785,-12.695
1683642727.377,-21.484,-40.039,-31.738,-2.441
1683642727.381,-28.809,-33.691,-37.598,-38.574
1683642727.385,-46.387,-37.598,-33.691,-64.453
1683642727.387,-50.781,-43.457,-32.715,-60.547
1683642727.391,-34.668,-34.180,-36.621,-44.922
1683642727.395,-22.461,-28.809,-34.668,-25.879
1683642727.399,-31.738,-38.574,-32.227,-37.598
1683642727.403,-42.480,-39.062,-35.156,-71.777
1683642727.407,-48.828,-40.039,-38.574,-79.590
1683642727.411,-47.363,-42.969,-37.109,-51.270
1683642727.414,-27.344,-33.203,-29.297,-20.508
1683642727.418,-26.855,-26.855,-25.879,-33.203
1683642727.422,-47.363,-34.668,-32.715,-68.848
1683642727.426,-45.898,-39.551,-32.227,-72.754
1683642727.430,-32.227,-34.180,-20.020,-38.086
1683642727.432,-25.879,-31.250,-22.461,-17.090
1683642727.436,-17.090,-25.391,-23.926,-23.438
1683642727.440,-19.043,-26.855,-25.391,-44.922
1683642727.444,-35.156,-39.551,-26.855,-63.965
1683642727.448,-33.203,-40.527,-29.297,-55.664
1683642727.452,-4.883,-26.367,-32.715,-30.762
1683642727.456,-13.672,-32.715,-30.762,-29.785
1683642727.459,-43.457,-50.293,-33.203,-54.199
1683642727.463,-49.805,-50.293,-33.203,-62.012
1683642727.467,-44.434,-44.434,-29.297,-46.387
1683642727.471,-20.996,-31.250,-27.832,-28.320
1683642727.475,-13.672,-26.855,-28.320,-26.855
1683642727.432,-25.879,-31.250,-22.461,-17.090
1683642727.436,-17.090,-25.391,-23.926,-23.438
1683642727.440,-19.043,-26.855,-25.391,-44.922
1683642727.444,-35.156,-39.551,-26.855,-63.965
1683642727.448,-33.203,-40.527,-29.297,-55.664
1683642727.452,-4.883,-26.367,-32.715,-30.762
1683642727.456,-13.672,-32.715,-30.762,-29.785
1683642727.459,-43.457,-50.293,-33.203,-54.199
1683642727.463,-49.805,-50.293,-33.203,-62.012
1683642727.467,-44.434,-44.434,-29.297,-46.387
1683642727.471,-20.996,-31.250,-27.832,-28.320
1683642727.475,-13.672,-26.855,-28.320,-26.855
1683642727.477,-30.762,-41.992,-25.879,-49.316
1683642727.481,-42.480,-42.480,-31.250,-79.102
1683642727.485,-46.387,-39.551,-26.367,-61.035
1683642727.489,-34.668,-37.598,-20.996,-15.625
1683642727.493,-18.066,-28.809,-29.785,-15.625
1683642727.497,-32.715,-32.227,-30.273,-50.293
1683642727.501,-49.805,-37.109,-30.762,-75.195
1683642727.504,-41.504,-37.109,-33.203,-71.777
1683642727.508,-25.879,-30.762,-28.809,-40.039
1683642727.512,-19.531,-25.879,-28.320,-28.809
1683642727.516,-28.320,-31.250,-27.344,-49.805
1683642727.520,-54.688,-39.062,-28.320,-80.566
1683642727.522,-62.012,-37.109,-36.621,-86.426
1683642727.526,-34.668,-21.484,-35.156,-50.293
1683642727.530,-25.391,-19.043,-34.180,-22.461
1683642727.534,-33.203,-33.203,-36.621,-32.227
1683642727.538,-47.852,-37.109,-39.551,-65.918
1683642727.542,-55.176,-40.527,-42.480,-73.730
1683642727.546,-34.180,-30.273,-41.016,-46.387
1683642727.549,-16.602,-27.832,-39.062,-21.973
1683642727.553,-25.879,-37.109,-40.039,-31.250
1683642727.557,-41.016,-40.527,-43.457,-61.035
1683642727.561,-43.945,-39.062,-42.480,-61.523
1683642727.565,-29.785,-30.273,-43.457,-26.367
1683642727.567,-12.207,-22.949,-45.898,-13.184
1683642727.571,-13.184,-21.973,-40.039,-26.367
1683642727.575,-31.738,-30.762,-40.527,-50.781
1683642727.579,-35.156,-30.762,-45.898,-65.430
1683642727.583,-27.832,-24.414,-41.504,-43.457
1683642727.587,-13.672,-25.879,-35.156,-6.348
1683642727.591,-9.766,-27.344,-35.156,2.930
1683642727.594,-28.809,-32.227,-41.504,-33.203
1683642727.598,-37.109,-31.738,-41.016,-52.734
1683642727.602,-35.645,-32.227,-35.156,-28.809
1683642727.606,-22.949,-25.391,-35.645,-6.348
1683642727.610,-13.672,-16.602,-35.645,-7.324
1683642727.567,-12.207,-22.949,-45.898,-13.184
1683642727.571,-13.184,-21.973,-40.039,-26.367
1683642727.575,-31.738,-30.762,-40.527,-50.781
1683642727.579,-35.156,-30.762,-45.898,-65.430
1683642727.583,-27.832,-24.414,-41.504,-43.457
1683642727.587,-13.672,-25.879,-35.156,-6.348
1683642727.591,-9.766,-27.344,-35.156,2.930
1683642727.594,-28.809,-32.227,-41.504,-33.203
1683642727.598,-37.109,-31.738,-41.016,-52.734
1683642727.602,-35.645,-32.227,-35.156,-28.809
1683642727.606,-22.949,-25.391,-35.645,-6.348
1683642727.610,-13.672,-16.602,-35.645,-7.324
1683642727.612,-31.738,-24.902,-35.156,-26.855
1683642727.616,-48.340,-31.738,-40.527,-44.922
1683642727.620,-46.875,-31.250,-44.922,-31.250
1683642727.624,-23.438,-22.461,-36.621,0.488
1683642727.628,-20.996,-27.832,-26.855,16.602
1683642727.632,-38.086,-35.645,-26.367,-0.977
1683642727.636,-46.387,-33.203,-31.250,-20.996
1683642727.639,-43.457,-33.691,-38.086,-23.438
1683642727.643,-19.043,-29.785,-38.574,-8.301
1683642727.647,-6.348,-24.414,-28.320,9.766
1683642727.651,-13.672,-26.855,-25.391,-1.953
1683642727.655,-43.945,-39.551,-30.273,-33.691
1683642727.657,-54.688,-44.434,-24.902,-26.367
1683642727.661,-28.320,-32.227,-23.438,5.371
1683642727.665,-19.531,-24.902,-28.809,19.043
1683642727.669,-25.879,-33.691,-34.180,-2.930
1683642727.673,-41.992,-44.434,-35.156,-34.180
1683642727.677,-56.641,-43.457,-33.691,-17.578
1683642727.681,-37.109,-38.086,-30.273,20.996
1683642727.684,-16.113,-36.133,-25.879,31.738
1683642727.688,-28.320,-39.551,-26.367,10.742
1683642727.692,-49.805,-43.945,-26.367,-14.160
1683642727.696,-48.340,-38.574,-28.809,-15.625
1683642727.700,-30.273,-32.227,-31.738,2.441
1683642727.717,-22.949,-36.133,-29.785,22.949
1683642727.721,-34.668,-43.457,-24.414,18.555
1683642727.725,-53.223,-51.270,-27.832,-11.230
1683642727.729,-55.664,-51.270,-38.086,-27.344
1683642727.733,-32.715,-41.016,-38.086,1.465
1683642727.737,-20.996,-37.109,-25.879,40.039
1683642727.741,-33.203,-44.434,-26.855,28.320
1683642727.744,-45.898,-49.805,-36.621,0.000
1683642727.748,-56.152,-48.340,-33.691,2.441
1683642727.752,-46.875,-44.434,-32.715,25.879
1683642727.756,-25.391,-35.156,-37.109,48.340
1683642727.760,-23.926,-33.691,-35.156,44.922
1683642727.717,-22.949,-36.133,-29.785,22.949
1683642727.721,-34.668,-43.457,-24.414,18.555
1683642727.725,-53.223,-51.270,-27.832,-11.230
1683642727.729,-55.664,-51.270,-38.086,-27.344
1683642727.733,-32.715,-41.016,-38.086,1.465
1683642727.737,-20.996,-37.109,-25.879,40.039
1683642727.741,-33.203,-44.434,-26.855,28.320
1683642727.744,-45.898,-49.805,-36.621,0.000
1683642727.748,-56.152,-48.340,-33.691,2.441
1683642727.752,-46.875,-44.434,-32.715,25.879
1683642727.756,-25.391,-35.156,-37.109,48.340
1683642727.760,-23.926,-33.691,-35.156,44.922
1683642727.762,-32.715,-38.574,-32.715,20.020
1683642727.766,-39.551,-37.598,-28.809,9.277
1683642727.770,-36.133,-36.621,-25.391,32.227
1683642727.774,-17.090,-32.715,-29.297,58.105
1683642727.778,-23.438,-35.645,-30.762,58.594
1683642727.782,-41.992,-43.457,-29.297,35.645
1683642727.786,-47.852,-45.898,-26.367,16.113
1683642727.789,-44.434,-42.480,-24.414,25.391
1683642727.793,-25.879,-32.227,-29.785,45.898
1683642727.797,-21.484,-31.738,-35.156,41.016
1683642727.801,-45.410,-40.039,-34.668,17.578
1683642727.805,-49.316,-42.480,-38.574,3.418
1683642727.807,-40.039,-41.504,-36.133,16.602
1683642727.811,-41.504,-41.016,-30.273,38.574
1683642727.815,-27.832,-31.738,-26.855,45.410
1683642727.819,-26.367,-28.809,-22.461,33.203
1683642727.823,-44.434,-35.156,-26.367,7.324
1683642727.827,-49.805,-37.109,-29.297,9.277
1683642727.831,-33.691,-30.273,-21.973,45.898
1683642727.834,-17.578,-28.320,-20.996,63.477
1683642727.838,-27.344,-41.504,-29.785,37.598
1683642727.842,-47.363,-45.898,-32.715,10.742
1683642727.846,-40.039,-30.273,-35.156,11.719
1683642727.850,-20.020,-24.902,-36.621,34.668
1683642727.852,-14.648,-31.250,-34.668,49.805
1683642727.856,-28.809,-36.133,-36.133,31.250
1683642727.860,-41.504,-38.086,-37.598,5.859
1683642727.864,-41.992,-36.133,-32.227,10.254
1683642727.868,-27.344,-26.367,-33.691,36.621
1683642727.872,-5.859,-18.555,-36.133,57.617
1683642727.876,-10.254,-23.926,-29.297,58.594
1683642727.879,-35.156,-39.062,-33.203,30.762
1683642727.883,-47.363,-45.410,-36.133,11.230
1683642727.887,-28.809,-32.715,-32.227,30.762
1683642727.891,-10.254,-25.879,-30.273,62.012
1683642727.895,-15.625,-28.809,-29.785,60.547
1683642727.852,-14.648,-31.250,-34.668,49.805
1683642727.856,-28.809,-36.133,-36.133,31.250
1683642727.860,-41.504,-38.086,-37.598,5.859
1683642727.864,-41.992,-36.133,-32.227,10.254
1683642727.868,-27.344,-26.367,-33.691,36.621
1683642727.872,-5.859,-18.555,-36.133,57.617
1683642727.876,-10.254,-23.926,-29.297,58.594
1683642727.879,-35.156,-39.062,-33.203,30.762
1683642727.883,-47.363,-45.410,-36.133,11.230
1683642727.887,-28.809,-32.715,-32.227,30.762
1683642727.891,-10.254,-25.879,-30.273,62.012
1683642727.895,-15.625,-28.809,-29.785,60.547
1683642727.897,-32.715,-37.598,-33.691,26.367
1683642727.901,-42.480,-45.898,-32.715,17.578
1683642727.905,-26.855,-32.227,-26.855,40.039
1683642727.909,-3.906,-24.902,-25.391,68.848
1683642727.913,-11.719,-34.180,-27.832,64.453
1683642727.917,-39.551,-39.551,-27.832,33.203
1683642727.921,-47.363,-32.227,-27.344,17.090
1683642727.924,-36.133,-33.691,-28.809,39.551
1683642727.928,-17.578,-37.109,-26.855,71.289
1683642727.932,-20.020,-35.645,-25.391,71.289
1683642727.936,-28.320,-33.691,-31.250,43.457
1683642727.940,-23.926,-33.203,-27.344,34.180
1683642727.942,-22.949,-30.762,-19.043,58.105
1683642727.946,-15.137,-26.855,-16.602,78.125
1683642727.950,-7.812,-25.391,-17.090,78.613
1683642727.954,-23.438,-33.691,-23.438,55.664
1683642727.958,-43.457,-45.898,-28.809,33.203
1683642727.962,-31.738,-38.574,-28.809,50.781
1683642727.966,-15.137,-24.902,-27.344,79.590
1683642727.969,-10.254,-28.320,-26.367,84.473
1683642727.973,-23.438,-35.156,-33.691,64.941
1683642727.977,-41.992,-35.156,-40.039,43.945
1683642727.981,-39.551,-34.668,-28.809,63.965
1683642727.985,-28.809,-33.691,-20.508,100.586
1683642727.942,-22.949,-30.762,-19.043,58.105
1683642727.946,-15.137,-26.855,-16.602,78.125
1683642727.950,-7.812,-25.391,-17.090,78.613
1683642727.954,-23.438,-33.691,-23.438,55.664
1683642727.958,-43.457,-45.898,-28.809,33.203
1683642727.962,-31.738,-38.574,-28.809,50.781
1683642727.966,-15.137,-24.902,-27.344,79.590
1683642727.969,-10.254,-28.320,-26.367,84.473
1683642727.973,-23.438,-35.156,-33.691,64.941
1683642727.977,-41.992,-35.156,-40.039,43.945
1683642727.981,-39.551,-34.668,-28.809,63.965
1683642727.985,-28.809,-33.691,-20.508,100.586
1683642727.987,-15.625,-25.391,-22.461,106.934
1683642727.991,-27.832,-32.715,-29.785,74.219
1683642727.995,-47.363,-39.551,-31.250,37.109
1683642727.999,-42.480,-32.227,-26.367,49.805
1683642728.003,-21.484,-23.926,-26.855,80.566
1683642728.007,-11.719,-20.508,-29.297,88.867
1683642728.011,-25.879,-28.320,-32.227,73.242
1683642728.014,-37.109,-40.527,-38.574,45.898
1683642728.018,-36.621,-41.504,-37.109,49.316
1683642728.022,-23.438,-32.227,-30.762,81.055
1683642728.026,-10.742,-29.297,-30.762,99.609
1683642728.030,-13.184,-33.203,-32.715,86.426
1683642727.987,-15.625,-25.391,-22.461,106.934
1683642727.991,-27.832,-32.715,-29.785,74.219
1683642727.995,-47.363,-39.551,-31.250,37.109
1683642727.999,-42.480,-32.227,-26.367,49.805
1683642728.003,-21.484,-23.926,-26.855,80.566
1683642728.007,-11.719,-20.508,-29.297,88.867
1683642728.011,-25.879,-28.320,-32.227,73.242
1683642728.014,-37.109,-40.527,-38.574,45.898
1683642728.018,-36.621,-41.504,-37.109,49.316
1683642728.022,-23.438,-32.227,-30.762,81.055
1683642728.026,-10.742,-29.297,-30.762,99.609
1683642728.030,-13.184,-33.203,-32.715,86.426
1683642728.032,-30.762,-38.086,-36.133,49.805
1683642728.036,-41.016,-42.480,-30.762,50.781
1683642728.040,-20.020,-29.785,-23.438,92.285
1683642728.044,-8.301,-23.926,-32.715,102.051
1683642728.048,-17.578,-33.203,-35.156,82.031
1683642728.052,-33.203,-41.992,-36.621,47.852
1683642728.056,-42.969,-40.039,-39.551,32.715
1683642728.059,-32.715,-29.785,-31.738,62.012
1683642728.063,-18.066,-24.902,-26.367,87.402
1683642728.067,-25.879,-29.785,-24.414,83.008
1683642728.071,-38.574,-37.109,-27.832,55.664
1683642728.075,-41.992,-40.039,-29.297,39.551
1683642728.092,-32.715,-27.832,-34.180,41.504
1683642728.096,-14.160,-18.555,-36.621,62.500
1683642728.100,-10.742,-18.066,-32.715,71.289
1683642728.104,-31.738,-31.250,-33.203,43.457
1683642728.108,-49.805,-42.480,-28.809,37.598
1683642728.112,-28.320,-28.809,-24.414,58.594
1683642728.116,-0.977,-17.578,-23.438,84.473
1683642728.119,-5.859,-24.902,-20.020,84.961
1683642728.123,-14.648,-34.180,-17.578,57.617
1683642728.127,-23.926,-38.086,-24.414,26.855
1683642728.131,-14.648,-23.926,-27.344,37.109
1683642728.135,4.883,-12.695,-21.973,75.684
1683642728.092,-32.715,-27.832,-34.180,41.504
1683642728.096,-14.160,-18.555,-36.621,62.500
1683642728.100,-10.742,-18.066,-32.715,71.289
1683642728.104,-31.738,-31.250,-33.203,43.457
1683642728.108,-49.805,-42.480,-28.809,37.598
1683642728.112,-28.320,-28.809,-24.414,58.594
1683642728.116,-0.977,-17.578,-23.438,84.473
1683642728.119,-5.859,-24.902,-20.020,84.961
1683642728.123,-14.648,-34.180,-17.578,57.617
1683642728.127,-23.926,-38.086,-24.414,26.855
1683642728.131,-14.648,-23.926,-27.344,37.109
1683642728.135,4.883,-12.695,-21.973,75.684
1683642728.137,11.719,-15.625,-24.902,80.566
1683642728.141,-3.418,-23.926,-20.508,63.965
1683642728.145,-25.879,-30.762,-20.020,42.969
1683642728.149,-16.113,-26.855,-31.250,33.691
1683642728.153,4.395,-13.672,-30.273,54.688
1683642728.157,4.395,-14.160,-19.531,73.730
1683642728.161,-2.930,-25.879,-22.461,56.152
1683642728.164,-14.648,-30.762,-31.738,23.926
1683642728.168,-25.391,-35.645,-28.320,27.344
1683642728.172,-21.484,-44.434,-18.555,64.941
1683642728.176,-2.930,-36.621,-21.484,70.801
1683642728.180,-8.789,-25.391,-28.809,36.133
1683642728.182,-23.926,-27.832,-20.996,20.020
1683642728.186,-33.203,-32.227,-17.090,29.297
1683642728.190,-23.438,-27.344,-20.508,52.246
1683642728.194,0.000,-21.484,-20.020,76.172
1683642728.198,-13.184,-28.320,-20.508,67.871
1683642728.202,-34.668,-31.738,-29.785,30.762
1683642728.206,-22.949,-22.461,-26.367,31.738
1683642728.209,-12.695,-20.508,-22.949,54.199
1683642728.213,-14.648,-31.250,-29.785,62.500
1683642728.217,-19.531,-39.551,-32.715,51.270
1683642728.221,-29.297,-40.039,-33.691,16.113
1683642728.225,-29.297,-38.086,-31.250,0.000
1683642728.227,-21.973,-37.598,-26.855,33.203
1683642728.231,-9.766,-30.273,-29.785,55.176
1683642728.235,-11.719,-24.902,-32.227,36.133
1683642728.239,-36.621,-40.039,-26.855,16.113
1683642728.243,-38.574,-43.945,-23.926,6.836
1683642728.247,-23.926,-30.762,-23.926,21.484
1683642728.251,-17.090,-22.461,-27.344,46.387
1683642728.254,-26.855,-34.668,-31.250,38.086
1683642728.258,-44.434,-46.387,-34.180,0.488
1683642728.262,-57.129,-38.574,-26.367,-1.953
1683642728.266,-58.105,-32.227,-19.531,34.668
1683642728.270,-57.617,-31.738,-21.484,60.547
1683642728.227,-21.973,-37.598,-26.855,33.203
1683642728.231,-9.766,-30.273,-29.785,55.176
1683642728.235,-11.719,-24.902,-32.227,36.133
1683642728.239,-36.621,-40.039,-26.855,16.113
1683642728.243,-38.574,-43.945,-23.926,6.836
1683642728.247,-23.926,-30.762,-23.926,21.484
1683642728.251,-17.090,-22.461,-27.344,46.387
1683642728.254,-26.855,-34.668,-31.250,38.086
1683642728.258,-44.434,-46.387,-34.180,0.488
1683642728.262,-57.129,-38.574,-26.367,-1.953
1683642728.266,-58.105,-32.227,-19.531,34.668
1683642728.270,-57.617,-31.738,-21.484,60.547
1683642728.272,-61.523,-34.180,-24.414,47.363
1683642728.276,-85.938,-45.410,-32.715,-0.977
1683642728.280,-107.422,-40.527,-20.508,0.488
1683642728.284,-94.727,-26.855,-12.207,26.367
1683642728.288,-80.078,-19.531,-13.184,41.016
1683642728.292,-80.078,-13.672,-15.625,40.039
1683642728.296,-107.422,-25.879,-27.832,-7.812
1683642728.299,-139.160,-42.480,-32.227,-48.340
1683642728.303,-129.395,-31.738,-22.949,-35.645
1683642728.307,-112.793,-17.090,-14.648,-18.555
1683642728.311,-141.113,-24.902,-14.648,-31.738
1683642728.315,-158.203,-25.879,-14.160,-72.266
1683642728.317,-171.387,-36.621,-15.625,-100.586
1683642728.321,-195.801,-43.457,-12.207,-96.191
1683642728.325,-208.008,-38.574,-11.719,-89.355
1683642728.329,-215.332,-45.410,-10.742,-95.215
1683642728.333,-229.492,-50.293,-12.207,-126.465
1683642728.337,-252.930,-55.664,-20.020,-174.805
1683642728.341,-264.160,-57.617,-18.066,-181.152
1683642728.344,-258.301,-61.523,-8.301,-147.949
1683642728.348,-243.164,-60.059,-6.348,-135.742
1683642728.352,-234.863,-61.035,-3.906,-153.320
1683642728.356,-246.582,-66.895,-4.395,-180.664
1683642728.360,-243.164,-68.359,-9.277,-175.781
1683642728.362,-209.473,-59.082,-5.859,-132.812
1683642728.366,-176.758,-49.805,2.930,-81.543
1683642728.370,-163.574,-48.828,-0.977,-71.289
1683642728.374,-158.691,-53.711,-15.625,-92.773
1683642728.378,-152.832,-58.105,-22.461,-90.332
1683642728.382,-134.277,-53.711,-16.602,-48.340
1683642728.386,-103.516,-43.945,-24.414,-19.043
1683642728.389,-94.727,-54.199,-37.109,-26.367
1683642728.393,-93.262,-62.988,-32.715,-40.039
1683642728.397,-91.309,-61.523,-32.227,-40.039
1683642728.401,-73.730,-48.828,-34.180,-16.113
1683642728.405,-41.992,-34.180,-32.715,9.277
1683642728.362,-209.473,-59.082,-5.859,-132.812
1683642728.366,-176.758,-49.805,2.930,-81.543
1683642728.370,-163.574,-48.828,-0.977,-71.289
1683642728.374,-158.691,-53.711,-15.625,-92.773
1683642728.378,-152.832,-58.105,-22.461,-90.332
1683642728.382,-134.277,-53.711,-16.602,-48.340
1683642728.386,-103.516,-43.945,-24.414,-19.043
1683642728.389,-94.727,-54.199,-37.109,-26.367
1683642728.393,-93.262,-62.988,-32.715,-40.039
1683642728.397,-91.309,-61.523,-32.227,-40.039
1683642728.401,-73.730,-48.828,-34.180,-16.113
1683642728.405,-41.992,-34.180,-32.715,9.277
1683642728.407,-23.926,-31.250,-36.133,13.672
1683642728.411,-31.738,-40.039,-33.691,5.371
1683642728.415,-38.086,-50.781,-28.809,0.000
1683642728.419,-22.949,-46.387,-34.180,16.113
1683642728.423,-0.977,-29.297,-32.227,44.922
1683642728.427,9.766,-27.344,-30.273,50.781
1683642728.431,4.883,-39.062,-34.668,27.344
1683642728.434,-3.906,-45.898,-32.227,14.160
1683642728.438,-11.230,-45.410,-27.344,33.203
1683642728.442,1.465,-37.109,-27.832,61.035
1683642728.446,24.414,-29.297,-31.738,71.289
1683642728.450,9.277,-37.109,-35.156,41.504
1683642728.467,-14.648,-44.922,-32.227,17.090
1683642728.471,-2.930,-37.109,-26.367,31.250
1683642728.475,21.484,-21.973,-23.926,61.523
1683642728.479,34.180,-19.531,-23.926,70.801
1683642728.483,23.926,-29.785,-28.320,40.527
1683642728.487,6.348,-33.203,-27.344,21.484
1683642728.491,-2.441,-32.227,-29.297,33.691
1683642728.494,18.555,-28.320,-32.715,53.223
1683642728.498,34.180,-33.691,-29.297,60.059
1683642728.502,19.043,-46.875,-32.715,34.668
1683642728.506,5.859,-46.387,-35.156,5.371
1683642728.510,5.371,-36.621,-31.250,18.555
1683642728.512,12.207,-32.715,-29.297,48.340
1683642728.516,29.297,-19.043,-27.832,54.199
1683642728.520,19.043,-21.973,-24.902,39.551
1683642728.524,-6.348,-37.598,-23.438,19.043
1683642728.528,1.465,-29.785,-26.367,10.742
1683642728.532,18.555,-20.020,-23.438,37.598
1683642728.536,22.461,-18.066,-20.508,64.941
1683642728.539,18.555,-22.461,-26.855,45.898
1683642728.543,0.000,-33.203,-33.203,15.625
1683642728.547,-7.324,-34.180,-33.203,12.207
1683642728.551,2.930,-24.902,-30.762,28.320
1683642728.555,19.043,-18.066,-31.250,43.457
1683642728.512,12.207,-32.715,-29.297,48.340
1683642728.516,29.297,-19.043,-27.832,54.199
1683642728.520,19.043,-21.973,-24.902,39.551
1683642728.524,-6.348,-37.598,-23.438,19.043
1683642728.528,1.465,-29.785,-26.367,10.742
1683642728.532,18.555,-20.020,-23.438,37.598
1683642728.536,22.461,-18.066,-20.508,64.941
1683642728.539,18.555,-22.461,-26.855,45.898
1683642728.543,0.000,-33.203,-33.203,15.625
1683642728.547,-7.324,-34.180,-33.203,12.207
1683642728.551,2.930,-24.902,-30.762,28.320
1683642728.555,19.043,-18.066,-31.250,43.457
1683642728.557,20.020,-23.438,-26.855,33.203
1683642728.561,1.465,-32.715,-23.438,3.418
1683642728.565,-6.836,-33.203,-30.762,-17.090
1683642728.569,0.977,-26.855,-33.691,3.906
1683642728.573,12.207,-25.879,-33.691,33.691
1683642728.577,17.090,-28.320,-31.250,31.738
1683642728.581,-1.953,-33.691,-31.738,-1.953
1683642728.584,-21.484,-38.086,-38.086,-28.320
1683642728.588,-10.742,-31.738,-45.410,-20.020
1683642728.592,8.301,-23.438,-45.898,2.930
1683642728.596,10.742,-23.926,-37.109,16.602
1683642728.600,-8.789,-31.738,-31.250,-1.953
1683642728.602,-11.719,-34.668,-33.203,-22.949
1683642728.606,-4.883,-29.297,-27.344,-5.859
1683642728.610,1.465,-16.602,-24.902,17.090
1683642728.614,-0.488,-21.973,-28.809,8.301
1683642728.618,-9.766,-28.809,-28.320,-17.090
1683642728.622,-20.996,-30.762,-29.297,-35.156
1683642728.626,-15.625,-23.438,-30.273,-28.809
1683642728.629,3.906,-14.160,-22.949,10.742
1683642728.633,3.906,-19.531,-20.508,24.902
1683642728.637,-5.859,-26.855,-30.762,-7.812
1683642728.641,-18.555,-32.715,-30.762,-30.762
1683642728.645,-22.949,-32.715,-27.344,-21.973
1683642728.647,-10.254,-32.227,-28.809,10.254
1683642728.651,-7.812,-33.203,-29.785,19.043
1683642728.655,-11.230,-31.738,-31.250,-3.906
1683642728.659,-17.578,-33.691,-32.715,-28.320
1683642728.663,-35.156,-38.086,-28.809,-28.320
1683642728.667,-27.344,-32.715,-21.973,-3.906
1683642728.671,-5.371,-23.926,-22.461,14.160
1683642728.674,-5.371,-32.227,-28.809,-5.371
1683642728.678,-21.484,-45.898,-31.738,-34.668
1683642728.682,-25.391,-40.039,-30.273,-33.691
1683642728.686,-7.812,-20.996,-22.949,-7.812
1683642728.690,1.465,-18.066,-22.949,5.371
1683642728.692,-12.695,-34.668,-40.039,-13.672
1683642728.696,-30.273,-38.574,-46.875,-39.551
1683642728.700,-29.785,-31.738,-38.574,-43.945
1683642728.704,-15.625,-25.391,-37.109,-27.344
1683642728.708,-10.254,-21.973,-37.109,-13.672
1683642728.712,-17.090,-24.902,-35.156,-19.043
1683642728.716,-25.879,-29.785,-38.086,-41.016
1683642728.719,-26.855,-35.156,-37.598,-46.387
1683642728.723,-13.184,-26.855,-34.668,-26.367
1683642728.727,-4.883,-22.949,-32.715,-5.859
1683642728.731,-6.836,-24.902,-29.297,-3.906
1683642728.735,-20.508,-31.250,-37.109,-31.738
1683642728.737,-34.180,-38.086,-35.156,-40.039
1683642728.741,-21.484,-35.156,-23.438,-6.348
1683642728.745,-6.836,-32.227,-25.391,20.996
1683642728.749,-5.859,-32.227,-30.762,18.066
1683642728.753,-17.578,-35.645,-35.156,-13.184
1683642728.757,-35.645,-37.109,-37.598,-37.109
1683642728.761,-30.762,-33.203,-36.621,-16.113
1683642728.764,-11.230,-27.832,-32.715,11.230
1683642728.768,-12.207,-30.273,-33.691,-1.465
1683642728.772,-30.273,-42.480,-37.109,-41.016
1683642728.776,-48.340,-45.898,-36.621,-62.012
1683642728.780,-44.922,-42.969,-37.598,-51.270
1683642728.782,-31.250,-35.645,-41.016,-34.668
1683642728.786,-25.879,-28.320,-33.203,-18.066
1683642728.790,-41.504,-34.668,-30.273,-40.527
1683642728.794,-62.012,-41.992,-39.551,-78.613
1683642728.798,-58.105,-42.480,-34.668,-63.965
1683642728.802,-46.875,-41.016,-28.320,-29.785
1683642728.806,-42.480,-33.691,-32.227,-27.832
1683642728.809,-51.270,-39.062,-33.203,-51.270
1683642728.813,-64.453,-46.875,-33.203,-74.219
1683642728.817,-63.477,-42.480,-33.691,-72.266
1683642728.821,-43.457,-34.668,-29.297,-45.410
1683642728.825,-25.879,-32.715,-25.391,-25.879
1683642728.842,-41.016,-44.922,-25.391,-38.574
1683642728.846,-58.594,-51.758,-23.926,-66.895
1683642728.850,-52.734,-40.527,-19.531,-56.152
1683642728.854,-38.086,-35.645,-22.461,-24.902
1683642728.858,-35.645,-39.062,-26.367,-13.184
1683642728.862,-34.668,-34.180,-31.738,-22.949
1683642728.866,-41.992,-38.086,-29.785,-40.039
1683642728.869,-54.688,-45.898,-25.391,-52.246
1683642728.873,-35.645,-36.621,-26.367,-32.715
1683642728.877,-17.090,-32.715,-28.320,-7.324
1683642728.881,-26.855,-34.180,-29.297,-31.250
1683642728.885,-42.969,-35.645,-27.832,-65.430
1683642728.842,-41.016,-44.922,-25.391,-38.574
1683642728.846,-58.594,-51.758,-23.926,-66.895
1683642728.850,-52.734,-40.527,-19.531,-56.152
1683642728.854,-38.086,-35.645,-22.461,-24.902
1683642728.858,-35.645,-39.062,-26.367,-13.184
1683642728.862,-34.668,-34.180,-31.738,-22.949
1683642728.866,-41.992,-38.086,-29.785,-40.039
1683642728.869,-54.688,-45.898,-25.391,-52.246
1683642728.873,-35.645,-36.621,-26.367,-32.715
1683642728.877,-17.090,-32.715,-28.320,-7.324
1683642728.881,-26.855,-34.180,-29.297,-31.250
1683642728.885,-42.969,-35.645,-27.832,-65.430
1683642728.887,-46.387,-41.016,-27.832,-71.777
1683642728.891,-37.109,-41.016,-31.250,-52.246
1683642728.895,-18.555,-30.273,-35.645,-29.785
1683642728.899,-23.926,-36.133,-36.133,-34.668
1683642728.903,-41.992,-45.410,-28.320,-54.688
1683642728.907,-47.363,-42.480,-31.250,-73.242
1683642728.911,-42.480,-35.645,-35.156,-66.406
1683642728.914,-32.227,-35.156,-29.785,-34.180
1683642728.918,-31.738,-36.133,-31.738,-36.133
1683642728.922,-46.387,-41.992,-37.109,-73.730
1683642728.926,-60.547,-44.434,-30.273,-77.637
1683642728.930,-48.828,-39.062,-26.855,-59.570
1683642728.932,-29.785,-36.133,-28.320,-36.621
1683642728.936,-25.391,-34.180,-28.320,-25.879
1683642728.940,-29.785,-34.668,-34.668,-53.711
1683642728.944,-40.527,-38.086,-34.180,-71.777
1683642728.948,-47.363,-33.691,-32.227,-54.199
1683642728.952,-31.738,-27.832,-29.785,-30.762
1683642728.956,-16.602,-21.484,-31.738,-30.762
1683642728.959,-33.203,-29.785,-40.039,-53.223
1683642728.963,-54.199,-48.340,-41.016,-66.895
1683642728.967,-49.805,-45.898,-34.180,-54.199
1683642728.971,-22.949,-28.320,-31.250,-32.227
1683642728.975,-10.254,-27.832,-34.668,-31.738
1683642728.977,-29.785,-40.039,-42.969,-60.059
1683642728.981,-41.504,-35.156,-36.133,-81.543
1683642728.985,-40.527,-29.297,-23.926,-65.430
1683642728.989,-33.203,-30.762,-26.367,-34.668
1683642728.993,-25.391,-26.367,-30.273,-20.508
1683642728.997,-40.527,-35.156,-35.645,-38.574
1683642729.001,-56.152,-40.039,-38.574,-64.941
1683642729.004,-53.223,-40.039,-30.762,-50.781
1683642729.008,-42.480,-34.180,-20.508,-16.113
1683642729.012,-28.320,-29.785,-24.902,-12.695
1683642729.016,-33.691,-41.504,-29.785,-36.133
1683642729.020,-49.316,-46.875,-33.203,-63.965
1683642729.022,-43.457,-43.457,-36.621,-72.266
1683642729.026,-33.203,-35.645,-35.156,-50.781
1683642729.030,-20.996,-27.344,-30.273,-17.578
1683642729.034,-27.832,-29.297,-29.785,-22.949
1683642729.038,-55.664,-36.133,-33.203,-62.988
1683642729.042,-55.664,-34.180,-24.414,-71.289
1683642729.046,-37.109,-21.484,-21.484,-50.781
1683642729.049,-23.438,-21.484,-25.391,-32.227
1683642729.053,-27.832,-35.645,-31.738,-49.316
1683642729.057,-41.016,-40.039,-35.645,-77.148
1683642729.061,-50.781,-32.715,-32.715,-81.543
1683642729.065,-39.551,-24.902,-35.645,-70.801
1683642729.067,-20.020,-23.926,-31.738,-51.270
1683642729.071,-23.926,-27.344,-20.508,-47.852
1683642729.075,-37.598,-33.691,-24.414,-69.824
1683642729.079,-56.641,-46.387,-30.273,-87.402
1683642729.083,-65.430,-43.945,-36.133,-79.590
1683642729.087,-47.363,-28.809,-31.738,-48.340
1683642729.091,-36.133,-30.273,-24.902,-30.273
1683642729.094,-55.176,-41.016,-38.086,-65.430
1683642729.098,-66.406,-46.875,-41.016,-87.891
1683642729.102,-55.664,-43.457,-31.738,-70.801
1683642729.106,-37.598,-28.320,-25.879,-42.480
1683642729.110,-27.344,-26.855,-28.320,-34.180
1683642729.112,-41.992,-37.109,-28.809,-57.617
1683642729.116,-56.641,-36.621,-27.344,-80.078
1683642729.120,-46.875,-35.645,-29.297,-67.383
1683642729.124,-27.344,-33.691,-28.809,-37.109
1683642729.128,-13.672,-25.391,-34.668,-36.133
1683642729.132,-34.668,-31.250,-37.109,-61.523
1683642729.136,-66.895,-45.898,-41.016,-87.402
1683642729.139,-62.988,-48.340,-46.387,-90.820
1683642729.143,-36.133,-34.180,-39.062,-62.500
1683642729.147,-19.531,-30.762,-38.086,-38.086
1683642729.151,-28.809,-36.133,-44.922,-62.012
1683642729.155,-51.270,-43.457,-42.969,-88.867
1683642729.157,-50.781,-44.434,-36.621,-69.824
1683642729.161,-27.832,-30.762,-33.691,-41.504
1683642729.165,-18.555,-21.973,-39.062,-31.250
1683642729.169,-32.715,-32.227,-39.062,-48.828
1683642729.173,-49.316,-36.133,-36.621,-78.613
1683642729.177,-51.270,-28.320,-29.785,-77.637
1683642729.181,-41.504,-27.344,-23.926,-52.246
1683642729.184,-37.598,-34.668,-27.344,-42.969
1683642729.188,-46.875,-39.551,-30.273,-56.641
1683642729.192,-62.012,-43.945,-36.133,-86.914
1683642729.196,-65.918,-47.363,-39.062,-100.586
1683642729.200,-54.199,-39.062,-34.668,-75.195
1683642729.157,-50.781,-44.434,-36.621,-69.824
1683642729.161,-27.832,-30.762,-33.691,-41.504
1683642729.165,-18.555,-21.973,-39.062,-31.250
1683642729.169,-32.715,-32.227,-39.062,-48.828
1683642729.173,-49.316,-36.133,-36.621,-78.613
1683642729.177,-51.270,-28.320,-29.785,-77.637
1683642729.181,-41.504,-27.344,-23.926,-52.246
1683642729.184,-37.598,-34.668,-27.344,-42.969
1683642729.188,-46.875,-39.551,-30.273,-56.641
1683642729.192,-62.012,-43.945,-36.133,-86.914
1683642729.196,-65.918,-47.363,-39.062,-100.586
1683642729.200,-54.199,-39.062,-34.668,-75.195
1683642729.217,-41.504,-27.832,-32.227,-52.246
1683642729.221,-41.016,-30.762,-35.156,-71.777
1683642729.225,-55.664,-36.133,-34.180,-94.727
1683642729.229,-71.777,-44.434,-32.715,-92.285
1683642729.233,-67.871,-47.363,-32.715,-70.312
1683642729.237,-45.410,-37.598,-33.691,-52.246
1683642729.241,-44.922,-34.668,-41.016,-55.664
1683642729.244,-63.477,-42.969,-42.969,-83.496
1683642729.248,-64.453,-47.852,-43.457,-103.027
1683642729.252,-43.457,-44.922,-42.969,-72.754
1683642729.256,-24.414,-35.645,-33.691,-35.156
1683642729.260,-22.461,-32.227,-27.344,-29.785
1683642729.262,-39.551,-38.086,-30.762,-56.641
1683642729.266,-48.828,-38.574,-33.203,-81.055
1683642729.270,-38.086,-36.133,-33.691,-64.453
1683642729.274,-26.367,-37.598,-31.250,-25.879
1683642729.278,-15.625,-30.273,-32.227,-18.066
1683642729.282,-20.996,-31.738,-38.086,-43.457
1683642729.286,-44.434,-41.504,-36.621,-64.941
1683642729.289,-47.852,-39.062,-33.203,-55.664
1683642729.293,-29.785,-33.691,-32.227,-25.879
1683642729.297,-16.113,-29.297,-35.645,-22.461
1683642729.301,-28.320,-24.414,-34.668,-44.922
1683642729.305,-44.434,-29.297,-35.645,-74.219
1683642729.307,-37.598,-27.344,-37.598,-79.102
1683642729.311,-26.855,-20.020,-31.250,-47.852
1683642729.315,-22.461,-24.902,-37.109,-40.039
1683642729.319,-22.461,-33.691,-39.551,-54.199
1683642729.323,-41.016,-41.016,-32.715,-72.266
1683642729.327,-51.758,-32.715,-37.598,-87.402
1683642729.331,-39.062,-23.438,-36.621,-65.918
1683642729.334,-38.574,-24.414,-30.273,-51.758
1683642729.338,-51.270,-34.180,-37.109,-79.590
1683642729.342,-74.219,-51.758,-41.992,-111.328
1683642729.346,-72.266,-45.898,-34.180,-114.258
1683642729.350,-52.246,-34.180,-31.250,-89.844
1683642729.307,-37.598,-27.344,-37.598,-79.102
1683642729.311,-26.855,-20.020,-31.250,-47.852
1683642729.315,-22.461,-24.902,-37.109,-40.039
1683642729.319,-22.461,-33.691,-39.551,-54.199
1683642729.323,-41.016,-41.016,-32.715,-72.266
1683642729.327,-51.758,-32.715,-37.598,-87.402
1683642729.331,-39.062,-23.438,-36.621,-65.918
1683642729.334,-38.574,-24.414,-30.273,-51.758
1683642729.338,-51.270,-34.180,-37.109,-79.590
1683642729.342,-74.219,-51.758,-41.992,-111.328
1683642729.346,-72.266,-45.898,-34.180,-114.258
1683642729.350,-52.246,-34.180,-31.250,-89.844
1683642729.352,-45.898,-33.203,-30.273,-56.641
1683642729.356,-55.664,-38.574,-27.832,-60.547
1683642729.360,-77.637,-45.898,-34.180,-96.191
1683642729.364,-80.566,-46.387,-41.992,-104.492
1683642729.368,-56.152,-38.086,-42.480,-68.848
1683642729.372,-37.598,-26.855,-33.691,-38.086
1683642729.376,-45.898,-32.715,-32.715,-51.270
1683642729.379,-71.777,-51.270,-33.691,-81.543
1683642729.383,-74.219,-53.223,-27.832,-80.566
1683642729.387,-53.711,-40.527,-24.414,-51.758
1683642729.391,-40.527,-35.645,-29.785,-33.691
1683642729.395,-40.527,-39.551,-38.574,-41.992
1683642729.397,-60.547,-47.363,-32.715,-59.570
1683642729.401,-74.707,-48.828,-24.414,-70.312
1683642729.405,-56.641,-35.645,-22.949,-46.387
1683642729.409,-34.668,-26.367,-21.484,-15.137
1683642729.413,-32.715,-29.297,-20.508,-14.648
1683642729.417,-40.039,-31.250,-31.250,-44.922
1683642729.421,-50.781,-32.227,-32.715,-65.918
1683642729.424,-45.898,-34.668,-17.578,-40.527
1683642729.428,-27.832,-28.320,-19.531,-20.508
1683642729.432,-23.926,-21.484,-30.762,-38.086
1683642729.436,-41.016,-28.809,-33.691,-62.500
1683642729.440,-55.176,-30.762,-34.180,-81.543
1683642729.442,-47.852,-29.785,-30.762,-73.730
1683642729.446,-37.109,-29.297,-25.391,-30.273
1683642729.450,-35.645,-23.926,-21.973,-19.043
1683642729.454,-44.434,-31.250,-30.273,-60.059
1683642729.458,-52.734,-39.551,-38.086,-90.820
1683642729.462,-44.434,-32.227,-38.574,-83.984
1683642729.466,-37.109,-28.320,-36.621,-50.781
1683642729.469,-43.945,-37.598,-36.621,-37.109
1683642729.473,-50.781,-41.016,-41.504,-68.848
1683642729.477,-62.988,-46.875,-43.945,-93.262
1683642729.481,-69.336,-43.457,-41.016,-86.426
1683642729.485,-53.711,-37.109,-34.668,-56.152
1683642729.487,-42.480,-32.715,-31.738,-44.922
1683642729.491,-46.875,-33.203,-35.156,-66.406
1683642729.495,-69.336,-43.945,-39.062,-93.750
1683642729.499,-78.125,-41.504,-39.062,-95.703
1683642729.503,-61.523,-32.715,-37.598,-70.801
1683642729.507,-45.898,-28.320,-34.180,-49.805
1683642729.511,-43.945,-26.367,-40.527,-65.918
1683642729.514,-53.711,-32.227,-41.016,-83.496
1683642729.518,-66.895,-41.016,-35.645,-80.078
1683642729.522,-63.965,-37.109,-41.016,-69.824
1683642729.526,-45.898,-28.809,-39.062,-51.270
1683642729.530,-51.270,-36.133,-31.738,-56.641
1683642729.532,-70.312,-44.434,-37.109,-87.402
1683642729.536,-71.289,-38.086,-37.109,-89.844
1683642729.540,-61.035,-26.855,-35.156,-74.707
1683642729.544,-50.781,-25.879,-34.668,-55.664
1683642729.548,-50.293,-23.438,-29.297,-54.688
1683642729.552,-54.688,-27.832,-34.668,-89.355
1683642729.556,-62.012,-38.574,-29.297,-89.355
1683642729.559,-59.570,-37.109,-22.461,-63.477
1683642729.563,-31.250,-25.879,-25.879,-46.387
1683642729.567,-22.949,-24.902,-26.367,-42.969
1683642729.571,-36.621,-29.297,-32.715,-69.824
1683642729.575,-48.340,-36.133,-36.133,-82.031
1683642729.592,-45.898,-41.504,-23.926,-57.617
1683642729.596,-37.598,-30.273,-23.438,-37.598
1683642729.600,-29.297,-25.879,-33.691,-32.715
1683642729.604,-31.738,-38.574,-35.156,-48.828
1683642729.608,-54.199,-46.387,-33.203,-71.777
1683642729.612,-51.758,-42.969,-32.227,-63.965
1683642729.616,-27.832,-26.367,-28.809,-33.203
1683642729.619,-18.066,-24.414,-30.762,-28.809
1683642729.623,-34.668,-41.504,-34.180,-62.012
1683642729.627,-51.270,-46.387,-37.598,-86.914
1683642729.631,-46.387,-38.086,-36.621,-70.312
1683642729.635,-31.738,-32.227,-32.715,-41.016
1683642729.637,-22.949,-31.738,-31.738,-24.414
1683642729.641,-41.504,-38.574,-31.250,-41.992
1683642729.645,-59.082,-43.945,-31.250,-72.754
1683642729.649,-46.387,-41.992,-33.691,-67.383
1683642729.653,-31.738,-36.133,-32.715,-38.086
1683642729.657,-22.949,-28.809,-27.832,-18.555
1683642729.661,-32.715,-31.250,-32.715,-40.039
1683642729.664,-54.199,-41.016,-31.738,-64.941
1683642729.668,-57.129,-43.945,-28.809,-61.035
1683642729.672,-40.527,-34.668,-24.414,-36.133
1683642729.676,-21.484,-21.973,-27.344,-20.020
1683642729.680,-26.367,-28.809,-32.227,-33.691
1683642729.682,-51.270,-41.992,-30.762,-60.059
1683642729.686,-60.547,-44.434,-31.250,-72.754
1683642729.690,-44.922,-33.691,-27.832,-37.598
1683642729.694,-33.203,-26.855,-26.367,-7.812
1683642729.698,-36.621,-33.691,-26.855,-18.555
1683642729.702,-50.293,-36.621,-30.762,-53.223
1683642729.706,-57.129,-37.109,-30.762,-63.965
1683642729.709,-52.734,-38.086,-20.996,-25.391
1683642729.713,-37.598,-30.273,-19.043,0.977
1683642729.717,-34.668,-24.902,-26.367,-9.277
1683642729.721,-57.617,-31.738,-35.156,-35.156
1683642729.725,-70.801,-40.527,-38.574,-51.758
1683642729.727,-54.688,-32.715,-34.180,-33.691
1683642729.731,-35.156,-25.879,-29.297,-1.953
1683642729.735,-37.598,-28.320,-30.762,-3.418
1683642729.739,-55.176,-38.086,-36.133,-27.344
1683642729.743,-60.059,-42.969,-33.203,-35.156
1683642729.747,-42.969,-35.156,-30.273,-17.578
1683642729.751,-28.809,-26.855,-31.738,13.672
1683642729.754,-33.203,-31.250,-34.180,5.371
1683642729.758,-51.270,-41.992,-33.691,-32.715
1683642729.762,-55.664,-46.387,-32.227,-48.340
1683642729.766,-48.340,-40.039,-30.273,-32.227
1683642729.770,-35.645,-31.250,-24.414,-0.977
1683642729.772,-28.320,-28.809,-21.973,5.371
1683642729.776,-37.109,-27.832,-26.855,-23.926
1683642729.780,-49.316,-33.691,-30.273,-44.434
1683642729.784,-53.711,-39.551,-27.832,-34.180
1683642729.788,-43.945,-34.180,-28.320,-12.695
1683642729.792,-34.668,-34.668,-29.785,-3.418
1683642729.796,-42.480,-36.133,-34.668,-24.414
1683642729.799,-54.688,-41.992,-36.621,-44.922
1683642729.803,-62.012,-39.062,-29.297,-38.574
1683642729.807,-45.410,-25.879,-27.832,-20.020
1683642729.811,-33.691,-30.273,-18.066,11.719
1683642729.815,-43.945,-38.574,-17.090,3.418
1683642729.817,-49.805,-35.156,-27.344,-31.738
1683642729.821,-47.363,-30.762,-29.785,-33.691
1683642729.825,-38.574,-31.738,-25.879,-1.953
1683642729.829,-26.855,-31.250,-25.391,20.020
1683642729.833,-28.320,-29.785,-24.902,7.324
1683642729.837,-53.223,-39.551,-23.926,-19.531
1683642729.841,-57.617,-40.039,-24.902,-22.949
1683642729.844,-40.039,-38.574,-27.832,1.465
1683642729.848,-26.367,-30.273,-30.762,15.137
1683642729.852,-29.785,-27.344,-23.926,4.883
1683642729.856,-49.316,-37.109,-28.809,-21.973
1683642729.860,-57.617,-39.551,-35.156,-33.691
1683642729.862,-46.875,-32.715,-30.762,-14.648
1683642729.866,-32.715,-28.809,-29.297,13.184
1683642729.870,-32.227,-32.227,-30.273,9.766
1683642729.874,-53.223,-37.109,-29.785,-19.531
1683642729.878,-63.965,-43.457,-25.391,-30.762
1683642729.882,-48.340,-35.156,-23.438,-7.812
1683642729.886,-31.738,-22.461,-22.461,21.484
1683642729.889,-38.086,-34.668,-23.438,20.508
1683642729.893,-47.852,-42.480,-33.203,-15.625
1683642729.897,-61.035,-44.922,-37.109,-40.527
1683642729.901,-65.918,-44.434,-30.762,-22.949
1683642729.905,-42.969,-35.156,-28.320,9.277
1683642729.907,-32.227,-33.203,-30.762,13.184
1683642729.911,-51.270,-41.504,-33.691,-15.625
1683642729.915,-57.129,-40.527,-38.574,-41.504
1683642729.919,-46.387,-36.133,-37.598,-28.809
1683642729.923,-31.250,-31.738,-22.949,12.207
1683642729.927,-20.020,-20.508,-25.391,15.137
1683642729.931,-27.832,-22.461,-34.668,-15.137
1683642729.934,-49.805,-37.598,-32.227,-35.645
1683642729.938,-51.270,-38.086,-29.785,-17.090
1683642729.942,-31.738,-23.926,-27.832,15.625
1683642729.946,-25.879,-18.066,-30.273,19.531
1683642729.950,-36.133,-26.367,-32.227,3.418
1683642729.967,-54.199,-31.250,-25.391,-12.207
1683642729.971,-50.781,-26.367,-20.020,-2.441
1683642729.975,-24.414,-19.043,-20.508,24.902
1683642729.979,-10.254,-19.043,-20.020,38.574
1683642729.983,-24.414,-32.227,-29.297,16.113
1683642729.987,-42.480,-38.574,-27.832,-13.184
1683642729.991,-40.039,-32.715,-21.484,-4.883
1683642729.994,-28.320,-31.250,-17.578,24.902
1683642729.998,-19.043,-31.250,-15.625,35.645
1683642730.002,-25.391,-33.691,-26.855,9.766
1683642730.006,-43.945,-36.133,-31.738,-24.414
1683642730.010,-47.852,-32.227,-27.344,-23.438
1683642730.012,-32.227,-26.855,-25.879,3.418
1683642730.016,-19.043,-21.973,-23.438,20.996
1683642730.020,-30.273,-28.809,-25.391,6.348
1683642730.024,-47.852,-38.574,-29.785,-22.949
1683642730.028,-47.852,-39.062,-32.715,-30.273
1683642730.032,-36.621,-38.574,-32.715,0.488
1683642730.036,-27.344,-35.645,-26.367,33.691
1683642730.039,-31.250,-34.668,-29.785,15.137
1683642730.043,-48.828,-44.922,-30.273,-18.555
1683642730.047,-53.223,-46.387,-27.344,-20.020
1683642730.051,-34.668,-34.668,-23.438,5.859
1683642730.055,-21.484,-31.738,-16.602,36.133
1683642730.012,-32.227,-26.855,-25.879,3.418
1683642730.016,-19.043,-21.973,-23.438,20.996
1683642730.020,-30.273,-28.809,-25.391,6.348
1683642730.024,-47.852,-38.574,-29.785,-22.949
1683642730.028,-47.852,-39.062,-32.715,-30.273
1683642730.032,-36.621,-38.574,-32.715,0.488
1683642730.036,-27.344,-35.645,-26.367,33.691
1683642730.039,-31.250,-34.668,-29.785,15.137
1683642730.043,-48.828,-44.922,-30.273,-18.555
1683642730.047,-53.223,-46.387,-27.344,-20.020
1683642730.051,-34.668,-34.668,-23.438,5.859
1683642730.055,-21.484,-31.738,-16.602,36.133
1683642730.057,-29.785,-33.203,-22.949,23.926
1683642730.061,-45.898,-36.621,-25.391,-10.742
1683642730.065,-50.781,-35.645,-26.855,-25.879
1683642730.069,-43.945,-28.320,-27.344,-9.766
1683642730.073,-29.785,-26.855,-22.461,20.996
1683642730.077,-24.902,-29.785,-26.367,19.531
1683642730.081,-32.227,-29.785,-28.809,0.000
1683642730.084,-53.711,-39.062,-30.273,-10.254
1683642730.088,-57.129,-49.316,-32.227,-5.859
1683642730.092,-23.926,-38.574,-30.273,28.809
1683642730.096,-12.207,-28.809,-25.879,45.410
1683642730.100,-47.363,-32.715,-27.832,1.953
1683642730.102,-58.594,-35.156,-37.109,-33.203
1683642730.106,-35.645,-26.367,-31.738,-15.137
1683642730.110,-20.996,-21.484,-23.926,16.113
1683642730.114,-15.625,-27.344,-30.273,17.090
1683642730.118,-30.273,-30.762,-31.250,-1.953
1683642730.122,-46.387,-30.273,-26.367,-12.695
1683642730.126,-42.480,-23.438,-27.832,-11.230
1683642730.129,-23.438,-18.555,-35.156,8.301
1683642730.133,-11.719,-22.461,-35.645,25.879
1683642730.137,-32.227,-29.785,-27.832,15.625
1683642730.141,-49.805,-31.738,-25.879,-11.230
1683642730.145,-48.828,-31.738,-22.949,-4.883
1683642730.147,-32.227,-26.367,-20.996,29.297
1683642730.151,-16.602,-20.020,-23.438,41.016
1683642730.155,-30.273,-25.391,-20.508,29.785
1683642730.159,-50.781,-29.785,-19.531,10.254
1683642730.163,-42.969,-30.273,-23.438,2.441
1683642730.167,-26.855,-24.414,-28.320,25.391
1683642730.171,-22.461,-18.066,-25.879,43.457
1683642730.174,-24.902,-26.855,-29.785,23.926
1683642730.178,-35.645,-42.480,-31.738,-2.441
1683642730.182,-49.316,-43.457,-19.043,-0.488
1683642730.186,-43.945,-32.227,-18.066,17.090
1683642730.190,-24.414,-23.926,-23.438,32.715
1683642730.192,-26.367,-26.855,-29.785,22.461
1683642730.196,-45.898,-34.180,-28.320,-1.465
1683642730.200,-53.711,-34.668,-23.926,-7.812
1683642730.204,-41.016,-33.203,-25.879,16.113
1683642730.208,-23.438,-35.156,-23.438,44.434
1683642730.212,-24.414,-36.621,-23.438,39.062
1683642730.216,-40.527,-38.574,-26.855,1.465
1683642730.219,-55.176,-42.480,-25.879,-9.766
1683642730.223,-45.898,-32.715,-26.367,12.695
1683642730.227,-25.391,-29.297,-25.879,37.109
1683642730.231,-32.227,-38.574,-26.855,41.504
1683642730.235,-42.969,-41.016,-23.926,19.531
1683642730.237,-52.734,-39.062,-28.320,-6.348
1683642730.241,-55.664,-35.156,-32.227,-3.418
1683642730.245,-39.062,-27.344,-30.273,26.855
1683642730.249,-34.180,-28.320,-32.715,33.691
1683642730.253,-54.688,-41.992,-34.668,10.742
1683642730.257,-68.359,-44.434,-34.180,-3.906
1683642730.261,-56.641,-34.668,-29.297,24.414
1683642730.264,-37.598,-22.461,-30.273,54.688
1683642730.268,-23.438,-18.066,-34.180,61.035
1683642730.272,-33.691,-31.250,-36.133,33.691
1683642730.276,-52.734,-33.203,-36.133,1.953
1683642730.280,-55.664,-29.297,-29.297,25.391
1683642730.282,-34.180,-25.391,-24.414,56.641
1683642730.286,-13.184,-21.484,-25.879,68.359
1683642730.290,-24.902,-24.902,-31.738,48.828
1683642730.294,-39.062,-22.949,-33.691,20.508
1683642730.298,-35.156,-24.414,-26.367,35.156
1683642730.302,-24.414,-23.438,-24.414,56.152
1683642730.306,-14.160,-17.090,-28.809,58.594
1683642730.309,-21.973,-29.785,-28.809,51.270
1683642730.313,-34.180,-34.668,-25.391,30.762
1683642730.317,-33.691,-30.273,-27.344,25.391
1683642730.321,-25.879,-20.996,-20.996,57.129
1683642730.325,-22.461,-17.090,-16.602,81.543
1683642730.342,-30.762,-30.762,-23.926,62.988
1683642730.346,-39.551,-36.621,-29.785,29.297
1683642730.350,-47.363,-34.180,-26.855,22.949
1683642730.354,-37.598,-27.832,-20.996,50.293
1683642730.358,-14.160,-20.020,-20.508,74.707
1683642730.362,-22.949,-26.367,-24.902,62.988
1683642730.366,-47.852,-37.109,-29.297,23.438
1683642730.369,-57.129,-46.875,-31.250,5.371
1683642730.373,-56.641,-42.480,-26.367,24.902
1683642730.377,-40.527,-34.668,-25.391,46.875
1683642730.381,-28.809,-35.645,-22.949,41.992
1683642730.385,-32.715,-31.250,-26.855,6.348
1683642730.342,-30.762,-30.762,-23.926,62.988
1683642730.346,-39.551,-36.621,-29.785,29.297
1683642730.350,-47.363,-34.180,-26.855,22.949
1683642730.354,-37.598,-27.832,-20.996,50.293
1683642730.358,-14.160,-20.020,-20.508,74.707
1683642730.362,-22.949,-26.367,-24.902,62.988
1683642730.366,-47.852,-37.109,-29.297,23.438
1683642730.369,-57.129,-46.875,-31.250,5.371
1683642730.373,-56.641,-42.480,-26.367,24.902
1683642730.377,-40.527,-34.668,-25.391,46.875
1683642730.381,-28.809,-35.645,-22.949,41.992
1683642730.385,-32.715,-31.250,-26.855,6.348
1683642730.387,-35.645,-31.250,-31.738,-2.930
1683642730.391,-39.551,-35.645,-25.879,25.879
1683642730.395,-31.738,-29.785,-28.320,45.410
1683642730.399,-19.531,-26.855,-31.250,33.691
1683642730.403,-31.250,-29.785,-31.250,-3.418
1683642730.407,-45.410,-38.086,-30.273,-21.484
1683642730.411,-38.086,-33.691,-24.902,-2.441
1683642730.414,-23.926,-26.367,-26.367,17.578
1683642730.418,-20.508,-32.227,-25.879,25.391
1683642730.422,-31.250,-37.598,-26.855,3.906
1683642730.426,-47.363,-43.457,-28.809,-23.438
1683642730.430,-45.410,-41.992,-22.949,-11.719
1683642730.387,-35.645,-31.250,-31.738,-2.930
1683642730.391,-39.551,-35.645,-25.879,25.879
1683642730.395,-31.738,-29.785,-28.320,45.410
1683642730.399,-19.531,-26.855,-31.250,33.691
1683642730.403,-31.250,-29.785,-31.250,-3.418
1683642730.407,-45.410,-38.086,-30.273,-21.484
1683642730.411,-38.086,-33.691,-24.902,-2.441
1683642730.414,-23.926,-26.367,-26.367,17.578
1683642730.418,-20.508,-32.227,-25.879,25.391
1683642730.422,-31.250,-37.598,-26.855,3.906
1683642730.426,-47.363,-43.457,-28.809,-23.438
1683642730.430,-45.410,-41.992,-22.949,-11.719
1683642730.432,-30.273,-35.156,-28.809,5.859
1683642730.436,-26.367,-39.551,-32.227,11.719
1683642730.440,-31.738,-41.504,-33.203,-5.371
1683642730.444,-45.410,-37.598,-39.062,-27.832
1683642730.448,-47.852,-36.133,-36.621,-22.949
1683642730.452,-29.785,-33.691,-36.133,1.953
1683642730.456,-20.996,-28.809,-36.133,22.461
1683642730.459,-28.320,-27.344,-30.273,12.207
1683642730.463,-40.039,-34.668,-30.273,-16.113
1683642730.467,-41.016,-34.668,-27.344,-14.648
1683642730.471,-22.949,-24.414,-23.926,9.766
1683642730.475,-7.812,-23.926,-22.949,24.414
1683642730.477,-22.949,-37.109,-23.438,9.766
1683642730.481,-45.410,-40.039,-27.344,-25.879
1683642730.485,-48.828,-39.062,-23.438,-28.809
1683642730.489,-32.715,-35.156,-21.973,0.000
1683642730.493,-22.461,-28.809,-27.344,9.277
1683642730.497,-30.762,-31.738,-28.809,-1.465
1683642730.501,-48.340,-36.133,-25.391,-22.461
1683642730.504,-54.688,-43.457,-22.949,-31.738
1683642730.508,-33.203,-35.645,-21.484,-9.766
1683642730.512,-18.555,-27.832,-20.020,9.277
1683642730.516,-30.273,-32.227,-25.879,-9.766
1683642730.520,-46.875,-39.062,-28.320,-41.016
1683642730.477,-22.949,-37.109,-23.438,9.766
1683642730.481,-45.410,-40.039,-27.344,-25.879
1683642730.485,-48.828,-39.062,-23.438,-28.809
1683642730.489,-32.715,-35.156,-21.973,0.000
1683642730.493,-22.461,-28.809,-27.344,9.277
1683642730.497,-30.762,-31.738,-28.809,-1.465
1683642730.501,-48.340,-36.133,-25.391,-22.461
1683642730.504,-54.688,-43.457,-22.949,-31.738
1683642730.508,-33.203,-35.645,-21.484,-9.766
1683642730.512,-18.555,-27.832,-20.020,9.277
1683642730.516,-30.273,-32.227,-25.879,-9.766
1683642730.520,-46.875,-39.062,-28.320,-41.016
1683642730.522,-55.176,-41.992,-26.367,-50.293
1683642730.526,-40.527,-32.227,-31.738,-35.156
1683642730.530,-26.367,-26.855,-27.832,-11.719
1683642730.534,-27.344,-29.785,-27.832,-17.578
1683642730.538,-37.598,-38.086,-31.738,-43.457
1683642730.542,-47.852,-41.016,-33.691,-54.199
1683642730.546,-38.086,-27.832,-35.156,-28.320
1683642730.549,-22.461,-25.879,-34.668,-2.441
1683642730.553,-21.973,-38.086,-30.762,-5.371
1683642730.557,-40.039,-44.434,-33.203,-36.621
1683642730.561,-54.688,-42.969,-37.109,-62.012
1683642730.565,-47.363,-32.227,-32.715,-48.828
1683642730.567,-23.438,-23.926,-33.691,-21.484
1683642730.571,-13.184,-26.367,-34.180,-7.324
1683642730.575,-28.320,-38.086,-36.621,-35.156
1683642730.579,-43.457,-47.363,-37.109,-62.012
1683642730.583,-42.480,-42.969,-28.809,-47.363
1683642730.587,-22.949,-35.156,-20.508,-13.672
1683642730.591,-17.090,-31.738,-22.949,-3.906
1683642730.594,-28.320,-41.504,-26.855,-30.762
1683642730.598,-40.527,-45.898,-23.926,-55.664
1683642730.602,-44.434,-35.645,-23.926,-52.734
1683642730.606,-20.996,-21.973,-21.973,-12.695
1683642730.610,-2.930,-15.137,-18.066,8.789
1683642730.612,-20.508,-25.391,-22.461,-23.926
1683642730.616,-49.316,-41.016,-29.297,-59.082
1683642730.620,-49.316,-37.109,-28.809,-53.223
1683642730.624,-31.738,-33.203,-28.809,-29.785
1683642730.628,-26.855,-35.645,-32.227,-18.555
1683642730.632,-26.855,-34.180,-31.250,-21.973
1683642730.636,-36.621,-36.621,-30.762,-43.945
1683642730.639,-45.410,-40.039,-36.621,-61.523
1683642730.643,-36.621,-35.156,-34.180,-31.250
1683642730.647,-22.949,-27.832,-29.785,-0.977
1683642730.651,-24.902,-29.297,-29.785,-18.066
1683642730.655,-40.039,-34.668,-28.809,-41.016
1683642730.657,-37.109,-34.180,-30.273,-48.828
1683642730.661,-23.926,-28.809,-28.809,-28.320
1683642730.665,-11.719,-25.879,-19.531,2.441
1683642730.669,-15.625,-34.668,-20.508,-7.324
1683642730.673,-33.203,-38.574,-30.273,-44.434
1683642730.677,-41.992,-36.621,-34.668,-63.477
1683642730.681,-30.273,-37.109,-32.227,-37.109
1683642730.684,-15.137,-33.203,-28.809,-5.859
1683642730.688,-18.555,-33.691,-26.367,-9.766
1683642730.692,-31.738,-35.156,-30.762,-55.176
1683642730.696,-47.363,-40.039,-36.621,-82.031
1683642730.700,-47.852,-41.504,-28.809,-57.129
1683642730.717,-32.227,-32.715,-12.207,-25.879
1683642730.721,-20.508,-28.809,-10.254,-29.297
1683642730.725,-31.250,-30.273,-19.043,-62.988
1683642730.729,-43.945,-34.180,-20.508,-82.520
1683642730.733,-36.621,-31.738,-17.090,-66.895
1683642730.737,-17.090,-23.926,-16.602,-38.574
1683642730.741,-19.531,-24.902,-21.484,-35.645
1683642730.744,-40.039,-38.574,-28.320,-58.105
1683642730.748,-45.410,-43.945,-27.344,-72.754
1683642730.752,-36.621,-39.062,-26.367,-59.082
1683642730.756,-14.160,-29.297,-30.273,-37.109
1683642730.760,-4.883,-26.367,-28.320,-26.367
1683642730.762,-24.414,-38.086,-31.250,-42.480
1683642730.766,-38.574,-41.016,-33.203,-61.523
1683642730.770,-34.668,-31.738,-33.203,-51.270
1683642730.774,-15.137,-23.438,-30.762,-19.531
1683642730.778,-7.812,-28.809,-26.367,-1.953
1683642730.782,-33.203,-46.387,-27.832,-26.367
1683642730.786,-44.434,-40.039,-31.250,-51.758
1683642730.789,-35.156,-33.691,-32.715,-41.992
1683642730.793,-17.578,-33.203,-27.832,-11.719
1683642730.797,-4.395,-27.832,-32.715,-5.371
1683642730.801,-21.973,-33.691,-38.086,-30.273
1683642730.805,-45.898,-45.898,-35.156,-57.617
1683642730.762,-24.414,-38.086,-31.250,-42.480
1683642730.766,-38.574,-41.016,-33.203,-61.523
1683642730.770,-34.668,-31.738,-33.203,-51.270
1683642730.774,-15.137,-23.438,-30.762,-19.531
1683642730.778,-7.812,-28.809,-26.367,-1.953
1683642730.782,-33.203,-46.387,-27.832,-26.367
1683642730.786,-44.434,-40.039,-31.250,-51.758
1683642730.789,-35.156,-33.691,-32.715,-41.992
1683642730.793,-17.578,-33.203,-27.832,-11.719
1683642730.797,-4.395,-27.832,-32.715,-5.371
1683642730.801,-21.973,-33.691,-38.086,-30.273
1683642730.805,-45.898,-45.898,-35.156,-57.617
1683642730.807,-46.387,-40.039,-26.367,-55.664
1683642730.811,-38.574,-34.668,-20.996,-24.902
1683642730.815,-28.320,-31.250,-23.438,-11.719
1683642730.819,-27.832,-28.320,-28.809,-29.297
1683642730.823,-49.316,-42.969,-32.715,-58.594
1683642730.827,-59.082,-40.039,-31.738,-69.336
1683642730.831,-40.527,-23.438,-32.715,-51.270
1683642730.834,-21.973,-21.484,-32.715,-25.879
1683642730.838,-29.297,-29.785,-33.691,-31.738
1683642730.842,-51.270,-41.016,-34.668,-63.965
1683642730.846,-52.246,-39.062,-33.691,-75.195
1683642730.850,-33.203,-29.785,-31.250,-43.457
1683642730.852,-23.438,-31.250,-25.879,-0.977
1683642730.856,-25.391,-32.227,-27.344,-8.789
1683642730.860,-32.227,-33.203,-33.691,-48.340
1683642730.864,-41.016,-40.527,-25.879,-43.945
1683642730.868,-35.156,-37.598,-13.672,-10.254
1683642730.872,-11.719,-20.508,-20.508,8.301
1683642730.876,-14.160,-18.066,-28.320,10.742
1683642730.879,-37.598,-33.203,-29.297,-12.695
1683642730.883,-49.805,-37.598,-29.785,-34.180
1683642730.887,-38.086,-28.809,-28.809,-20.508
1683642730.891,-13.184,-18.066,-30.273,-0.977
1683642730.895,-4.395,-15.625,-25.391,0.977
1683642730.897,-20.996,-29.785,-24.902,-23.926
1683642730.901,-41.016,-40.039,-25.391,-48.828
1683642730.905,-29.297,-29.297,-23.438,-37.598
1683642730.909,-8.301,-18.555,-22.949,-6.836
1683642730.913,-6.836,-19.043,-23.438,0.000
1683642730.917,-21.484,-26.855,-29.297,-32.715
1683642730.921,-41.016,-28.320,-28.320,-59.082
1683642730.924,-36.133,-25.879,-23.438,-43.457
1683642730.928,-10.254,-18.066,-23.438,-19.531
1683642730.932,-8.789,-13.672,-25.879,-14.648
1683642730.936,-37.598,-28.320,-23.438,-31.250
1683642730.940,-52.734,-36.133,-24.414,-57.129
1683642730.942,-47.363,-35.156,-29.785,-55.176
1683642730.946,-33.203,-26.855,-25.391,-22.461
1683642730.950,-25.391,-23.926,-22.461,-3.906
1683642730.954,-31.250,-33.203,-29.297,-26.855
1683642730.958,-39.062,-35.156,-31.738,-59.570
1683642730.962,-36.621,-31.250,-24.902,-53.223
1683642730.966,-22.949,-26.367,-14.160,-17.578
1683642730.969,-10.254,-27.832,-11.719,-2.441
1683642730.973,-14.648,-28.320,-16.113,-20.020
1683642730.977,-31.250,-26.855,-24.414,-50.781
1683642730.981,-37.598,-27.832,-25.391,-61.523
1683642730.985,-26.855,-21.973,-17.578,-35.645
1683642730.987,-20.508,-22.461,-13.672,-16.113
1683642730.991,-34.180,-23.926,-11.719,-31.738
1683642730.995,-45.898,-24.414,-10.254,-59.082
1683642730.999,-61.035,-32.227,-12.207,-75.195
1683642731.003,-70.801,-41.504,-6.836,-57.129
1683642731.007,-54.199,-28.809,-3.418,-28.809
1683642731.011,-49.805,-7.324,-7.324,-43.945
1683642731.014,-79.590,-21.484,-8.301,-87.891
1683642731.018,-100.586,-34.668,-15.137,-113.770
1683642731.022,-103.516,-30.762,-18.555,-103.027
1683642731.026,-120.117,-31.250,-16.602,-92.285
1683642731.030,-136.719,-34.668,-13.672,-125.000
1683642731.032,-159.180,-47.852,-10.254,-161.133
1683642731.036,-174.805,-52.246,-10.742,-175.293
1683642731.040,-184.082,-49.316,-10.742,-170.410
1683642731.044,-183.105,-47.852,-10.254,-151.855
1683642731.048,-180.176,-40.527,-9.277,-155.762
1683642731.052,-195.312,-45.898,-10.254,-190.430
1683642731.056,-213.379,-59.082,-12.695,-213.379
1683642731.059,-211.426,-63.477,-10.742,-208.008
1683642731.063,-194.336,-58.105,-4.883,-183.594
1683642731.067,-185.547,-59.082,-1.465,-167.969
1683642731.071,-192.383,-59.570,-3.906,-189.453
1683642731.075,-196.777,-59.082,-6.348,-200.195
1683642731.092,-189.453,-64.453,-6.836,-178.711
1683642731.096,-164.062,-54.688,-10.742,-155.273
1683642731.100,-128.906,-49.316,-13.184,-135.254
1683642731.104,-128.906,-53.711,-15.137,-144.043
1683642731.108,-144.043,-53.711,-20.996,-160.156
1683642731.112,-132.324,-55.664,-23.438,-136.719
1683642731.116,-94.727,-46.387,-25.391,-100.098
1683642731.119,-70.801,-43.457,-25.391,-85.938
1683642731.123,-74.707,-51.270,-22.949,-91.797
1683642731.127,-78.613,-53.711,-26.855,-110.840
1683642731.131,-71.777,-47.363,-36.133,-115.234
1683642731.135,-42.480,-34.180,-34.180,-72.754
1683642731.137,-15.137,-29.297,-30.273,-30.762
1683642731.141,-19.043,-29.785,-30.273,-42.969
1683642731.145,-36.133,-29.297,-33.691,-74.707
1683642731.149,-34.180,-32.715,-42.480,-85.449
1683642731.153,-9.277,-24.902,-35.645,-49.805
1683642731.157,3.418,-18.066,-30.273,-19.043
1683642731.161,-1.953,-24.414,-38.086,-32.715
1683642731.164,-8.301,-32.227,-39.062,-61.523
1683642731.168,-7.324,-36.133,-37.109,-71.289
1683642731.172,8.789,-27.344,-31.738,-33.691
1683642731.176,33.203,-14.160,-26.367,2.930
1683642731.180,33.691,-17.090,-30.273,-8.301
1683642731.182,11.230,-31.250,-38.574,-42.480
1683642731.186,0.000,-36.621,-34.180,-47.852
1683642731.190,7.812,-28.809,-33.203,-23.926
1683642731.194,25.391,-24.414,-44.434,-1.465
1683642731.198,31.738,-25.391,-44.434,2.441
1683642731.202,16.602,-23.926,-37.598,-12.207
1683642731.206,7.812,-22.461,-44.434,-28.320
1683642731.209,14.648,-22.949,-44.434,-16.113
1683642731.213,17.090,-32.227,-39.062,20.508
1683642731.217,15.625,-36.621,-40.527,15.137
1683642731.221,4.883,-35.645,-43.457,-19.531
1683642731.225,-2.930,-34.668,-40.039,-27.344
1683642731.227,-2.441,-31.738,-34.668,-13.672
1683642731.231,10.254,-27.832,-33.691,6.348
1683642731.235,13.672,-26.855,-33.691,6.348
1683642731.239,0.000,-33.691,-24.902,-11.719
1683642731.243,-7.812,-33.691,-23.926,-34.668
1683642731.247,-9.277,-27.832,-33.691,-36.133
1683642731.251,8.301,-17.578,-33.203,0.000
1683642731.254,22.949,-15.625,-30.762,8.301
1683642731.258,4.395,-26.367,-36.133,-27.344
1683642731.262,-11.719,-33.691,-42.480,-60.547
1683642731.266,-10.742,-34.668,-36.621,-59.082
1683642731.270,9.277,-24.902,-29.785,-23.926
1683642731.272,24.902,-20.508,-30.273,-3.906
1683642731.276,16.113,-24.414,-35.156,-29.297
1683642731.280,-2.930,-29.297,-38.086,-61.523
1683642731.284,-4.395,-30.273,-31.250,-47.852
1683642731.288,12.695,-19.043,-25.879,-2.930
1683642731.292,24.902,-12.695,-26.367,8.789
1683642731.296,17.578,-17.090,-25.391,-7.812
1683642731.299,2.441,-25.391,-32.227,-34.668
1683642731.303,-3.906,-28.809,-39.062,-47.852
1683642731.307,6.348,-22.949,-38.086,-26.367
1683642731.311,15.625,-16.602,-32.715,3.906
1683642731.315,12.207,-17.578,-34.668,-5.859
1683642731.317,-6.348,-33.691,-40.039,-35.645
1683642731.321,-18.066,-36.133,-30.273,-39.551
1683642731.325,-3.906,-23.926,-32.227,-22.949
1683642731.329,6.348,-25.391,-35.156,-1.953
1683642731.333,-1.953,-29.785,-30.762,-7.324
1683642731.337,-14.160,-29.785,-31.738,-42.480
1683642731.341,-22.461,-28.809,-30.762,-58.594
1683642731.344,-11.230,-28.809,-29.297,-41.016
1683642731.348,9.766,-16.113,-23.438,-14.160
1683642731.352,5.859,-14.648,-24.902,-19.043
1683642731.356,-17.090,-27.344,-31.250,-52.734
1683642731.360,-38.086,-34.668,-31.738,-68.359
1683642731.362,-32.715,-31.738,-29.297,-49.805
1683642731.366,-13.672,-26.855,-22.461,-16.113
1683642731.370,-7.812,-24.414,-22.461,-8.789
1683642731.374,-17.578,-30.273,-25.391,-31.738
1683642731.378,-37.598,-38.574,-29.297,-46.387
1683642731.382,-36.133,-33.691,-28.809,-32.715
1683642731.386,-22.949,-30.273,-20.508,-2.930
1683642731.389,-11.230,-31.250,-18.066,13.184
1683642731.393,-20.996,-33.691,-25.879,-12.695
1683642731.397,-47.363,-45.898,-26.855,-42.480
1683642731.401,-34.180,-36.133,-25.391,-32.715
1683642731.405,0.000,-14.648,-28.320,-12.207
1683642731.407,2.441,-16.113,-27.832,-3.906
1683642731.411,-21.484,-34.180,-27.832,-24.414
1683642731.415,-37.598,-44.434,-27.344,-46.875
1683642731.419,-39.062,-43.457,-31.250,-41.504
1683642731.423,-24.902,-35.156,-31.250,-21.973
1683642731.427,-14.648,-31.250,-26.855,-8.301
1683642731.431,-23.926,-39.551,-28.809,-26.367
1683642731.434,-41.016,-48.828,-31.250,-52.734
1683642731.438,-40.527,-41.016,-29.785,-51.758
1683642731.442,-21.484,-29.297,-23.926,-23.926
1683642731.446,-8.301,-19.531,-21.484,-11.230
1683642731.450,-15.137,-17.578,-30.762,-30.273
1683642731.467,-35.645,-32.227,-30.273,-57.617
1683642731.471,-45.898,-34.180,-30.762,-67.871
1683642731.475,-34.668,-24.902,-31.250,-44.922
1683642731.479,-16.602,-21.484,-26.367,-16.602
1683642731.483,-19.531,-22.949,-26.367,-22.461
1683642731.487,-30.762,-31.250,-22.949,-44.922
1683642731.491,-38.086,-34.180,-22.949,-53.711
1683642731.494,-30.273,-31.738,-27.344,-33.203
1683642731.498,-4.883,-20.020,-23.926,-3.418
1683642731.502,-2.441,-20.996,-25.391,-20.020
1683642731.506,-16.113,-27.344,-34.180,-52.734
1683642731.510,-19.531,-20.996,-27.832,-48.828
1683642731.512,-9.277,-14.648,-16.602,-19.531
1683642731.516,-3.418,-14.648,-18.066,4.883
1683642731.520,-11.230,-23.438,-20.996,-1.953
1683642731.524,-26.367,-34.180,-23.926,-38.086
1683642731.528,-41.504,-37.598,-30.762,-60.547
1683642731.532,-42.480,-36.133,-31.250,-49.316
1683642731.536,-21.973,-27.832,-25.879,-21.973
1683642731.539,-20.020,-27.832,-28.320,-20.508
1683642731.543,-43.457,-40.527,-30.762,-49.805
1683642731.547,-53.223,-46.875,-24.414,-62.500
1683642731.551,-40.527,-36.133,-26.855,-56.641
1683642731.555,-21.484,-22.461,-29.297,-39.551
1683642731.557,-21.973,-25.879,-26.367,-39.062
1683642731.561,-41.992,-38.086,-30.762,-71.289
1683642731.565,-62.012,-41.992,-28.809,-94.727
1683642731.569,-61.035,-37.598,-25.879,-83.984
1683642731.573,-38.574,-30.273,-20.020,-50.293
1683642731.577,-22.949,-22.949,-17.578,-40.039
1683642731.581,-36.621,-27.832,-30.762,-80.078
1683642731.584,-48.340,-30.762,-34.668,-105.957
1683642731.588,-45.410,-33.691,-27.344,-84.961
1683642731.592,-29.297,-29.297,-25.879,-61.035
1683642731.596,-9.766,-18.066,-27.344,-42.969
1683642731.600,-13.672,-26.855,-21.973,-41.016
1683642731.602,-32.715,-36.621,-23.926,-68.848
1683642731.606,-35.645,-35.645,-29.785,-72.266
1683642731.610,-18.066,-22.949,-27.832,-40.039
1683642731.614,-13.184,-20.020,-25.879,-27.344
1683642731.618,-20.508,-28.809,-32.227,-54.199
1683642731.622,-38.574,-36.133,-31.738,-82.031
1683642731.626,-57.617,-39.062,-26.855,-80.566
1683642731.629,-39.551,-35.645,-30.273,-50.293
1683642731.633,-25.879,-33.203,-32.715,-32.227
1683642731.637,-38.086,-37.109,-33.203,-52.734
1683642731.641,-50.781,-39.062,-33.203,-85.938
1683642731.645,-54.688,-37.598,-34.180,-94.727
1683642731.647,-45.898,-36.621,-29.297,-68.848
1683642731.651,-40.527,-37.598,-25.391,-48.340
1683642731.655,-39.551,-35.156,-25.391,-51.270
1683642731.659,-54.199,-37.598,-32.715,-86.914
1683642731.663,-64.453,-41.504,-41.016,-118.164
1683642731.667,-46.387,-32.227,-35.645,-91.797
1683642731.671,-31.738,-22.461,-21.484,-47.363
1683642731.674,-29.297,-32.715,-22.949,-49.316
1683642731.678,-38.574,-44.922,-29.785,-77.148
1683642731.682,-46.387,-46.387,-33.203,-91.309
1683642731.686,-36.133,-33.691,-33.691,-76.172
1683642731.690,-17.578,-17.090,-28.809,-42.480
1683642731.692,-17.578,-26.367,-26.855,-37.109
1683642731.696,-36.621,-39.551,-29.785,-62.500
1683642731.700,-46.875,-35.645,-26.367,-72.266
1683642731.704,-43.457,-34.180,-27.832,-58.105
1683642731.708,-38.086,-32.227,-33.691,-36.133
1683642731.712,-29.297,-27.832,-23.926,-27.832
1683642731.716,-34.668,-32.715,-26.367,-62.500
1683642731.719,-50.781,-42.969,-33.203,-95.215
1683642731.723,-51.758,-35.645,-21.973,-79.590
1683642731.727,-35.156,-26.367,-20.996,-46.875
1683642731.731,-24.902,-22.461,-29.785,-41.016
1683642731.735,-31.738,-23.926,-30.762,-63.477
1683642731.737,-40.527,-25.391,-29.785,-82.520
1683642731.741,-46.875,-27.344,-29.297,-79.102
1683642731.745,-36.621,-25.879,-27.832,-55.176
1683642731.749,-28.809,-28.320,-29.297,-46.387
1683642731.753,-45.898,-39.551,-29.785,-67.871
1683642731.757,-61.523,-45.898,-29.785,-90.820
1683642731.761,-57.129,-37.598,-31.250,-86.426
1683642731.764,-38.086,-29.297,-33.203,-63.965
1683642731.768,-30.273,-32.715,-26.367,-47.852
1683642731.772,-34.668,-37.109,-21.484,-60.547
1683642731.776,-40.527,-36.133,-26.367,-92.285
1683642731.780,-40.039,-35.645,-25.879,-91.309
1683642731.782,-31.738,-31.250,-25.391,-67.383
1683642731.786,-20.996,-27.832,-28.320,-53.223
1683642731.790,-30.273,-34.668,-23.438,-61.035
1683642731.794,-46.387,-40.527,-26.367,-97.168
1683642731.798,-53.711,-40.527,-24.902,-104.492
1683642731.802,-45.898,-28.809,-22.461,-75.195
1683642731.806,-28.809,-18.555,-22.461,-54.199
1683642731.809,-33.691,-31.250,-20.508,-63.965
1683642731.813,-48.828,-37.598,-24.414,-103.027
1683642731.817,-54.688,-35.645,-23.926,-113.770
1683642731.821,-47.852,-34.180,-18.555,-75.195
1683642731.825,-32.715,-26.367,-16.602,-53.711
1683642731.842,-31.738,-27.344,-23.926,-62.500
1683642731.846,-46.387,-35.645,-30.273,-85.938
1683642731.850,-53.711,-40.527,-31.250,-98.145
1683642731.854,-50.781,-36.621,-23.926,-71.777
1683642731.858,-31.738,-30.273,-22.461,-43.457
1683642731.862,-17.090,-23.438,-25.391,-47.363
1683642731.866,-32.715,-24.414,-25.879,-77.148
1683642731.869,-47.363,-39.551,-29.297,-94.238
1683642731.873,-40.527,-47.363,-28.320,-71.777
1683642731.877,-25.879,-38.574,-23.926,-39.551
1683642731.881,-21.484,-35.645,-20.508,-39.062
1683642731.885,-31.738,-41.016,-24.414,-68.848
1683642731.887,-35.645,-41.992,-28.320,-93.262
1683642731.891,-33.691,-34.668,-25.879,-78.613
1683642731.895,-24.414,-24.902,-28.320,-51.270
1683642731.899,-17.090,-27.344,-31.738,-41.504
1683642731.903,-30.762,-34.180,-26.855,-61.035
1683642731.907,-50.293,-36.621,-26.855,-88.867
1683642731.911,-49.805,-30.762,-27.832,-79.590
1683642731.914,-38.086,-25.391,-30.273,-50.781
1683642731.918,-33.691,-25.879,-36.621,-45.410
1683642731.922,-42.480,-33.691,-38.086,-69.336
1683642731.926,-57.129,-41.016,-36.621,-93.750
1683642731.930,-58.105,-36.621,-33.691,-88.867
1683642731.932,-48.828,-30.762,-25.391,-60.059
1683642731.936,-40.527,-30.273,-22.949,-41.016
1683642731.940,-40.039,-29.785,-28.809,-58.594
1683642731.944,-45.898,-29.785,-29.297,-82.520
1683642731.948,-52.246,-30.762,-31.738,-84.961
1683642731.952,-40.527,-22.949,-25.879,-59.082
1683642731.956,-21.484,-18.555,-21.973,-33.691
1683642731.959,-25.879,-24.414,-26.855,-46.387
1683642731.963,-41.992,-35.645,-31.250,-81.543
1683642731.967,-48.340,-38.086,-26.855,-81.543
1683642731.971,-29.785,-26.367,-19.043,-46.387
1683642731.975,-10.742,-18.555,-18.555,-23.438
1683642731.977,-26.367,-27.832,-25.391,-36.133
1683642731.981,-46.387,-37.109,-31.738,-68.359
1683642731.985,-52.246,-34.180,-23.926,-76.660
1683642731.989,-40.527,-33.691,-22.461,-55.664
1683642731.993,-26.367,-28.809,-27.832,-37.109
1683642731.997,-27.344,-23.438,-27.344,-43.945
1683642732.001,-44.434,-29.785,-30.762,-77.148
1683642732.004,-60.059,-41.992,-32.715,-98.145
1683642732.008,-48.828,-39.062,-29.297,-81.543
1683642732.012,-23.926,-21.973,-25.391,-55.176
1683642732.016,-24.414,-15.137,-23.926,-48.340
1683642732.020,-44.434,-25.879,-21.973,-78.125
1683642732.022,-61.035,-36.621,-23.926,-103.027
1683642732.026,-58.594,-32.715,-27.344,-84.473
1683642732.030,-36.133,-17.090,-20.020,-41.992
1683642732.034,-31.250,-19.043,-16.602,-33.203
1683642732.038,-45.410,-32.227,-25.879,-68.848
1683642732.042,-52.246,-33.691,-32.227,-96.680
1683642732.046,-50.781,-29.785,-30.273,-86.426
1683642732.049,-34.668,-30.273,-31.738,-53.711
1683642732.053,-28.320,-36.621,-37.598,-44.922
1683642732.057,-42.480,-41.504,-36.133,-72.266
1683642732.061,-52.246,-41.016,-36.133,-97.168
1683642732.065,-52.246,-34.668,-33.203,-87.891
1683642732.067,-26.855,-26.855,-28.320,-52.734
1683642732.071,-16.113,-24.902,-32.227,-44.434
1683642732.075,-32.227,-26.855,-39.062,-76.172
1683642732.079,-39.551,-33.203,-38.574,-103.027
1683642732.083,-40.527,-30.762,-36.133,-102.051
1683642732.087,-27.344,-19.531,-31.738,-73.730
1683642732.091,-9.766,-10.254,-29.297,-59.570
1683642732.094,-25.879,-22.461,-32.227,-79.590
1683642732.098,-49.805,-34.180,-27.832,-105.469
1683642732.102,-44.922,-33.691,-25.879,-100.098
1683642732.106,-30.273,-24.902,-25.879,-79.102
1683642732.110,-22.461,-24.902,-28.320,-70.801
1683642732.112,-33.203,-37.109,-31.250,-85.449
1683642732.116,-53.223,-40.527,-31.250,-104.492
1683642732.120,-58.594,-42.480,-32.227,-102.539
1683642732.124,-43.945,-28.320,-37.109,-89.355
1683642732.128,-27.832,-19.531,-30.762,-53.711
1683642732.132,-41.016,-30.762,-23.926,-48.828
1683642732.136,-50.781,-33.203,-23.926,-78.125
1683642732.139,-56.152,-35.156,-26.855,-97.168
1683642732.143,-47.363,-34.180,-26.367,-79.102
1683642732.147,-29.297,-26.855,-14.648,-35.156
1683642732.151,-30.762,-28.320,-14.648,-32.227
1683642732.155,-45.898,-32.227,-25.391,-67.871
1683642732.157,-59.082,-37.109,-28.320,-88.379
1683642732.161,-46.875,-36.621,-32.227,-68.848
1683642732.165,-28.320,-24.902,-28.809,-38.086
1683642732.169,-23.926,-26.367,-24.414,-44.434
1683642732.173,-31.250,-34.668,-23.926,-63.477
1683642732.177,-39.062,-32.227,-23.926,-73.730
1683642732.181,-33.203,-21.484,-26.367,-70.801
1683642732.184,-25.879,-18.555,-24.414,-45.410
1683642732.188,-27.344,-26.367,-28.320,-42.480
1683642732.192,-44.922,-33.203,-33.691,-74.219
1683642732.196,-57.617,-36.133,-39.551,-101.074
1683642732.200,-50.781,-34.180,-38.086,-83.008
1683642732.217,-38.574,-29.297,-29.297,-41.016
1683642732.221,-31.738,-25.879,-27.344,-35.645
1683642732.225,-40.039,-28.320,-33.203,-63.965
1683642732.229,-49.805,-34.180,-37.109,-95.215
1683642732.233,-48.828,-37.598,-34.180,-87.891
1683642732.237,-42.969,-31.738,-24.902,-47.363
1683642732.241,-30.762,-20.020,-21.484,-38.574
1683642732.244,-38.086,-28.809,-20.020,-68.848
1683642732.248,-57.129,-38.574,-26.367,-100.586
1683642732.252,-63.477,-45.410,-32.227,-100.098
1683642732.256,-51.758,-39.551,-21.484,-62.500
1683642732.260,-27.344,-22.461,-20.996,-37.109
1683642732.262,-27.832,-20.996,-28.320,-51.270
1683642732.266,-47.363,-27.344,-31.738,-81.543
1683642732.270,-50.781,-30.762,-29.297,-80.566
1683642732.274,-40.527,-26.367,-26.855,-50.293
1683642732.278,-23.926,-19.531,-26.367,-33.203
1683642732.282,-24.902,-21.484,-25.391,-46.387
1683642732.286,-49.805,-34.180,-27.832,-78.125
1683642732.289,-52.734,-41.992,-26.855,-83.984
1683642732.293,-36.621,-35.645,-27.344,-57.617
1683642732.297,-27.832,-28.809,-34.668,-52.246
1683642732.301,-24.902,-26.367,-33.691,-70.312
1683642732.305,-45.898,-35.645,-35.156,-93.750
1683642732.307,-55.176,-41.992,-34.668,-91.309
1683642732.311,-39.551,-34.180,-30.273,-64.941
1683642732.315,-21.973,-20.508,-27.832,-41.504
1683642732.319,-23.926,-25.879,-31.250,-53.711
1683642732.323,-46.875,-40.527,-35.156,-76.172
1683642732.327,-61.523,-40.527,-37.109,-89.844
1683642732.331,-49.316,-33.203,-35.156,-80.078
1683642732.334,-31.738,-32.227,-33.691,-54.199
1683642732.338,-33.691,-36.133,-38.574,-63.965
1683642732.342,-49.316,-42.480,-39.551,-89.844
1683642732.346,-60.059,-52.246,-33.691,-99.121
1683642732.350,-50.293,-45.898,-31.738,-84.473
1683642732.352,-33.691,-40.039,-33.203,-50.293
1683642732.356,-31.250,-42.480,-29.785,-38.086
1683642732.360,-40.527,-36.133,-32.715,-62.988
1683642732.364,-50.781,-39.551,-35.156,-91.309
1683642732.368,-54.199,-39.062,-27.344,-77.637
1683642732.372,-38.574,-26.855,-28.320,-42.969
1683642732.376,-35.156,-23.438,-35.645,-37.109
1683642732.379,-55.176,-37.109,-35.156,-66.406
1683642732.383,-68.359,-46.387,-33.691,-93.262
1683642732.387,-51.270,-35.645,-34.668,-80.078
1683642732.391,-36.133,-29.297,-30.273,-48.828
1683642732.395,-30.762,-28.320,-28.320,-37.598
1683642732.397,-32.715,-32.227,-41.016,-60.059
1683642732.401,-47.852,-42.480,-49.805,-90.820
1683642732.405,-47.363,-39.062,-49.805,-86.426
1683642732.409,-32.715,-33.203,-43.945,-48.340
1683642732.413,-25.391,-31.250,-38.086,-30.762
1683642732.417,-29.785,-30.762,-33.691,-49.805
1683642732.421,-38.086,-31.250,-33.691,-70.801
1683642732.424,-38.086,-33.691,-35.645,-73.242
1683642732.428,-19.531,-30.273,-30.273,-45.410
1683642732.432,-3.906,-19.531,-31.738,-39.551
1683642732.436,-11.230,-22.949,-35.645,-62.500
1683642732.440,-37.598,-32.715,-34.668,-78.613
1683642732.442,-48.828,-33.203,-34.668,-79.590
1683642732.446,-35.645,-26.855,-33.203,-55.664
1683642732.450,-22.461,-24.902,-24.414,-31.738
1683642732.454,-24.902,-29.297,-22.461,-45.898
1683642732.458,-47.363,-40.527,-31.738,-94.727
1683642732.462,-50.781,-36.621,-32.715,-107.422
1683642732.466,-34.668,-22.461,-24.902,-70.801
1683642732.469,-31.738,-28.320,-24.414,-46.387
1683642732.473,-38.086,-35.156,-30.273,-66.406
1683642732.477,-49.316,-32.227,-32.227,-102.051
1683642732.481,-57.129,-29.785,-32.227,-108.887
1683642732.485,-52.246,-33.203,-28.320,-77.637
1683642732.487,-37.598,-28.809,-21.973,-44.434
1683642732.491,-38.574,-26.855,-31.738,-59.082
1683642732.495,-54.199,-37.109,-40.527,-91.309
1683642732.499,-65.430,-38.086,-32.715,-95.215
1683642732.503,-54.199,-33.203,-24.902,-63.477
1683642732.507,-28.809,-25.391,-22.949,-27.832
1683642732.511,-25.391,-23.438,-28.320,-30.273
1683642732.514,-41.016,-35.645,-29.785,-62.988
1683642732.518,-50.293,-38.574,-20.508,-78.613
1683642732.522,-40.527,-34.668,-16.602,-61.523
1683642732.526,-18.555,-21.973,-19.043,-42.480
1683642732.530,-10.742,-17.578,-19.531,-39.062
1683642732.532,-23.438,-28.320,-20.508,-57.617
1683642732.536,-37.598,-24.902,-24.902,-79.590
1683642732.540,-39.062,-21.973,-23.926,-67.871
1683642732.544,-29.297,-26.367,-21.973,-39.551
1683642732.548,-27.344,-29.297,-22.949,-36.133
1683642732.552,-39.062,-35.645,-23.438,-62.012
1683642732.556,-49.805,-34.180,-27.832,-94.238
1683642732.559,-53.223,-34.668,-26.367,-86.914
1683642732.563,-41.992,-31.250,-20.508,-50.293
1683642732.567,-32.227,-25.879,-21.973,-37.109
1683642732.571,-41.016,-30.762,-26.855,-61.035
1683642732.575,-47.852,-31.250,-29.297,-86.914
1683642732.592,-50.781,-28.809,-26.855,-80.566
1683642732.596,-38.086,-24.902,-27.832,-62.012
1683642732.600,-14.160,-15.137,-25.391,-46.875
1683642732.604,-26.855,-27.832,-19.043,-48.340
1683642732.608,-46.875,-37.598,-25.391,-77.637
1683642732.612,-38.086,-28.320,-37.598,-94.727
1683642732.616,-20.020,-24.902,-33.691,-68.848
1683642732.619,-11.230,-26.855,-24.414,-41.016
1683642732.623,-28.809,-36.133,-27.344,-48.828
1683642732.627,-42.480,-42.969,-30.762,-77.148
1683642732.631,-45.898,-42.480,-27.344,-83.008
1683642732.635,-42.480,-37.598,-21.973,-64.941
1683642732.592,-50.781,-28.809,-26.855,-80.566
1683642732.596,-38.086,-24.902,-27.832,-62.012
1683642732.600,-14.160,-15.137,-25.391,-46.875
1683642732.604,-26.855,-27.832,-19.043,-48.340
1683642732.608,-46.875,-37.598,-25.391,-77.637
1683642732.612,-38.086,-28.320,-37.598,-94.727
1683642732.616,-20.020,-24.902,-33.691,-68.848
1683642732.619,-11.230,-26.855,-24.414,-41.016
1683642732.623,-28.809,-36.133,-27.344,-48.828
1683642732.627,-42.480,-42.969,-30.762,-77.148
1683642732.631,-45.898,-42.480,-27.344,-83.008
1683642732.635,-42.480,-37.598,-21.973,-64.941
1683642732.637,-25.879,-32.715,-19.043,-46.875
1683642732.641,-26.367,-32.715,-22.461,-52.246
1683642732.645,-37.598,-36.621,-27.832,-80.566
1683642732.649,-46.387,-36.133,-34.180,-90.332
1683642732.653,-43.945,-32.227,-28.809,-60.547
1683642732.657,-27.832,-29.785,-23.926,-26.855
1683642732.661,-28.320,-30.762,-28.809,-30.273
1683642732.664,-41.992,-41.504,-27.832,-55.664
1683642732.668,-50.781,-46.875,-25.391,-63.965
1683642732.672,-36.621,-38.086,-31.250,-55.176
1683642732.676,-17.090,-25.391,-35.645,-37.109
1683642732.680,-17.578,-26.367,-33.203,-26.367
1683642732.682,-40.527,-39.062,-30.762,-46.387
1683642732.686,-55.664,-41.016,-30.273,-73.730
1683642732.690,-42.969,-29.785,-30.273,-63.965
1683642732.694,-26.367,-26.367,-29.785,-31.738
1683642732.698,-23.438,-27.832,-28.809,-27.344
1683642732.702,-33.691,-29.297,-27.344,-51.758
1683642732.706,-44.434,-32.715,-29.297,-71.777
1683642732.709,-41.992,-32.715,-29.785,-70.801
1683642732.713,-21.484,-24.902,-25.879,-44.922
1683642732.717,-20.508,-30.273,-26.367,-31.738
1683642732.721,-40.527,-42.480,-31.738,-51.758
1683642732.725,-58.105,-42.969,-33.691,-80.078
1683642732.727,-55.176,-36.133,-35.645,-79.102
1683642732.731,-37.598,-26.855,-35.156,-47.852
1683642732.735,-37.109,-36.133,-27.344,-26.855
1683642732.739,-45.898,-47.363,-27.344,-48.340
1683642732.743,-56.641,-48.828,-32.715,-78.613
1683642732.747,-50.781,-42.969,-31.738,-75.684
1683642732.751,-37.598,-30.762,-29.785,-46.875
1683642732.754,-34.180,-33.691,-31.250,-31.738
1683642732.758,-30.762,-42.480,-37.109,-52.246
1683642732.762,-34.668,-40.039,-34.668,-66.895
1683642732.766,-52.246,-39.551,-29.297,-66.406
1683642732.770,-35.645,-30.273,-29.297,-44.922
1683642732.727,-55.176,-36.133,-35.645,-79.102
1683642732.731,-37.598,-26.855,-35.156,-47.852
1683642732.735,-37.109,-36.133,-27.344,-26.855
1683642732.739,-45.898,-47.363,-27.344,-48.340
1683642732.743,-56.641,-48.828,-32.715,-78.613
1683642732.747,-50.781,-42.969,-31.738,-75.684
1683642732.751,-37.598,-30.762,-29.785,-46.875
1683642732.754,-34.180,-33.691,-31.250,-31.738
1683642732.758,-30.762,-42.480,-37.109,-52.246
1683642732.762,-34.668,-40.039,-34.668,-66.895
1683642732.766,-52.246,-39.551,-29.297,-66.406
1683642732.770,-35.645,-30.273,-29.297,-44.922
1683642732.772,-18.066,-20.508,-32.227,-26.367
1683642732.776,-31.738,-30.762,-38.574,-48.828
1683642732.780,-39.062,-41.016,-38.086,-80.566
1683642732.784,-41.504,-40.039,-31.250,-80.078
1683642732.788,-29.297,-30.273,-23.438,-45.898
1683642732.792,-15.137,-26.367,-26.367,-29.297
1683642732.796,-16.602,-27.832,-37.598,-45.410
1683642732.799,-31.738,-36.133,-40.039,-67.383
1683642732.803,-53.711,-46.387,-34.668,-78.125
1683642732.807,-43.945,-35.156,-28.809,-57.129
1683642732.811,-20.996,-22.461,-31.738,-33.203
1683642732.815,-19.043,-20.508,-37.598,-44.922
1683642732.817,-37.598,-31.738,-37.109,-82.520
1683642732.821,-46.875,-33.203,-35.645,-97.168
1683642732.825,-32.715,-21.973,-28.320,-63.965
1683642732.829,-24.902,-21.484,-20.996,-33.203
1683642732.833,-23.438,-20.996,-20.996,-35.156
1683642732.837,-29.297,-26.367,-25.391,-53.223
1683642732.841,-42.480,-28.809,-31.250,-73.242
1683642732.844,-38.574,-29.785,-31.738,-67.871
1683642732.848,-20.020,-20.996,-21.484,-32.227
1683642732.852,-17.578,-18.555,-24.902,-24.414
1683642732.856,-35.645,-30.273,-35.156,-55.664
1683642732.860,-52.734,-39.551,-32.715,-76.660
1683642732.862,-38.574,-32.227,-26.855,-57.617
1683642732.866,-19.043,-25.391,-25.879,-27.832
1683642732.870,-15.137,-21.484,-31.250,-30.273
1683642732.874,-22.949,-28.809,-33.203,-56.641
1683642732.878,-42.969,-42.480,-26.855,-70.801
1683642732.882,-41.992,-37.109,-22.949,-58.594
1683642732.886,-24.414,-29.297,-23.438,-27.344
1683642732.889,-11.719,-26.855,-27.344,-21.484
1683642732.893,-14.160,-32.715,-30.762,-44.922
1683642732.897,-30.273,-41.992,-33.691,-63.477
1683642732.901,-39.551,-41.504,-29.785,-59.082
1683642732.905,-30.762,-31.250,-24.414,-25.391
1683642732.907,-12.207,-25.391,-22.461,-3.418
1683642732.911,-17.578,-28.809,-24.414,-25.879
1683642732.915,-38.086,-34.180,-32.715,-56.152
1683642732.919,-43.457,-36.133,-37.598,-59.570
1683642732.923,-35.156,-33.203,-25.879,-26.855
1683642732.927,-22.949,-32.227,-19.531,-4.395
1683642732.931,-22.949,-29.785,-32.227,-28.809
1683642732.934,-35.156,-34.180,-33.203,-57.617
1683642732.938,-41.504,-40.039,-27.344,-59.570
1683642732.942,-29.297,-36.621,-27.832,-34.180
1683642732.946,-16.113,-27.344,-26.367,-17.578
1683642732.950,-17.090,-27.832,-25.391,-26.855
1683642732.967,-30.273,-33.203,-30.762,-51.270
1683642732.971,-41.992,-36.621,-31.738,-68.848
1683642732.975,-31.250,-31.250,-25.391,-46.387
1683642732.979,-9.766,-26.367,-24.902,-14.648
1683642732.983,-10.254,-37.109,-32.227,-24.414
1683642732.987,-28.809,-41.504,-28.320,-51.758
1683642732.991,-36.621,-34.668,-27.832,-68.848
1683642732.994,-34.668,-36.133,-30.762,-50.781
1683642732.998,-27.344,-31.738,-24.902,-20.996
1683642733.002,-22.461,-30.762,-27.344,-20.508
1683642733.006,-30.762,-37.109,-28.320,-38.574
1683642733.010,-42.969,-36.621,-29.297,-55.176
1683642733.012,-37.598,-29.785,-31.738,-39.062
1683642733.016,-20.508,-18.066,-25.879,-6.348
1683642733.020,-17.090,-17.578,-27.344,-2.441
1683642733.024,-32.715,-33.691,-33.203,-32.227
1683642733.028,-56.152,-44.434,-32.715,-55.664
1683642733.032,-52.734,-40.527,-29.785,-36.621
1683642733.036,-32.227,-29.297,-30.762,-12.695
1683642733.039,-24.902,-26.367,-32.227,-10.254
1683642733.043,-35.645,-38.574,-29.297,-25.879
1683642733.047,-53.223,-42.969,-27.344,-44.434
1683642733.051,-49.316,-33.203,-31.738,-44.922
1683642733.055,-31.250,-29.297,-32.715,-20.996
1683642733.057,-23.438,-26.367,-25.391,-5.859
1683642733.061,-37.598,-28.320,-28.809,-23.438
1683642733.065,-51.758,-32.227,-33.691,-43.457
1683642733.069,-43.945,-27.832,-32.227,-37.598
1683642733.073,-35.645,-27.344,-28.320,-3.906
1683642733.077,-23.926,-24.414,-23.438,19.531
1683642733.081,-15.137,-20.508,-21.484,5.371
1683642733.084,-28.320,-28.320,-28.320,-24.414
1683642733.088,-32.715,-33.203,-33.691,-30.762
1683642733.092,-15.625,-27.344,-28.809,2.441
1683642733.096,-4.395,-23.438,-26.367,23.438
1683642733.100,-17.090,-25.879,-29.785,7.812
1683642733.057,-23.438,-26.367,-25.391,-5.859
1683642733.061,-37.598,-28.320,-28.809,-23.438
1683642733.065,-51.758,-32.227,-33.691,-43.457
1683642733.069,-43.945,-27.832,-32.227,-37.598
1683642733.073,-35.645,-27.344,-28.320,-3.906
1683642733.077,-23.926,-24.414,-23.438,19.531
1683642733.081,-15.137,-20.508,-21.484,5.371
1683642733.084,-28.320,-28.320,-28.320,-24.414
1683642733.088,-32.715,-33.203,-33.691,-30.762
1683642733.092,-15.625,-27.344,-28.809,2.441
1683642733.096,-4.395,-23.438,-26.367,23.438
1683642733.100,-17.090,-25.879,-29.785,7.812
1683642733.102,-41.992,-35.156,-32.227,-16.602
1683642733.106,-46.875,-38.086,-34.180,-21.484
1683642733.110,-31.738,-33.691,-31.738,8.301
1683642733.114,-16.113,-26.855,-31.250,30.273
1683642733.118,-16.602,-28.320,-41.016,16.113
1683642733.122,-44.434,-40.527,-40.527,-12.207
1683642733.126,-56.641,-36.621,-30.762,-18.555
1683642733.129,-42.480,-29.297,-31.250,1.953
1683642733.133,-26.367,-29.297,-32.227,24.414
1683642733.137,-24.414,-31.250,-33.691,19.531
1683642733.141,-37.109,-35.645,-37.598,-7.324
1683642733.145,-49.316,-41.992,-33.203,-15.137
1683642733.147,-34.668,-37.109,-29.297,6.836
1683642733.151,-5.859,-21.973,-21.973,42.480
1683642733.155,-8.789,-21.484,-18.555,42.969
1683642733.159,-27.344,-34.180,-30.273,8.789
1683642733.163,-31.738,-37.109,-36.133,-11.719
1683642733.167,-25.391,-29.297,-28.320,4.395
1683642733.171,-11.230,-17.578,-23.438,29.785
1683642733.174,-10.742,-25.391,-28.320,24.414
1683642733.178,-20.020,-34.668,-30.273,-5.859
1683642733.182,-24.902,-30.762,-29.297,-19.531
1683642733.186,-21.484,-32.715,-27.344,-0.977
1683642733.190,-8.301,-28.809,-27.344,24.414
1683642733.192,-2.930,-22.949,-28.320,23.926
1683642733.196,-18.555,-31.738,-27.344,-2.441
1683642733.200,-30.273,-38.574,-24.414,-21.484
1683642733.204,-28.320,-38.086,-24.902,-14.648
1683642733.208,-9.766,-23.438,-19.043,13.672
1683642733.212,4.883,-11.719,-20.508,21.973
1683642733.216,-14.160,-31.250,-30.273,-7.812
1683642733.219,-31.250,-43.945,-25.391,-30.762
1683642733.223,-31.738,-34.668,-23.926,-28.320
1683642733.227,-18.555,-26.367,-21.484,1.465
1683642733.231,-2.441,-22.949,-17.578,24.414
1683642733.235,-6.348,-24.414,-22.461,-2.441
1683642733.237,-17.578,-24.414,-23.926,-34.668
1683642733.241,-22.949,-26.855,-20.996,-37.109
1683642733.245,-6.348,-19.043,-20.508,-12.207
1683642733.249,10.254,-12.207,-18.066,8.301
1683642733.253,1.953,-19.531,-21.973,-12.695
1683642733.257,-18.066,-28.320,-23.926,-40.527
1683642733.261,-29.297,-30.273,-22.461,-48.828
1683642733.264,-21.484,-29.297,-21.973,-29.297
1683642733.268,-5.371,-25.391,-18.066,-2.441
1683642733.272,-8.301,-29.297,-24.414,-8.789
1683642733.276,-25.391,-34.180,-27.832,-40.527
1683642733.280,-36.621,-35.645,-23.438,-52.734
1683642733.282,-22.949,-31.250,-21.973,-27.344
1683642733.286,-6.348,-29.785,-22.461,-0.488
1683642733.290,-14.648,-36.133,-19.043,0.488
1683642733.294,-39.551,-40.039,-15.625,-29.297
1683642733.298,-47.363,-37.598,-16.113,-52.246
1683642733.302,-29.785,-28.320,-14.648,-27.344
1683642733.306,-20.508,-24.414,-19.043,-5.859
1683642733.309,-25.391,-33.203,-20.508,-18.555
1683642733.313,-34.668,-41.504,-14.160,-35.156
1683642733.317,-35.156,-37.109,-12.695,-47.852
1683642733.321,-28.320,-28.809,-14.160,-33.203
1683642733.325,-16.113,-29.785,-13.672,-2.441
1683642733.342,-4.395,-27.832,-14.160,-1.465
1683642733.346,-17.578,-30.762,-20.020,-41.016
1683642733.350,-32.715,-35.156,-24.902,-65.918
1683642733.354,-34.180,-35.645,-20.996,-45.410
1683642733.358,-20.508,-27.344,-11.719,-14.648
1683642733.362,-3.418,-15.137,-15.137,-13.184
1683642733.366,-23.438,-23.926,-21.973,-44.922
1683642733.369,-48.828,-37.109,-21.973,-70.801
1683642733.373,-41.992,-34.668,-21.484,-67.871
1683642733.377,-22.461,-28.809,-22.461,-44.434
1683642733.381,-22.461,-29.785,-19.531,-31.250
1683642733.385,-38.086,-33.203,-15.137,-48.828
1683642733.387,-50.781,-42.480,-25.879,-83.496
1683642733.391,-53.223,-38.574,-28.809,-86.914
1683642733.395,-30.273,-22.461,-17.578,-48.340
1683642733.399,-14.648,-23.926,-13.672,-31.738
1683642733.403,-26.367,-34.180,-17.090,-41.992
1683642733.407,-40.527,-38.574,-16.602,-55.176
1683642733.411,-43.945,-31.738,-19.043,-57.129
1683642733.414,-21.484,-21.973,-21.973,-27.832
1683642733.418,-1.465,-24.414,-19.531,-7.324
1683642733.422,-11.230,-31.250,-21.973,-28.320
1683642733.426,-31.738,-33.691,-19.531,-54.199
1683642733.430,-31.738,-36.621,-17.090,-53.223
1683642733.387,-50.781,-42.480,-25.879,-83.496
1683642733.391,-53.223,-38.574,-28.809,-86.914
1683642733.395,-30.273,-22.461,-17.578,-48.340
1683642733.399,-14.648,-23.926,-13.672,-31.738
1683642733.403,-26.367,-34.180,-17.090,-41.992
1683642733.407,-40.527,-38.574,-16.602,-55.176
1683642733.411,-43.945,-31.738,-19.043,-57.129
1683642733.414,-21.484,-21.973,-21.973,-27.832
1683642733.418,-1.465,-24.414,-19.531,-7.324
1683642733.422,-11.230,-31.250,-21.973,-28.320
1683642733.426,-31.738,-33.691,-19.531,-54.199
1683642733.430,-31.738,-36.621,-17.090,-53.223
1683642733.432,-10.254,-32.715,-18.066,-23.926
1683642733.436,4.883,-24.902,-24.414,-6.836
1683642733.440,-5.859,-25.879,-28.809,-19.531
1683642733.444,-30.762,-37.598,-24.902,-41.016
1683642733.448,-38.086,-38.086,-27.344,-56.152
1683642733.452,-29.785,-30.273,-26.367,-39.551
1683642733.456,-19.531,-17.090,-26.855,-22.461
1683642733.459,-20.020,-23.438,-27.344,-30.273
1683642733.463,-43.457,-43.945,-23.926,-46.387
1683642733.467,-56.152,-37.109,-29.785,-68.848
1683642733.471,-38.086,-27.344,-21.973,-56.641
1683642733.475,-15.137,-23.926,-9.766,-21.484
1683642733.477,-19.043,-29.785,-13.672,-25.391
1683642733.481,-39.551,-42.480,-23.438,-62.988
1683642733.485,-52.734,-44.922,-28.320,-81.543
1683642733.489,-45.898,-46.875,-24.414,-58.105
1683642733.493,-20.020,-26.855,-23.438,-29.297
1683642733.497,-13.184,-17.090,-22.949,-26.367
1683642733.501,-35.645,-37.598,-27.344,-57.129
1683642733.504,-42.480,-43.457,-31.738,-81.543
1683642733.508,-38.086,-41.504,-31.250,-64.453
1683642733.512,-31.250,-35.645,-24.414,-33.691
1683642733.516,-21.973,-32.227,-20.508,-23.926
1683642733.520,-32.227,-37.598,-25.879,-45.410
1683642733.477,-19.043,-29.785,-13.672,-25.391
1683642733.481,-39.551,-42.480,-23.438,-62.988
1683642733.485,-52.734,-44.922,-28.320,-81.543
1683642733.489,-45.898,-46.875,-24.414,-58.105
1683642733.493,-20.020,-26.855,-23.438,-29.297
1683642733.497,-13.184,-17.090,-22.949,-26.367
1683642733.501,-35.645,-37.598,-27.344,-57.129
1683642733.504,-42.480,-43.457,-31.738,-81.543
1683642733.508,-38.086,-41.504,-31.250,-64.453
1683642733.512,-31.250,-35.645,-24.414,-33.691
1683642733.516,-21.973,-32.227,-20.508,-23.926
1683642733.520,-32.227,-37.598,-25.879,-45.410
1683642733.522,-50.293,-46.387,-28.320,-71.777
1683642733.526,-36.621,-36.133,-22.461,-61.035
1683642733.530,-11.719,-17.090,-18.066,-24.902
1683642733.534,-1.465,-18.066,-22.461,-12.207
1683642733.538,-13.672,-31.250,-23.438,-34.668
1683642733.542,-37.598,-36.133,-22.949,-58.105
1683642733.546,-36.133,-24.414,-30.762,-66.406
1683642733.549,-17.090,-21.973,-35.156,-49.316
1683642733.553,-8.301,-23.438,-28.320,-27.832
1683642733.557,-20.996,-23.926,-22.461,-37.109
1683642733.561,-40.039,-33.691,-30.273,-75.684
1683642733.565,-46.387,-36.133,-38.086,-86.914
1683642733.567,-33.203,-35.156,-32.227,-50.781
1683642733.571,-22.461,-32.227,-28.809,-28.809
1683642733.575,-26.367,-31.250,-35.156,-47.852
1683642733.579,-37.598,-42.969,-41.992,-74.219
1683642733.583,-42.969,-45.898,-40.527,-69.824
1683642733.587,-23.438,-28.809,-34.668,-45.410
1683642733.591,-1.953,-23.438,-33.203,-28.320
1683642733.594,-9.277,-36.621,-36.133,-39.062
1683642733.598,-26.855,-42.969,-36.621,-65.918
1683642733.602,-37.109,-39.062,-37.598,-84.473
1683642733.606,-33.203,-30.762,-34.668,-66.895
1683642733.610,-16.113,-27.344,-33.203,-33.691
1683642733.612,-10.742,-26.367,-37.598,-35.156
1683642733.616,-23.438,-33.203,-39.551,-63.477
1683642733.620,-38.086,-36.133,-36.621,-75.684
1683642733.624,-36.133,-26.855,-33.691,-56.152
1683642733.628,-15.625,-21.484,-32.715,-30.273
1683642733.632,-16.113,-24.414,-30.273,-28.809
1683642733.636,-39.551,-32.227,-32.227,-51.270
1683642733.639,-43.945,-39.062,-37.109,-64.453
1683642733.643,-35.156,-39.062,-37.109,-52.734
1683642733.647,-23.438,-27.832,-34.180,-27.344
1683642733.651,-20.996,-19.043,-33.203,-24.902
1683642733.655,-41.504,-32.715,-37.109,-56.152
1683642733.657,-55.664,-39.551,-37.109,-71.777
1683642733.661,-51.270,-38.086,-37.598,-57.129
1683642733.665,-38.086,-37.598,-39.551,-35.645
1683642733.669,-28.320,-30.762,-37.598,-33.203
1683642733.673,-34.180,-29.785,-35.645,-55.664
1683642733.677,-43.457,-33.203,-32.227,-68.848
1683642733.681,-41.016,-30.762,-36.621,-62.012
1683642733.684,-23.926,-28.809,-37.109,-41.016
1683642733.688,-15.625,-26.855,-36.133,-27.832
1683642733.692,-25.879,-27.832,-32.715,-42.969
1683642733.696,-40.527,-27.344,-28.809,-68.359
1683642733.700,-43.457,-23.438,-30.273,-65.430
1683642733.657,-55.664,-39.551,-37.109,-71.777
1683642733.661,-51.270,-38.086,-37.598,-57.129
1683642733.665,-38.086,-37.598,-39.551,-35.645
1683642733.669,-28.320,-30.762,-37.598,-33.203
1683642733.673,-34.180,-29.785,-35.645,-55.664
1683642733.677,-43.457,-33.203,-32.227,-68.848
1683642733.681,-41.016,-30.762,-36.621,-62.012
1683642733.684,-23.926,-28.809,-37.109,-41.016
1683642733.688,-15.625,-26.855,-36.133,-27.832
1683642733.692,-25.879,-27.832,-32.715,-42.969
1683642733.696,-40.527,-27.344,-28.809,-68.359
1683642733.700,-43.457,-23.438,-30.273,-65.430
1683642733.717,-32.227,-23.926,-30.273,-29.297
1683642733.721,-26.855,-31.250,-29.785,-18.555
1683642733.725,-35.645,-32.227,-34.180,-48.828
1683642733.729,-41.992,-35.645,-33.691,-71.289
1683642733.733,-42.969,-36.133,-28.320,-68.359
1683642733.737,-29.785,-22.949,-24.414,-37.109
1683642733.741,-13.184,-15.625,-24.414,-19.531
1683642733.744,-16.602,-24.414,-30.762,-40.527
1683642733.748,-35.645,-31.250,-31.738,-67.383
1683642733.752,-43.945,-35.156,-26.855,-72.754
1683642733.756,-29.297,-33.203,-24.902,-43.945
1683642733.760,-14.648,-24.902,-21.973,-17.090
1683642733.762,-20.508,-25.879,-24.902,-34.180
1683642733.766,-39.062,-37.598,-27.832,-58.105
1683642733.770,-43.457,-37.109,-22.461,-60.547
1683642733.774,-30.762,-34.180,-24.414,-41.504
1683642733.778,-9.277,-27.344,-26.367,-8.301
1683642733.782,-9.277,-26.855,-25.879,-12.695
1683642733.786,-28.320,-36.133,-28.320,-47.852
1683642733.789,-30.762,-37.598,-30.273,-62.500
1683642733.793,-29.297,-39.062,-29.785,-43.457
1683642733.797,-20.508,-34.668,-25.879,-18.066
1683642733.801,-13.672,-30.762,-20.996,-21.973
1683642733.805,-29.297,-35.156,-18.555,-45.898
1683642733.807,-34.180,-31.738,-27.344,-69.824
1683642733.811,-31.250,-31.250,-29.297,-53.711
1683642733.815,-24.902,-29.297,-26.367,-20.996
1683642733.819,-24.414,-25.391,-33.203,-27.344
1683642733.823,-38.574,-29.297,-34.668,-56.641
1683642733.827,-49.805,-28.809,-32.715,-77.148
1683642733.831,-45.898,-21.973,-29.785,-62.988
1683642733.834,-30.762,-21.484,-26.855,-31.250
1683642733.838,-25.391,-29.785,-30.762,-25.879
1683642733.842,-39.062,-41.016,-32.715,-55.176
1683642733.846,-48.828,-38.086,-31.250,-75.684
1683642733.850,-35.645,-32.715,-30.273,-60.059
1683642733.852,-14.648,-31.250,-29.297,-25.391
1683642733.856,-15.625,-23.926,-31.738,-16.602
1683642733.860,-31.738,-24.414,-33.691,-40.527
1683642733.864,-42.969,-34.180,-32.227,-60.547
1683642733.868,-40.527,-33.691,-28.809,-54.688
1683642733.872,-22.461,-27.344,-30.273,-33.203
1683642733.876,-7.812,-22.461,-30.273,-20.508
1683642733.879,-11.719,-28.320,-35.156,-40.527
1683642733.883,-24.414,-40.527,-38.574,-65.918
1683642733.887,-31.250,-37.109,-31.738,-64.453
1683642733.891,-20.020,-23.438,-30.273,-36.133
1683642733.895,-6.348,-20.996,-30.273,-22.461
1683642733.897,-13.672,-27.344,-36.133,-47.852
1683642733.901,-33.203,-32.227,-35.645,-73.730
1683642733.905,-41.504,-31.738,-30.762,-77.637
1683642733.909,-33.203,-30.273,-27.344,-52.734
1683642733.913,-27.832,-28.809,-28.320,-35.156
1683642733.917,-33.203,-30.273,-29.785,-49.316
1683642733.921,-46.387,-34.180,-28.809,-75.684
1683642733.924,-49.805,-38.574,-28.809,-79.590
1683642733.928,-44.434,-36.133,-28.320,-52.246
1683642733.932,-30.762,-29.297,-26.855,-30.273
1683642733.936,-30.762,-29.297,-25.879,-41.016
1683642733.940,-54.199,-33.691,-24.902,-66.406
1683642733.942,-58.105,-30.762,-21.973,-71.777
1683642733.946,-45.410,-25.879,-26.367,-59.082
1683642733.950,-34.668,-28.809,-27.832,-33.203
1683642733.954,-36.133,-31.250,-26.855,-27.832
1683642733.958,-45.410,-31.250,-29.785,-56.641
1683642733.962,-53.711,-31.738,-31.250,-81.055
1683642733.966,-49.316,-28.809,-30.762,-65.430
1683642733.969,-27.344,-21.973,-23.926,-32.227
1683642733.973,-19.043,-19.043,-24.902,-31.738
1683642733.977,-33.691,-29.297,-34.180,-62.988
1683642733.981,-47.363,-37.109,-32.715,-80.566
1683642733.985,-41.504,-34.180,-24.414,-58.105
1683642733.988,-26.855,-27.344,-18.555,-25.391
1683642733.992,-19.531,-22.461,-20.996,-22.461
1683642733.996,-27.832,-28.320,-22.949,-49.805
1683642734.000,-46.875,-38.086,-23.438,-68.359
1683642734.004,-43.457,-38.086,-26.367,-64.941
1683642734.008,-29.297,-32.227,-21.484,-37.109
1683642734.012,-29.297,-28.809,-19.043,-25.879
1683642734.015,-38.574,-34.668,-25.391,-61.035
1683642734.019,-45.410,-38.086,-26.855,-88.867
1683642734.023,-46.875,-37.109,-28.320,-80.566
1683642734.027,-35.645,-30.273,-28.809,-50.781
1683642734.031,-19.531,-29.785,-23.926,-21.973
1683642733.988,-26.855,-27.344,-18.555,-25.391
1683642733.992,-19.531,-22.461,-20.996,-22.461
1683642733.996,-27.832,-28.320,-22.949,-49.805
1683642734.000,-46.875,-38.086,-23.438,-68.359
1683642734.004,-43.457,-38.086,-26.367,-64.941
1683642734.008,-29.297,-32.227,-21.484,-37.109
1683642734.012,-29.297,-28.809,-19.043,-25.879
1683642734.015,-38.574,-34.668,-25.391,-61.035
1683642734.019,-45.410,-38.086,-26.855,-88.867
1683642734.023,-46.875,-37.109,-28.320,-80.566
1683642734.027,-35.645,-30.273,-28.809,-50.781
1683642734.031,-19.531,-29.785,-23.926,-21.973
1683642734.032,-22.949,-37.109,-25.879,-43.457
1683642734.036,-37.109,-34.180,-30.273,-80.078
1683642734.040,-43.945,-34.180,-20.020,-66.406
1683642734.044,-25.391,-29.297,-15.137,-34.180
1683642734.048,-10.742,-18.555,-19.531,-18.555
1683642734.052,-23.438,-22.949,-24.902,-45.898
1683642734.056,-45.410,-37.598,-27.832,-76.172
1683642734.059,-50.781,-40.527,-27.344,-73.242
1683642734.063,-28.320,-25.879,-26.367,-49.805
1683642734.067,-16.602,-19.043,-21.484,-32.715
1683642734.071,-19.531,-22.461,-22.461,-45.410
1683642734.075,-33.203,-29.297,-20.508,-69.824
1683642734.092,-43.457,-30.273,-13.184,-67.383
1683642734.096,-35.156,-26.855,-14.648,-43.945
1683642734.100,-22.949,-19.531,-14.648,-18.555
1683642734.104,-24.414,-16.113,-12.207,-20.020
1683642734.108,-49.316,-31.250,-17.578,-63.965
1683642734.112,-57.617,-32.227,-23.438,-85.449
1683642734.116,-41.992,-20.508,-19.043,-56.641
1683642734.119,-29.785,-21.973,-17.578,-28.320
1683642734.123,-24.414,-23.926,-26.855,-37.598
1683642734.127,-30.762,-29.297,-28.320,-62.988
1683642734.131,-42.480,-32.227,-24.414,-74.707
1683642734.135,-29.785,-23.926,-21.973,-60.059
1683642734.137,-12.207,-17.090,-15.625,-27.344
1683642734.141,-6.348,-16.113,-14.648,-20.020
1683642734.145,-11.719,-22.949,-23.926,-49.805
1683642734.149,-23.438,-30.762,-25.391,-74.219
1683642734.153,-32.715,-28.809,-21.484,-69.336
1683642734.157,-26.855,-19.531,-20.996,-46.387
1683642734.161,-20.996,-19.043,-26.855,-46.387
1683642734.164,-40.527,-34.668,-28.809,-72.754
1683642734.168,-57.129,-46.875,-25.391,-85.938
1683642734.172,-46.875,-36.133,-25.879,-80.566
1683642734.176,-25.879,-27.832,-23.438,-58.105
1683642734.180,-19.531,-31.738,-20.996,-43.945
1683642734.137,-12.207,-17.090,-15.625,-27.344
1683642734.141,-6.348,-16.113,-14.648,-20.020
1683642734.145,-11.719,-22.949,-23.926,-49.805
1683642734.149,-23.438,-30.762,-25.391,-74.219
1683642734.153,-32.715,-28.809,-21.484,-69.336
1683642734.157,-26.855,-19.531,-20.996,-46.387
1683642734.161,-20.996,-19.043,-26.855,-46.387
1683642734.164,-40.527,-34.668,-28.809,-72.754
1683642734.168,-57.129,-46.875,-25.391,-85.938
1683642734.172,-46.875,-36.133,-25.879,-80.566
1683642734.176,-25.879,-27.832,-23.438,-58.105
1683642734.180,-19.531,-31.738,-20.996,-43.945
1683642734.182,-33.203,-39.551,-28.320,-74.219
1683642734.186,-57.129,-49.316,-31.250,-108.887
1683642734.190,-67.383,-47.852,-20.996,-94.727
1683642734.194,-46.875,-34.180,-15.137,-63.965
1683642734.198,-28.809,-26.367,-21.973,-54.688
1683642734.202,-39.062,-35.156,-23.438,-70.801
1683642734.206,-58.594,-43.457,-26.367,-96.191
1683642734.209,-62.500,-39.062,-25.391,-92.285
1683642734.213,-43.457,-31.250,-22.461,-62.500
1683642734.217,-29.785,-31.738,-29.785,-44.434
1683642734.221,-32.227,-32.715,-32.715,-62.012
1683642734.225,-45.410,-37.598,-32.227,-89.355
1683642734.227,-44.922,-35.156,-32.227,-82.520
1683642734.231,-26.855,-25.879,-23.926,-51.758
1683642734.235,-11.230,-20.020,-17.090,-32.227
1683642734.239,-14.648,-23.926,-19.043,-41.504
1683642734.243,-29.297,-31.250,-24.902,-68.359
1683642734.247,-36.621,-31.738,-27.344,-77.637
1683642734.251,-26.367,-21.973,-23.438,-56.641
1683642734.254,-15.625,-22.461,-23.926,-33.691
1683642734.258,-17.090,-28.809,-29.785,-47.852
1683642734.262,-34.180,-34.668,-33.203,-78.125
1683642734.266,-46.387,-28.809,-27.344,-89.355
1683642734.270,-26.855,-17.578,-23.438,-70.801
1683642734.272,-7.812,-14.160,-27.832,-45.898
1683642734.276,-11.719,-21.973,-33.203,-50.293
1683642734.280,-30.762,-31.738,-30.273,-75.684
1683642734.284,-48.340,-37.109,-29.785,-95.703
1683642734.288,-34.180,-30.273,-30.273,-80.566
1683642734.292,-18.066,-20.508,-32.227,-59.570
1683642734.296,-26.855,-23.926,-31.738,-59.082
1683642734.299,-42.969,-37.109,-34.668,-85.449
1683642734.303,-52.734,-41.504,-35.156,-104.492
1683642734.307,-48.340,-36.621,-27.832,-83.496
1683642734.311,-33.691,-28.320,-24.414,-52.246
1683642734.315,-19.531,-23.438,-31.250,-47.852
1683642734.317,-35.645,-32.227,-39.551,-78.613
1683642734.321,-50.781,-34.668,-40.039,-97.656
1683642734.325,-40.039,-30.762,-35.156,-79.590
1683642734.329,-24.414,-27.344,-27.344,-41.504
1683642734.333,-20.996,-23.926,-22.949,-23.438
1683642734.337,-33.203,-25.879,-23.438,-44.922
1683642734.341,-52.246,-32.227,-24.414,-73.242
1683642734.344,-57.129,-40.527,-25.879,-74.707
1683642734.348,-39.062,-32.715,-29.785,-45.898
1683642734.352,-27.832,-21.973,-31.738,-28.809
1683642734.356,-39.551,-28.320,-30.273,-47.363
1683642734.360,-59.082,-38.574,-32.227,-77.148
1683642734.362,-59.082,-38.086,-34.180,-79.590
1683642734.366,-39.551,-33.691,-31.250,-53.711
1683642734.370,-40.039,-32.715,-26.367,-34.180
1683642734.374,-51.758,-36.133,-30.273,-60.059
1683642734.378,-61.523,-41.992,-31.738,-94.727
1683642734.382,-54.199,-31.738,-29.785,-98.145
1683642734.386,-44.434,-27.344,-28.809,-68.848
1683642734.389,-45.410,-36.133,-27.832,-37.598
1683642734.393,-43.945,-37.109,-31.738,-56.641
1683642734.397,-58.105,-41.016,-37.598,-96.680
1683642734.401,-62.012,-40.527,-35.156,-92.285
1683642734.405,-36.133,-26.367,-35.156,-59.570
1683642734.407,-12.207,-21.973,-34.668,-38.086
1683642734.411,-28.809,-24.902,-33.691,-57.129
1683642734.415,-50.293,-28.320,-36.621,-87.891
1683642734.419,-48.828,-34.668,-37.598,-85.938
1683642734.423,-35.156,-28.320,-33.203,-54.199
1683642734.427,-16.113,-15.625,-28.320,-29.785
1683642734.431,-12.207,-15.137,-31.738,-36.133
1683642734.434,-31.250,-31.738,-39.062,-63.965
1683642734.438,-49.805,-38.574,-35.156,-76.172
1683642734.442,-36.133,-29.785,-33.203,-58.594
1683642734.446,-21.484,-25.879,-34.668,-32.715
1683642734.450,-35.156,-31.738,-26.367,-27.832
1683642734.452,-46.875,-37.109,-25.879,-63.477
1683642734.456,-48.340,-38.086,-30.762,-90.820
1683642734.460,-46.387,-28.809,-26.855,-75.195
1683642734.464,-34.180,-20.996,-30.273,-49.805
1683642734.468,-29.297,-24.414,-35.645,-50.293
1683642734.472,-46.387,-34.668,-28.809,-69.824
1683642734.476,-66.406,-40.527,-28.320,-85.938
1683642734.479,-61.035,-38.086,-28.320,-78.125
1683642734.483,-35.645,-31.250,-21.973,-56.152
1683642734.487,-21.484,-27.344,-22.461,-41.016
1683642734.491,-31.250,-30.273,-18.066,-45.898
1683642734.495,-48.340,-28.320,-17.578,-79.102
1683642734.512,-47.363,-20.020,-26.367,-86.914
1683642734.516,-26.855,-21.484,-24.414,-52.734
1683642734.520,-18.555,-24.414,-26.855,-40.527
1683642734.524,-26.855,-30.273,-37.598,-61.523
1683642734.528,-48.340,-40.039,-32.715,-84.473
1683642734.532,-48.828,-35.645,-20.508,-71.777
1683642734.536,-27.832,-23.438,-21.973,-45.410
1683642734.539,-16.113,-22.949,-30.273,-39.551
1683642734.543,-28.320,-36.133,-33.203,-53.711
1683642734.547,-45.898,-43.945,-31.738,-73.242
1683642734.551,-43.945,-38.574,-27.832,-66.406
1683642734.555,-40.527,-34.180,-28.320,-43.457
1683642734.557,-30.762,-29.297,-27.344,-29.297
1683642734.561,-34.180,-35.156,-28.809,-46.387
1683642734.565,-54.688,-42.969,-27.832,-77.637
1683642734.569,-55.176,-41.016,-27.832,-77.637
1683642734.573,-38.086,-32.715,-28.809,-54.199
1683642734.577,-20.020,-25.391,-26.855,-40.527
1683642734.581,-27.832,-33.203,-25.879,-48.340
1683642734.584,-52.734,-46.875,-27.344,-67.871
1683642734.588,-47.363,-40.039,-34.180,-79.102
1683642734.592,-30.273,-28.809,-28.320,-56.152
1683642734.596,-18.066,-21.484,-17.578,-26.367
1683642734.600,-17.578,-23.438,-20.996,-28.809
1683642734.602,-30.762,-34.668,-24.414,-52.246
1683642734.606,-41.992,-35.645,-25.879,-69.336
1683642734.610,-39.062,-31.250,-29.297,-57.129
1683642734.614,-19.531,-28.320,-23.438,-24.902
1683642734.618,-18.066,-28.809,-26.855,-28.809
1683642734.622,-36.133,-33.691,-36.133,-54.688
1683642734.626,-44.922,-41.016,-30.273,-61.523
1683642734.629,-34.180,-31.738,-28.809,-54.199
1683642734.633,-18.555,-21.484,-24.414,-36.621
1683642734.637,-31.250,-31.738,-24.414,-39.062
1683642734.641,-46.387,-34.180,-28.320,-62.988
1683642734.645,-56.152,-34.668,-23.926,-72.754
1683642734.647,-52.246,-25.879,-24.902,-60.059
1683642734.651,-34.668,-16.602,-23.926,-30.273
1683642734.655,-34.668,-25.879,-18.555,-12.207
1683642734.659,-47.852,-33.691,-20.508,-42.480
1683642734.663,-58.594,-32.715,-26.367,-77.637
1683642734.667,-55.664,-37.109,-29.297,-70.312
1683642734.671,-41.504,-31.738,-24.902,-38.086
1683642734.674,-26.855,-25.879,-24.902,-26.855
1683642734.678,-40.527,-40.527,-27.832,-46.875
1683642734.682,-55.176,-51.270,-32.715,-77.637
1683642734.686,-48.340,-43.457,-35.156,-71.289
1683642734.690,-34.180,-35.156,-32.227,-39.062
1683642734.692,-14.648,-31.738,-34.180,-24.414
1683642734.696,-20.996,-41.504,-36.621,-39.062
1683642734.700,-43.457,-53.223,-34.668,-62.988
1683642734.704,-47.363,-44.434,-35.156,-61.523
1683642734.708,-28.809,-31.250,-36.621,-43.945
1683642734.712,-16.113,-25.391,-28.809,-21.973
1683642734.716,-20.020,-26.855,-21.973,-17.578
1683642734.719,-31.250,-34.180,-31.250,-46.875
1683642734.723,-40.039,-37.109,-38.086,-59.570
1683642734.727,-27.344,-30.273,-30.762,-39.062
1683642734.731,-14.648,-26.855,-28.320,-20.020
1683642734.735,-24.414,-31.250,-28.809,-37.109
1683642734.737,-38.574,-34.668,-31.250,-74.219
1683642734.741,-47.852,-36.621,-35.156,-79.590
1683642734.745,-41.016,-34.668,-28.320,-41.992
1683642734.749,-20.508,-30.762,-25.391,-10.254
1683642734.753,-28.320,-34.668,-32.715,-24.414
1683642734.757,-47.363,-38.574,-40.527,-62.988
1683642734.761,-57.129,-42.480,-38.574,-74.219
1683642734.764,-51.758,-39.062,-25.879,-44.434
1683642734.768,-27.832,-26.855,-20.996,-14.648
1683642734.772,-23.438,-29.785,-29.297,-28.320
1683642734.776,-44.922,-37.109,-34.180,-64.941
1683642734.780,-53.711,-33.203,-33.203,-67.383
1683642734.782,-46.387,-25.391,-33.203,-43.457
1683642734.786,-37.109,-28.809,-33.203,-20.996
1683642734.790,-30.762,-32.715,-32.227,-21.484
1683642734.794,-37.598,-34.668,-37.598,-45.410
1683642734.798,-54.688,-39.062,-40.527,-57.617
1683642734.802,-51.270,-38.086,-36.133,-39.551
1683642734.806,-26.367,-25.879,-41.016,-25.391
1683642734.809,-30.273,-30.273,-43.457,-24.902
1683642734.813,-52.246,-46.875,-41.016,-38.086
1683642734.817,-55.176,-50.781,-44.434,-53.711
1683642734.821,-49.316,-38.574,-41.016,-45.898
1683642734.825,-45.898,-28.809,-41.992,-28.809
1683642734.842,-41.992,-32.227,-46.875,-23.438
1683642734.846,-52.734,-41.016,-47.363,-45.410
1683642734.850,-66.895,-40.527,-45.898,-70.801
1683642734.854,-57.129,-37.109,-47.852,-63.965
1683642734.858,-37.109,-32.227,-42.969,-32.227
1683642734.862,-23.438,-30.762,-36.133,-14.648
1683642734.866,-32.227,-38.086,-36.133,-33.203
1683642734.869,-54.688,-45.410,-34.668,-59.082
1683642734.873,-51.758,-38.574,-35.645,-57.617
1683642734.877,-30.762,-27.344,-34.668,-31.738
1683642734.881,-24.902,-23.926,-27.832,-12.207
1683642734.885,-32.227,-33.203,-31.738,-17.578
1683642734.887,-35.645,-41.992,-39.551,-38.574
1683642734.891,-35.645,-35.156,-34.668,-36.621
1683642734.895,-23.926,-31.738,-26.855,-8.789
1683642734.899,-12.207,-33.203,-29.297,1.953
1683642734.903,-18.555,-27.344,-36.621,-17.578
1683642734.907,-43.457,-32.227,-34.668,-37.109
1683642734.911,-57.129,-39.551,-36.621,-42.969
1683642734.914,-39.062,-32.227,-39.551,-17.090
1683642734.918,-20.996,-26.367,-35.645,4.395
1683642734.922,-26.855,-31.250,-38.086,-12.695
1683642734.926,-38.574,-37.109,-38.086,-31.738
1683642734.930,-43.945,-42.480,-36.621,-38.086
1683642734.932,-33.691,-37.598,-37.598,-18.555
1683642734.936,-21.973,-26.367,-33.691,8.301
1683642734.940,-29.297,-29.785,-31.250,8.301
1683642734.944,-46.875,-43.457,-35.156,-24.902
1683642734.948,-53.223,-45.898,-39.062,-47.363
1683642734.952,-41.016,-41.016,-37.109,-17.578
1683642734.956,-31.250,-34.668,-31.738,18.066
1683642734.959,-32.227,-39.062,-30.762,16.113
1683642734.963,-39.551,-45.898,-37.109,-12.207
1683642734.967,-45.898,-44.922,-38.086,-23.926
1683642734.971,-41.016,-40.527,-32.227,0.000
1683642734.975,-28.320,-32.227,-31.738,28.809
1683642734.977,-23.926,-28.809,-32.227,33.691
1683642734.981,-28.809,-34.668,-33.691,10.742
1683642734.985,-43.945,-34.668,-33.203,-8.789
1683642734.989,-47.852,-34.180,-36.133,2.441
1683642734.993,-22.949,-31.738,-34.180,35.645
1683642734.997,-16.113,-22.461,-31.250,51.758
1683642735.001,-35.156,-27.344,-38.086,34.180
1683642735.004,-44.922,-40.039,-41.016,16.113
1683642735.008,-49.805,-43.457,-39.062,19.531
1683642735.012,-39.551,-34.668,-35.156,41.992
1683642735.016,-23.926,-22.949,-34.180,60.547
1683642735.020,-33.691,-30.273,-30.273,45.898
1683642735.022,-50.781,-38.086,-25.879,14.648
1683642735.026,-55.176,-35.645,-19.043,25.391
1683642735.030,-44.434,-29.297,-13.184,56.152
1683642735.034,-26.367,-24.902,-20.996,64.941
1683642735.038,-41.504,-37.598,-30.762,46.387
1683642735.042,-55.664,-45.410,-33.691,21.484
1683642735.046,-44.922,-37.598,-30.273,30.273
1683642735.049,-42.480,-41.016,-34.180,64.941
1683642735.053,-33.691,-43.457,-39.551,89.844
1683642735.057,-30.273,-44.434,-29.785,85.938
1683642735.061,-40.527,-49.316,-29.785,59.082
1683642735.065,-37.109,-41.016,-42.480,38.086
1683642735.067,-26.367,-35.156,-39.062,65.918
1683642735.071,-13.672,-28.809,-32.227,97.656
1683642735.075,-11.719,-25.879,-30.273,96.680
1683642735.079,-30.762,-37.598,-31.250,69.824
1683642735.083,-40.527,-42.480,-34.180,53.223
1683642735.087,-30.273,-36.133,-32.227,79.590
1683642735.091,-21.973,-30.762,-25.879,112.305
1683642735.094,-20.996,-36.133,-21.973,107.422
1683642735.098,-27.832,-38.086,-29.297,67.871
1683642735.102,-39.551,-38.574,-30.762,47.852
1683642735.106,-40.527,-36.621,-16.113,77.148
1683642735.110,-31.250,-27.344,-20.996,99.609
1683642735.112,-30.762,-23.926,-31.250,87.891
1683642735.116,-46.387,-32.715,-27.832,58.594
1683642735.120,-52.734,-33.203,-30.762,37.598
1683642735.124,-48.828,-32.715,-24.902,66.406
1683642735.128,-38.574,-34.668,-15.137,100.098
1683642735.132,-26.367,-26.855,-23.438,87.402
1683642735.136,-32.715,-31.250,-34.668,51.758
1683642735.139,-49.805,-47.852,-37.109,25.879
1683642735.143,-42.480,-41.992,-30.762,37.598
1683642735.147,-29.785,-35.645,-21.973,64.941
1683642735.151,-18.555,-30.762,-22.461,73.730
1683642735.155,-14.160,-22.949,-31.250,52.246
1683642735.157,-40.039,-31.738,-34.668,25.391
1683642735.161,-47.852,-30.273,-28.320,34.180
1683642735.165,-32.227,-29.297,-27.344,69.336
1683642735.169,-32.715,-34.180,-28.809,89.844
1683642735.173,-43.945,-35.645,-31.250,74.219
1683642735.177,-53.711,-36.133,-27.832,58.594
1683642735.181,-41.992,-25.879,-26.367,62.500
1683642735.184,-29.785,-22.949,-24.414,90.820
1683642735.188,-32.227,-30.273,-19.531,110.840
1683642735.192,-43.945,-40.039,-28.809,83.496
1683642735.196,-53.223,-42.480,-38.574,50.781
1683642735.200,-44.434,-41.016,-35.645,60.059
1683642735.202,-34.180,-41.504,-36.621,81.055
1683642735.206,-32.227,-38.574,-37.598,85.449
1683642735.210,-41.016,-43.945,-27.832,86.914
1683642735.214,-60.059,-54.688,-28.320,64.941
1683642735.218,-62.500,-53.223,-34.668,45.898
1683642735.222,-38.574,-35.156,-36.621,65.918
1683642735.226,-20.996,-25.879,-31.738,101.074
1683642735.229,-32.227,-37.598,-34.668,88.867
1683642735.233,-47.852,-44.922,-45.410,45.410
1683642735.237,-53.223,-41.992,-40.039,41.504
1683642735.241,-42.480,-36.621,-32.715,68.359
1683642735.245,-21.973,-28.320,-29.785,89.355
1683642735.202,-34.180,-41.504,-36.621,81.055
1683642735.206,-32.227,-38.574,-37.598,85.449
1683642735.210,-41.016,-43.945,-27.832,86.914
1683642735.214,-60.059,-54.688,-28.320,64.941
1683642735.218,-62.500,-53.223,-34.668,45.898
1683642735.222,-38.574,-35.156,-36.621,65.918
1683642735.226,-20.996,-25.879,-31.738,101.074
1683642735.229,-32.227,-37.598,-34.668,88.867
1683642735.233,-47.852,-44.922,-45.410,45.410
1683642735.237,-53.223,-41.992,-40.039,41.504
1683642735.241,-42.480,-36.621,-32.715,68.359
1683642735.245,-21.973,-28.320,-29.785,89.355
1683642735.262,-11.719,-23.926,-29.297,87.891
1683642735.266,-35.645,-36.133,-34.180,67.871
1683642735.270,-55.664,-42.969,-36.133,46.875
1683642735.274,-26.855,-31.738,-31.250,60.547
1683642735.278,-3.418,-25.391,-22.949,104.004
1683642735.282,-13.184,-38.086,-20.508,107.910
1683642735.286,-20.020,-37.109,-23.438,74.219
1683642735.289,-20.996,-35.645,-24.902,61.035
1683642735.293,-19.531,-38.086,-26.855,72.266
1683642735.297,-5.371,-27.344,-27.344,101.562
1683642735.301,-6.836,-25.879,-25.391,108.398
1683642735.305,-21.484,-37.109,-28.320,69.336
1683642735.307,-27.832,-41.016,-30.762,48.340
1683642735.311,-21.484,-32.227,-22.949,66.895
1683642735.315,-1.953,-22.949,-17.578,97.656
1683642735.319,1.953,-27.344,-19.043,113.281
1683642735.323,-4.395,-34.668,-21.973,91.797
1683642735.327,-16.602,-33.203,-26.367,64.941
1683642735.331,-18.066,-29.785,-22.461,75.195
1683642735.334,-0.977,-30.762,-18.555,103.516
1683642735.338,14.160,-26.855,-29.785,104.492
1683642735.342,-0.977,-30.762,-40.039,80.566
1683642735.346,-22.461,-38.574,-38.574,53.223
1683642735.350,-16.113,-37.109,-34.180,54.688
1683642735.352,-8.789,-30.273,-28.320,95.703
1683642735.356,-0.977,-24.902,-25.391,122.070
1683642735.360,-9.277,-24.414,-29.297,93.750
1683642735.364,-27.832,-29.785,-34.180,58.594
1683642735.368,-30.273,-29.297,-33.203,59.082
1683642735.372,-24.414,-25.391,-27.832,85.449
1683642735.376,-12.695,-20.996,-15.625,119.629
1683642735.379,-23.926,-25.391,-17.578,99.121
1683642735.383,-47.363,-33.691,-27.344,47.363
1683642735.387,-44.434,-24.902,-20.508,46.387
1683642735.391,-49.805,-20.508,-9.766,72.754
1683642735.395,-64.453,-23.438,-11.230,76.172
1683642735.352,-8.789,-30.273,-28.320,95.703
1683642735.356,-0.977,-24.902,-25.391,122.070
1683642735.360,-9.277,-24.414,-29.297,93.750
1683642735.364,-27.832,-29.785,-34.180,58.594
1683642735.368,-30.273,-29.297,-33.203,59.082
1683642735.372,-24.414,-25.391,-27.832,85.449
1683642735.376,-12.695,-20.996,-15.625,119.629
1683642735.379,-23.926,-25.391,-17.578,99.121
1683642735.383,-47.363,-33.691,-27.344,47.363
1683642735.387,-44.434,-24.902,-20.508,46.387
1683642735.391,-49.805,-20.508,-9.766,72.754
1683642735.395,-64.453,-23.438,-11.230,76.172
1683642735.397,-71.289,-31.250,-17.578,51.270
1683642735.401,-93.750,-37.109,-11.230,24.902
1683642735.405,-126.465,-37.109,-7.812,1.953
1683642735.409,-141.602,-37.598,-11.230,-2.441
1683642735.413,-146.484,-38.086,-6.348,5.859
1683642735.417,-167.969,-46.387,-10.254,-26.367
1683642735.421,-202.148,-59.082,-11.230,-70.312
1683642735.424,-225.586,-69.824,-9.277,-91.797
1683642735.428,-227.539,-73.242,-4.883,-84.473
1683642735.432,-221.680,-67.871,2.930,-65.918
1683642735.436,-227.051,-67.383,-0.977,-77.148
1683642735.440,-242.188,-74.219,-6.348,-109.863
1683642735.442,-245.117,-74.219,-6.348,-120.117
1683642735.446,-223.633,-68.359,-0.977,-93.262
1683642735.450,-206.543,-66.406,4.883,-50.781
1683642735.454,-197.754,-69.824,1.953,-42.480
1683642735.458,-202.148,-75.195,-0.977,-64.453
1683642735.462,-201.660,-70.801,1.465,-73.242
1683642735.466,-178.223,-62.988,-0.977,-51.270
1683642735.469,-156.250,-63.965,-4.883,-14.160
1683642735.473,-140.137,-62.012,-3.418,9.277
1683642735.477,-129.395,-66.406,-6.836,-0.488
1683642735.481,-129.883,-66.895,-13.672,-16.113
1683642735.485,-123.047,-65.430,-14.648,2.930
1683642735.487,-92.285,-62.012,-10.254,47.363
1683642735.491,-64.941,-51.270,-12.695,64.453
1683642735.495,-65.430,-52.734,-14.648,47.363
1683642735.499,-78.125,-60.059,-16.602,31.738
1683642735.503,-68.359,-57.129,-24.902,52.734
1683642735.507,-47.363,-47.852,-23.926,96.680
1683642735.511,-27.832,-40.039,-28.320,120.605
1683642735.514,-18.066,-42.480,-35.645,113.770
1683642735.518,-25.879,-49.805,-32.227,100.098
1683642735.522,-23.438,-49.316,-27.344,107.910
1683642735.526,4.395,-33.691,-21.973,145.996
1683642735.530,15.137,-29.785,-18.066,167.480
1683642735.532,9.766,-35.645,-22.949,153.809
1683642735.536,3.906,-34.668,-33.691,121.094
1683642735.540,4.883,-34.668,-39.551,116.211
1683642735.544,19.531,-37.109,-32.227,155.273
1683642735.548,33.691,-28.320,-27.832,173.340
1683642735.552,34.668,-23.926,-37.109,154.785
1683642735.556,17.578,-34.668,-40.527,132.324
1683642735.559,9.277,-38.086,-35.645,131.348
1683642735.563,22.461,-33.203,-35.645,154.297
1683642735.567,38.086,-28.320,-35.156,177.246
1683642735.571,38.574,-29.785,-31.250,174.316
1683642735.575,28.809,-34.180,-37.109,143.066
1683642735.592,26.855,-29.785,-40.039,129.395
1683642735.596,40.527,-25.391,-30.762,165.039
1683642735.600,60.059,-15.137,-21.973,199.219
1683642735.604,66.895,-11.230,-24.414,195.312
1683642735.608,41.992,-31.250,-26.367,172.363
1683642735.612,23.438,-38.086,-25.391,158.691
1683642735.616,46.875,-16.113,-31.738,172.363
1683642735.619,65.430,-16.113,-27.344,211.426
1683642735.623,57.617,-26.855,-23.438,226.562
1683642735.627,38.574,-30.762,-27.832,197.266
1683642735.631,27.832,-33.691,-24.902,180.176
1683642735.635,36.621,-25.879,-24.902,192.871
1683642735.637,64.453,-15.137,-28.809,220.215
1683642735.641,70.312,-16.602,-28.320,232.422
1683642735.645,46.387,-25.391,-28.320,208.984
1683642735.649,24.414,-38.574,-32.227,183.594
1683642735.653,36.133,-35.645,-37.109,190.918
1683642735.657,67.871,-17.578,-35.645,225.586
1683642735.661,59.570,-25.391,-27.832,244.141
1683642735.664,38.574,-38.574,-23.926,218.262
1683642735.668,25.879,-43.945,-32.227,176.270
1683642735.672,21.973,-41.992,-37.109,174.316
1683642735.676,35.645,-31.250,-27.344,205.566
1683642735.680,47.363,-28.809,-28.809,211.914
1683642735.682,35.156,-30.762,-36.621,187.988
1683642735.686,12.695,-38.086,-38.574,158.203
1683642735.690,9.277,-37.598,-33.203,163.574
1683642735.694,23.926,-29.297,-27.344,195.801
1683642735.698,43.457,-19.531,-27.832,212.402
1683642735.702,40.527,-20.508,-28.320,197.754
1683642735.706,14.160,-36.133,-28.809,165.527
1683642735.709,6.836,-40.039,-30.762,158.203
1683642735.713,20.996,-35.156,-32.715,184.082
1683642735.717,30.762,-34.180,-34.668,202.637
1683642735.721,30.273,-31.738,-39.062,189.453
1683642735.725,18.555,-36.133,-41.992,165.527
1683642735.727,11.719,-41.504,-41.504,152.344
1683642735.731,20.508,-32.715,-40.527,167.480
1683642735.735,27.832,-29.297,-39.062,185.547
1683642735.739,32.715,-37.109,-36.133,185.059
1683642735.743,22.949,-36.133,-34.668,161.621
1683642735.747,0.000,-37.109,-38.086,133.301
1683642735.751,5.859,-34.180,-38.574,149.414
1683642735.754,29.297,-27.832,-34.668,179.688
1683642735.758,18.555,-32.227,-38.086,158.691
1683642735.762,3.418,-35.645,-39.062,127.930
1683642735.766,-3.906,-37.598,-35.156,116.211
1683642735.770,2.441,-29.785,-32.715,130.371
1683642735.772,16.113,-32.715,-29.785,158.203
1683642735.776,11.719,-38.574,-25.879,159.180
1683642735.780,-3.418,-30.762,-27.832,122.070
1683642735.784,-18.555,-35.156,-29.297,97.656
1683642735.788,-12.695,-35.645,-24.414,109.863
1683642735.792,4.395,-23.438,-20.020,144.043
1683642735.796,8.789,-17.578,-18.066,158.203
1683642735.799,-5.371,-33.691,-27.832,117.676
1683642735.803,-13.672,-47.852,-32.227,95.703
1683642735.807,3.418,-41.504,-21.484,129.395
1683642735.811,19.043,-25.391,-21.484,157.715
1683642735.815,20.020,-20.020,-25.391,145.508
1683642735.817,20.020,-26.855,-24.414,116.699
1683642735.821,15.137,-27.344,-25.879,102.051
1683642735.825,14.160,-26.855,-21.973,107.910
1683642735.829,36.133,-21.484,-20.508,137.695
1683642735.833,51.270,-17.578,-21.484,152.344
1683642735.837,34.668,-28.320,-20.996,134.766
1683642735.841,18.066,-31.738,-23.438,117.676
1683642735.844,18.066,-31.738,-22.949,122.070
1683642735.848,33.203,-26.855,-25.879,144.043
1683642735.852,46.387,-21.484,-23.926,156.738
1683642735.856,36.133,-25.391,-23.926,131.836
1683642735.860,19.043,-32.227,-29.785,96.191
1683642735.862,6.836,-40.527,-25.879,101.562
1683642735.866,20.020,-34.668,-24.414,130.859
1683642735.870,36.133,-23.926,-24.414,140.625
1683642735.874,20.508,-32.715,-25.391,119.141
1683642735.878,-6.836,-39.551,-29.297,79.102
1683642735.882,-8.789,-38.086,-32.227,66.406
1683642735.886,6.348,-32.227,-30.762,98.145
1683642735.889,11.230,-31.738,-28.809,122.559
1683642735.893,11.719,-30.273,-25.879,115.234
1683642735.897,3.906,-31.738,-23.926,95.215
1683642735.901,-1.953,-33.691,-25.879,82.031
1683642735.905,4.883,-29.785,-28.320,99.121
1683642735.862,6.836,-40.527,-25.879,101.562
1683642735.866,20.020,-34.668,-24.414,130.859
1683642735.870,36.133,-23.926,-24.414,140.625
1683642735.874,20.508,-32.715,-25.391,119.141
1683642735.878,-6.836,-39.551,-29.297,79.102
1683642735.882,-8.789,-38.086,-32.227,66.406
1683642735.886,6.348,-32.227,-30.762,98.145
1683642735.889,11.230,-31.738,-28.809,122.559
1683642735.893,11.719,-30.273,-25.879,115.234
1683642735.897,3.906,-31.738,-23.926,95.215
1683642735.901,-1.953,-33.691,-25.879,82.031
1683642735.905,4.883,-29.785,-28.320,99.121
1683642735.907,18.555,-25.391,-30.762,118.652
1683642735.911,21.973,-26.855,-29.785,115.723
1683642735.915,13.184,-34.668,-30.762,93.750
1683642735.919,2.930,-38.086,-30.273,75.684
1683642735.923,6.836,-31.250,-30.762,91.797
1683642735.927,19.531,-23.926,-29.297,113.281
1683642735.931,22.461,-25.391,-27.344,111.328
1683642735.934,5.859,-39.062,-37.598,78.613
1683642735.938,-12.695,-46.387,-39.062,57.129
1683642735.942,-4.883,-39.062,-25.879,84.473
1683642735.946,16.113,-29.785,-19.043,112.305
1683642735.950,21.973,-27.832,-18.555,113.281
1683642735.967,6.348,-34.668,-28.320,83.008
1683642735.971,-9.277,-38.574,-35.156,55.664
1683642735.975,-5.371,-33.203,-28.320,74.707
1683642735.979,9.277,-29.785,-26.367,104.980
1683642735.983,16.113,-28.809,-27.344,107.422
1683642735.987,-7.324,-34.668,-23.438,79.102
1683642735.991,-27.832,-41.016,-24.414,51.758
1683642735.994,-18.555,-38.574,-28.320,62.988
1683642735.998,0.977,-29.785,-20.996,106.445
1683642736.002,6.348,-28.809,-19.531,114.746
1683642736.006,-4.395,-38.086,-25.879,75.684
1683642736.010,-16.602,-42.969,-26.367,58.594
1683642736.012,-20.508,-38.086,-26.367,63.965
1683642736.016,-3.906,-26.367,-25.879,85.938
1683642736.020,16.602,-23.926,-29.785,97.168
1683642736.024,7.324,-35.645,-35.156,79.102
1683642736.028,-15.137,-39.551,-32.715,57.617
1683642736.032,-15.137,-38.574,-28.320,53.223
1683642736.036,6.836,-28.320,-24.414,75.684
1683642736.039,24.902,-22.461,-23.926,87.891
1683642736.043,17.578,-34.180,-28.809,66.895
1683642736.047,5.371,-39.062,-30.273,42.969
