timestamps,TP9,AF7,AF8,TP10
1683634000.695,-63.477,-60.059,-49.805,-70.312
1683634000.699,-52.246,-54.199,-37.598,-44.922
1683634000.703,-11.719,-33.691,-20.996,-8.301
1683634000.707,-0.488,-29.297,-17.578,0.977
1683634000.711,-23.438,-44.434,-33.203,-26.855
1683634000.715,-49.316,-62.012,-51.270,-52.734
1683634000.719,-40.527,-52.246,-48.340,-40.039
1683634000.722,-9.277,-29.297,-25.391,0.000
1683634000.726,-3.906,-26.855,-20.020,10.742
1683634000.730,-22.949,-40.039,-29.785,-15.625
1683634000.734,-44.434,-49.805,-37.109,-42.969
1683634000.738,-49.316,-58.105,-35.156,-38.574
1683634000.739,-29.297,-49.805,-26.367,-5.371
1683634000.743,-14.648,-33.203,-24.902,7.324
1683634000.747,-31.738,-43.457,-36.621,-23.926
1683634000.751,-60.059,-52.246,-50.293,-54.199
1683634000.755,-58.594,-52.246,-43.457,-46.875
1683634000.759,-30.273,-33.203,-27.832,-15.137
1683634000.763,-13.184,-12.207,-18.066,-2.930
1683634000.766,-31.250,-29.785,-34.668,-38.574
1683634000.770,-62.988,-57.129,-54.688,-70.801
1683634000.774,-69.336,-64.453,-45.898,-60.059
1683634000.778,-44.922,-44.922,-29.297,-28.320
1683634000.782,-21.973,-23.926,-21.484,-4.883
1683634000.784,-24.414,-28.320,-29.297,-22.949
1683634000.788,-43.457,-53.711,-46.387,-55.176
1683634000.792,-49.316,-67.383,-48.340,-55.176
1683634000.796,-30.273,-51.270,-38.574,-25.391
1683634000.800,0.977,-22.461,-15.137,13.184
1683634000.804,1.953,-9.277,-23.438,3.906
1683634000.808,-32.227,-33.691,-106.445,-47.363
1683634000.811,-54.688,-63.477,-94.727,-64.453
1683634000.815,-43.457,-61.035,-35.156,-32.715
1683634000.819,-16.113,-36.133,-22.949,1.953
1683634000.823,-7.324,-22.949,-24.902,-1.465
1683634000.827,-33.691,-43.945,-45.898,-38.086
1683634000.829,-64.453,-62.012,-50.293,-56.641
1683634000.833,-53.711,-53.223,-37.598,-33.203
1683634000.837,-29.785,-32.715,-23.926,-2.930
1683634000.841,-25.391,-29.785,-22.949,-7.324
1683634000.845,-41.504,-45.898,-30.273,-38.086
1683634000.849,-64.453,-54.199,-48.340,-63.965
1683634000.853,-54.199,-41.992,-58.105,-52.734
1683634000.856,-27.344,-29.297,-29.297,-20.020
1683634000.860,-21.973,-25.391,-24.414,-20.996
1683634000.864,-39.062,-41.504,-57.129,-54.199
1683634000.868,-60.547,-59.082,-65.430,-75.684
1683634000.872,-61.035,-63.965,-41.992,-58.105
1683634000.889,-33.203,-38.086,-22.461,-18.555
1683634000.893,-18.066,-20.020,-23.438,-3.418
1683634000.897,-39.062,-39.551,-40.039,-33.203
1683634000.901,-57.617,-47.363,-46.387,-57.129
1683634000.905,-56.641,-38.574,-40.527,-41.992
1683634000.909,-36.133,-25.391,-28.320,-7.812
1683634000.913,-15.137,-17.090,-22.949,3.906
1683634000.916,-25.879,-32.715,-35.156,-29.785
1683634000.920,-56.641,-59.570,-56.152,-65.430
1683634000.924,-68.848,-69.824,-73.730,-62.012
1683634000.928,-47.852,-40.527,-41.016,-27.344
1683634000.932,-26.855,-13.184,-16.602,-7.812
1683634000.934,-32.715,-25.879,-31.250,-24.414
1683634000.938,-62.012,-50.781,-50.293,-61.035
1683634000.942,-71.289,-53.711,-47.852,-65.918
1683634000.946,-48.828,-39.062,-29.297,-28.320
1683634000.950,-29.297,-23.438,-23.926,-7.812
1683634000.954,-24.902,-16.602,-32.715,-21.973
1683634000.958,-43.945,-31.738,-43.457,-48.828
1683634000.961,-60.059,-55.664,-44.922,-53.711
1683634000.965,-41.992,-50.293,-41.504,-20.996
1683634000.969,-20.508,-30.273,-39.062,0.488
1683634000.973,-25.391,-29.785,-32.715,-17.090
1683634000.977,-50.293,-45.898,-39.062,-48.340
1683634000.979,-71.289,-55.176,-41.992,-58.105
1683634000.983,-53.711,-49.805,-32.715,-30.762
1683634000.987,-19.531,-34.180,-11.719,6.836
1683634000.991,-13.184,-29.297,-11.230,4.395
1683634000.995,-37.109,-45.898,-36.133,-33.691
1683634000.999,-56.152,-55.176,-43.457,-52.734
1683634001.003,-45.898,-48.340,-30.273,-34.180
1683634001.006,-16.602,-29.785,-16.602,-1.465
1683634001.010,-13.672,-32.227,-15.625,-6.348
1683634001.014,-44.922,-44.922,-31.250,-43.457
1683634001.018,-70.312,-51.270,-42.480,-68.359
1683634001.022,-67.383,-53.223,-37.598,-56.641
1683634001.024,-46.875,-43.945,-27.344,-26.367
1683634001.028,-35.156,-31.250,-26.367,-20.508
1683634001.032,-54.199,-36.133,-38.574,-46.875
1683634001.036,-74.219,-47.363,-48.340,-67.871
1683634001.040,-64.941,-50.293,-41.016,-52.246
1683634001.044,-39.551,-36.133,-31.250,-16.602
1683634001.048,-28.320,-16.602,-24.902,-5.371
1683634001.051,-41.992,-35.156,-48.340,-37.598
1683634001.055,-61.035,-59.570,-66.895,-64.941
1683634001.059,-58.105,-57.129,-41.016,-46.875
1683634001.063,-33.691,-37.109,-22.461,-14.648
1683634001.067,-16.113,-19.531,-23.926,-6.836
1683634001.069,-30.273,-27.344,-38.086,-40.527
1683634001.073,-56.152,-49.316,-49.805,-72.266
1683634001.077,-57.617,-55.176,-44.922,-65.430
1683634001.081,-39.062,-38.574,-32.227,-37.109
1683634001.085,-23.926,-25.391,-28.809,-20.508
1683634001.089,-27.344,-21.973,-37.109,-33.691
1683634001.093,-53.711,-34.180,-56.641,-69.336
1683634001.096,-68.848,-53.711,-62.988,-72.754
1683634001.100,-55.176,-57.129,-34.180,-41.504
1683634001.104,-42.480,-41.992,-16.602,-20.508
1683634001.108,-45.410,-29.297,-20.996,-34.180
1683634001.112,-70.801,-47.852,-34.668,-63.965
1683634001.114,-89.355,-67.383,-36.133,-68.359
1683634001.118,-66.406,-63.477,-23.926,-42.480
1683634001.122,-41.992,-51.758,-18.066,-14.648
1683634001.126,-39.062,-39.062,-18.066,-16.113
1683634001.130,-49.316,-51.758,-32.227,-45.898
1683634001.134,-62.500,-59.082,-43.945,-54.688
1683634001.138,-48.340,-49.805,-41.016,-25.391
1683634001.141,-17.578,-45.898,-36.133,0.488
1683634001.145,-13.184,-39.062,-32.715,-10.254
1683634001.149,-42.969,-59.082,-48.828,-47.852
1683634001.153,-58.105,-70.801,-56.641,-56.641
1683634001.157,-47.363,-56.641,-40.039,-29.785
1683634001.159,-26.367,-38.574,-27.344,-6.836
1683634001.163,-20.020,-31.250,-30.273,-13.184
1683634001.167,-41.992,-47.363,-41.504,-48.828
1683634001.171,-57.129,-59.082,-46.387,-69.336
1683634001.175,-49.316,-46.387,-33.691,-46.875
1683634001.179,-28.320,-16.113,-21.973,-19.043
1683634001.183,-28.809,-15.625,-51.270,-33.203
1683634001.186,-46.875,-39.062,-58.594,-67.383
1683634001.190,-61.035,-55.176,-51.270,-85.938
1683634001.194,-51.758,-50.781,-47.363,-64.453
1683634001.198,-24.902,-21.484,-34.180,-23.926
1683634001.202,-14.160,-17.578,-43.457,-17.578
1683634001.204,-32.227,-42.969,-54.688,-44.434
1683634001.208,-58.105,-60.547,-63.965,-66.406
1683634001.212,-52.734,-54.199,-51.270,-43.945
1683634001.216,-27.344,-31.738,-26.855,-6.836
1683634001.220,-15.137,-23.438,-22.949,1.465
1683634001.224,-31.738,-29.785,-36.621,-24.414
1683634001.228,-58.594,-43.457,-52.246,-56.152
1683634001.231,-65.918,-63.965,-46.875,-59.082
1683634001.235,-44.434,-49.805,-25.879,-26.367
1683634001.239,-21.484,-25.879,-16.113,-4.883
1683634001.243,-35.645,-42.969,-27.344,-39.062
1683634001.247,-57.617,-64.941,-43.945,-76.660
1683634001.264,-61.523,-61.035,-47.363,-72.266
1683634001.268,-37.598,-31.250,-28.320,-39.062
1683634001.272,-23.926,-24.902,-18.066,-20.996
1683634001.276,-41.504,-38.086,-37.109,-35.156
1683634001.280,-75.684,-57.129,-60.547,-76.172
1683634001.284,-86.914,-63.965,-58.105,-85.449
1683634001.288,-66.895,-48.828,-37.598,-49.805
1683634001.291,-39.551,-36.133,-25.879,-22.461
1683634001.295,-36.621,-38.086,-31.738,-35.156
1683634001.299,-61.523,-56.641,-41.992,-64.941
1683634001.303,-69.336,-60.059,-44.922,-68.848
1683634001.307,-52.246,-49.805,-38.086,-45.410
1683634001.309,-34.180,-36.621,-30.273,-20.020
1683634001.313,-27.832,-31.738,-28.320,-16.602
1683634001.317,-45.410,-45.898,-44.922,-46.875
1683634001.321,-62.500,-57.617,-52.246,-61.523
1683634001.325,-50.293,-44.922,-38.574,-39.551
1683634001.329,-26.367,-23.438,-21.484,-11.230
1683634001.333,-22.949,-14.648,-24.902,-14.160
1683634001.336,-49.805,-32.715,-41.504,-50.293
1683634001.340,-67.383,-55.664,-69.336,-64.453
1683634001.344,-56.641,-56.641,-78.613,-45.410
1683634001.348,-33.691,-29.297,-32.227,-17.090
1683634001.352,-24.414,-21.484,-27.832,-17.578
1683634001.354,-41.016,-40.527,-48.828,-44.434
1683634001.358,-64.453,-61.523,-51.270,-66.406
1683634001.362,-67.871,-62.500,-43.945,-62.988
1683634001.366,-38.086,-35.645,-28.320,-25.391
1683634001.370,-14.648,-19.531,-21.973,-7.324
1683634001.374,-36.621,-28.809,-35.645,-40.039
1683634001.378,-62.012,-32.715,-43.457,-66.406
1683634001.381,-56.641,-24.902,-41.992,-53.223
1683634001.385,-35.645,-29.297,-66.406,-24.902
1683634001.389,-20.020,-25.879,-47.363,-20.996
1683634001.393,-30.273,-23.438,-27.832,-44.434
1683634001.397,-58.594,-43.945,-43.945,-65.918
1683634001.399,-60.059,-57.129,-42.480,-59.082
1683634001.403,-33.691,-45.410,-23.438,-20.996
1683634001.407,-22.949,-23.438,-10.254,3.418
1683634001.411,-35.645,-26.855,-21.973,-18.555
1683634001.415,-62.500,-50.781,-40.039,-56.152
1683634001.419,-70.312,-57.617,-39.062,-52.734
1683634001.423,-43.945,-43.457,-15.137,-17.578
1683634001.426,-24.414,-27.344,-24.414,-2.441
1683634001.430,-35.645,-28.809,-47.852,-22.461
1683634001.434,-66.406,-48.340,-39.062,-60.547
1683634001.438,-80.078,-56.152,-38.574,-71.777
1683634001.442,-54.199,-39.062,-24.414,-38.574
1683634001.444,-19.531,-16.113,-5.371,-6.836
1683634001.448,-26.367,-21.973,-18.066,-25.879
1683634001.452,-54.688,-36.621,-45.898,-64.453
1683634001.456,-61.523,-44.434,-53.711,-71.289
1683634001.460,-38.086,-35.645,-31.738,-38.086
1683634001.464,-17.090,-11.230,-13.184,-10.254
1683634001.468,-22.949,-7.324,-29.785,-19.043
1683634001.471,-45.898,-37.109,-65.918,-51.758
1683634001.475,-62.988,-53.223,-62.012,-65.430
1683634001.479,-53.223,-49.316,-38.086,-39.551
1683634001.483,-27.344,-26.855,-24.414,-4.883
1683634001.487,-21.973,-19.531,-29.297,-6.836
1683634001.489,-44.434,-46.387,-38.574,-41.016
1683634001.493,-64.453,-62.500,-41.016,-57.129
1683634001.497,-58.105,-63.477,-33.691,-41.992
1683634001.501,-29.297,-43.457,-21.484,-11.230
1683634001.505,-15.625,-28.320,-21.973,2.441
1683634001.509,-38.086,-41.016,-29.297,-23.438
1683634001.513,-64.453,-57.617,-52.246,-43.457
1683634001.516,-61.523,-62.012,-65.430,-31.250
1683634001.520,-42.969,-44.922,-41.992,-16.113
1683634001.524,-37.109,-40.527,-40.039,-26.855
1683634001.528,-51.758,-53.711,-57.617,-56.152
1683634001.532,-57.129,-58.594,-63.477,-75.684
1683634001.534,-39.551,-49.805,-53.223,-61.035
1683634001.538,-17.578,-29.297,-39.062,-26.855
1683634001.542,-15.137,-24.414,-34.180,-20.508
1683634001.546,-28.320,-40.527,-45.898,-42.480
1683634001.550,-40.039,-45.410,-49.316,-57.617
1683634001.554,-52.734,-36.133,-47.852,-48.340
1683634001.558,-34.668,-22.461,-51.270,-10.254
1683634001.561,-4.883,-14.648,-31.250,15.137
1683634001.565,-18.555,-26.855,-34.668,-7.324
1683634001.569,-51.270,-59.082,-60.547,-51.758
1683634001.573,-63.965,-58.105,-60.059,-53.223
1683634001.577,-38.574,-39.062,-39.062,-14.160
1683634001.579,-8.301,-35.645,-24.414,2.441
1683634001.583,-18.066,-38.574,-33.691,-21.484
1683634001.587,-50.781,-51.758,-53.223,-62.500
1683634001.591,-61.523,-56.152,-53.711,-64.941
1683634001.595,-39.062,-44.434,-36.133,-33.691
1683634001.599,-20.508,-27.344,-30.273,-15.137
1683634001.603,-24.902,-21.973,-42.480,-33.691
1683634001.606,-50.293,-48.828,-52.734,-66.895
1683634001.610,-63.477,-64.453,-48.828,-72.754
1683634001.614,-51.758,-52.734,-46.387,-52.246
1683634001.618,-31.738,-36.133,-38.086,-27.832
1683634001.622,-26.367,-33.203,-38.086,-36.621
1683634001.579,-8.301,-35.645,-24.414,2.441
1683634001.583,-18.066,-38.574,-33.691,-21.484
1683634001.587,-50.781,-51.758,-53.223,-62.500
1683634001.591,-61.523,-56.152,-53.711,-64.941
1683634001.595,-39.062,-44.434,-36.133,-33.691
1683634001.599,-20.508,-27.344,-30.273,-15.137
1683634001.603,-24.902,-21.973,-42.480,-33.691
1683634001.606,-50.293,-48.828,-52.734,-66.895
1683634001.610,-63.477,-64.453,-48.828,-72.754
1683634001.614,-51.758,-52.734,-46.387,-52.246
1683634001.618,-31.738,-36.133,-38.086,-27.832
1683634001.622,-26.367,-33.203,-38.086,-36.621
1683634001.639,-49.316,-46.875,-51.758,-64.941
1683634001.643,-64.941,-62.988,-53.223,-67.871
1683634001.647,-48.340,-54.199,-44.922,-43.457
1683634001.651,-20.020,-36.621,-31.738,-12.207
1683634001.655,-13.184,-29.785,-28.809,-5.859
1683634001.659,-33.203,-41.016,-48.340,-36.133
1683634001.663,-56.641,-55.664,-57.129,-56.152
1683634001.666,-53.223,-46.875,-39.551,-34.668
1683634001.670,-29.785,-38.574,-28.809,2.441
1683634001.674,-18.066,-25.879,-31.250,5.371
1683634001.678,-35.645,-30.762,-39.062,-30.762
1683634001.682,-60.059,-56.641,-47.852,-56.641
1683634001.684,-57.617,-62.500,-42.480,-43.457
1683634001.688,-31.738,-45.410,-26.855,-9.766
1683634001.692,-27.832,-34.180,-26.855,-12.695
1683634001.696,-49.316,-45.410,-41.992,-54.688
1683634001.700,-68.359,-57.617,-54.199,-81.055
1683634001.704,-64.941,-55.176,-52.734,-67.871
1683634001.708,-38.574,-31.738,-33.691,-33.203
1683634001.711,-21.484,-21.484,-23.438,-25.391
1683634001.715,-37.109,-31.738,-51.270,-48.828
1683634001.719,-66.406,-53.711,-81.055,-76.172
1683634001.723,-66.895,-55.664,-53.223,-63.477
1683634001.727,-45.898,-30.762,-28.809,-21.973
1683634001.729,-32.227,-23.926,-31.738,-15.137
1683634001.733,-36.621,-36.133,-45.410,-42.969
1683634001.737,-65.430,-52.734,-55.176,-72.266
1683634001.741,-75.195,-56.641,-54.199,-64.941
1683634001.745,-40.527,-37.109,-35.645,-19.043
1683634001.749,-21.484,-15.625,-26.855,2.930
1683634001.753,-35.156,-26.367,-29.785,-20.996
1683634001.756,-59.570,-59.570,-54.688,-53.223
1683634001.760,-67.383,-69.336,-125.488,-59.570
1683634001.764,-56.152,-51.270,-79.102,-33.691
1683634001.768,-33.203,-20.020,-14.160,-4.395
1683634001.772,-23.438,-4.883,-25.391,-13.672
1683634001.729,-32.227,-23.926,-31.738,-15.137
1683634001.733,-36.621,-36.133,-45.410,-42.969
1683634001.737,-65.430,-52.734,-55.176,-72.266
1683634001.741,-75.195,-56.641,-54.199,-64.941
1683634001.745,-40.527,-37.109,-35.645,-19.043
1683634001.749,-21.484,-15.625,-26.855,2.930
1683634001.753,-35.156,-26.367,-29.785,-20.996
1683634001.756,-59.570,-59.570,-54.688,-53.223
1683634001.760,-67.383,-69.336,-125.488,-59.570
1683634001.764,-56.152,-51.270,-79.102,-33.691
1683634001.768,-33.203,-20.020,-14.160,-4.395
1683634001.772,-23.438,-4.883,-25.391,-13.672
1683634001.774,-56.641,-35.156,-41.016,-55.664
1683634001.778,-81.055,-60.547,-45.898,-71.777
1683634001.782,-52.734,-42.969,-31.738,-46.387
1683634001.786,-23.926,-15.137,-20.020,-19.043
1683634001.790,-32.715,-18.066,-33.203,-38.086
1683634001.794,-52.246,-34.180,-49.805,-76.172
1683634001.798,-57.129,-40.039,-38.086,-78.125
1683634001.801,-45.898,-49.316,-66.406,-52.734
1683634001.805,-20.996,-45.898,-100.098,-30.762
1683634001.809,-15.625,-35.645,-42.969,-26.855
1683634001.813,-46.875,-46.875,-37.109,-59.570
1683634001.817,-62.988,-57.617,-58.594,-77.637
1683634001.819,-47.852,-47.363,-39.551,-44.434
1683634001.823,-15.625,-30.273,-20.508,0.977
1683634001.827,5.859,-29.785,-24.902,8.789
1683634001.831,-26.367,-44.434,-42.969,-34.668
1683634001.835,-60.059,-60.059,-50.781,-62.988
1683634001.839,-47.363,-50.293,-31.250,-37.109
1683634001.843,-29.297,-30.273,-20.996,-5.371
1683634001.846,-22.949,-27.832,-82.520,-9.277
1683634001.850,-41.016,-42.480,-73.730,-36.621
1683634001.854,-74.707,-60.547,-35.645,-63.965
1683634001.858,-73.242,-57.617,-33.691,-57.129
1683634001.862,-40.527,-34.180,-15.137,-23.438
1683634001.864,-34.668,-24.414,-9.766,-18.555
1683634001.868,-57.129,-45.410,-20.996,-52.734
1683634001.872,-70.312,-58.105,-36.133,-81.055
1683634001.876,-62.988,-47.363,-40.527,-74.707
1683634001.880,-41.016,-37.109,-22.461,-39.551
1683634001.884,-27.832,-20.020,1.953,-21.973
1683634001.888,-42.969,-21.484,-44.434,-43.457
1683634001.891,-68.848,-52.246,-100.586,-73.730
1683634001.895,-72.266,-61.523,-47.363,-69.824
1683634001.899,-51.270,-42.969,-10.254,-26.855
1683634001.903,-39.062,-29.297,-9.766,-9.277
1683634001.907,-51.270,-33.203,-17.578,-31.250
1683634001.909,-71.777,-52.246,-29.297,-55.176
1683634001.913,-74.707,-59.570,-30.762,-51.758
1683634001.917,-49.805,-41.016,-21.973,-23.926
1683634001.921,-28.809,-19.531,-16.602,-4.395
1683634001.925,-34.180,-26.367,-20.020,-18.066
1683634001.929,-53.223,-49.316,-38.574,-50.781
1683634001.933,-67.871,-48.828,-95.215,-64.941
1683634001.936,-61.035,-33.691,-62.012,-45.898
1683634001.940,-40.527,-29.785,-3.418,-23.926
1683634001.944,-43.457,-37.598,-12.207,-42.969
1683634001.948,-62.012,-50.293,-30.762,-71.289
1683634001.952,-73.242,-62.012,-36.621,-78.125
1683634001.969,-59.570,-59.082,-20.020,-53.223
1683634001.973,-34.180,-39.062,-7.812,-20.508
1683634001.977,-32.227,-30.762,-15.625,-26.367
1683634001.981,-57.129,-48.340,-35.645,-62.988
1683634001.985,-79.102,-71.289,-38.086,-80.566
1683634001.989,-61.523,-52.246,-34.180,-51.270
1683634001.993,-26.367,-17.578,-42.969,-13.184
1683634001.996,-17.090,-20.508,-24.414,-12.695
1683634002.000,-38.574,-41.504,-29.297,-46.875
1683634002.004,-56.152,-55.176,-53.223,-63.965
1683634002.008,-47.363,-53.223,-43.457,-44.922
1683634002.012,-21.973,-32.715,-17.578,-8.301
1683634002.014,-15.625,-21.973,-12.207,-1.953
1683634002.018,-43.457,-42.969,-32.715,-38.086
1683634002.022,-65.918,-54.199,-43.945,-59.082
1683634002.026,-57.129,-48.340,-34.180,-40.527
1683634002.030,-30.273,-36.621,-21.484,-7.812
1683634002.034,-17.090,-21.484,-12.695,1.953
1683634002.038,-36.621,-22.461,-27.832,-32.227
1683634002.041,-71.777,-52.246,-48.340,-73.730
1683634002.045,-76.172,-61.523,-46.875,-68.848
1683634002.049,-42.480,-37.598,-42.969,-39.062
1683634002.053,-19.043,-17.578,-29.785,-24.902
1683634002.057,-25.391,-22.949,-27.344,-46.875
1683634002.059,-46.875,-52.734,-42.969,-71.777
1683634002.063,-60.547,-62.500,-46.875,-66.895
1683634002.067,-42.480,-39.062,-30.762,-37.109
1683634002.071,-24.902,-23.438,-19.531,-18.066
1683634002.075,-41.016,-38.574,-37.109,-36.133
1683634002.079,-62.988,-50.781,-53.223,-58.105
1683634002.083,-67.383,-51.270,-43.945,-51.758
1683634002.086,-49.805,-41.504,-26.367,-20.996
1683634002.090,-31.738,-30.273,-46.387,-9.766
1683634002.094,-36.621,-35.645,-61.035,-30.762
1683634002.098,-59.570,-49.805,-41.016,-53.223
1683634002.102,-72.266,-62.500,-41.504,-59.082
1683634002.104,-52.734,-52.246,-55.176,-27.344
1683634002.108,-25.879,-32.715,-31.250,5.859
1683634002.112,-21.973,-36.621,-8.301,-4.395
1683634002.116,-58.594,-58.594,-30.762,-44.434
1683634002.120,-83.008,-63.965,-41.992,-66.406
1683634002.124,-68.848,-41.504,-30.762,-49.316
1683634002.128,-47.363,-17.578,-6.348,-22.461
1683634002.131,-47.852,-23.438,-18.555,-34.668
1683634002.135,-80.078,-52.734,-106.445,-80.566
1683634002.139,-96.191,-58.105,-85.938,-94.238
1683634002.143,-73.242,-43.457,-18.555,-64.453
1683634002.147,-52.734,-29.785,-15.137,-30.762
1683634002.149,-48.340,-26.855,-19.531,-32.715
1683634002.153,-63.477,-45.410,-26.855,-63.965
1683634002.157,-86.426,-62.500,-33.691,-81.543
1683634002.161,-74.707,-50.293,-30.762,-62.012
1683634002.165,-42.969,-35.156,-19.531,-32.227
1683634002.169,-35.156,-22.949,-19.043,-27.832
1683634002.173,-56.641,-31.250,-24.902,-62.012
1683634002.176,-78.613,-59.082,-74.707,-88.379
1683634002.180,-77.637,-58.594,-103.516,-65.430
1683634002.184,-68.848,-41.992,-30.273,-36.133
1683634002.188,-65.430,-35.645,-3.418,-34.668
1683634002.192,-78.613,-42.480,-26.855,-58.105
1683634002.194,-89.355,-54.199,-36.621,-75.684
1683634002.198,-82.031,-53.711,-29.785,-68.359
1683634002.202,-70.801,-40.039,-13.672,-48.340
1683634002.206,-61.523,-28.809,-9.766,-43.457
1683634002.210,-66.895,-31.250,-24.902,-69.824
1683634002.214,-82.520,-48.340,-34.180,-92.285
1683634002.218,-86.426,-44.434,-32.715,-74.707
1683634002.221,-73.730,-29.785,-67.383,-44.922
1683634002.225,-60.059,-25.391,-45.410,-35.156
1683634002.229,-62.500,-26.367,-18.066,-50.293
1683634002.233,-83.984,-39.062,-38.086,-76.660
1683634002.237,-92.285,-41.016,-38.086,-77.637
1683634002.239,-68.848,-29.785,-16.602,-42.480
1683634002.243,-47.852,-22.461,-5.859,-26.855
1683634002.247,-45.410,-33.691,-19.531,-41.504
1683634002.251,-65.918,-52.734,-36.133,-60.547
1683634002.255,-80.566,-58.594,-36.133,-60.547
1683634002.259,-74.219,-44.922,-13.672,-38.086
1683634002.263,-51.270,-31.250,-26.855,-14.648
1683634002.266,-48.340,-34.180,-66.895,-25.879
1683634002.270,-78.613,-47.363,-47.852,-69.824
1683634002.274,-103.027,-67.383,-44.922,-93.750
1683634002.278,-83.984,-56.152,-43.945,-67.383
1683634002.282,-52.734,-30.273,-23.438,-34.180
1683634002.284,-54.199,-27.344,-20.020,-43.945
1683634002.288,-84.473,-45.898,-38.086,-83.984
1683634002.292,-97.656,-58.105,-54.688,-104.492
1683634002.296,-75.684,-41.992,-37.598,-72.754
1683634002.300,-41.504,-23.926,-19.043,-31.250
1683634002.304,-38.574,-26.367,-22.461,-32.227
1683634002.308,-62.500,-39.551,-56.641,-68.848
1683634002.311,-79.590,-61.035,-65.918,-91.309
1683634002.315,-69.824,-61.035,-29.785,-57.617
1683634002.319,-42.969,-44.434,-15.625,-20.020
1683634002.323,-32.715,-29.785,-21.484,-19.043
1683634002.327,-49.316,-41.504,-41.504,-43.945
1683634002.329,-65.430,-66.406,-56.152,-68.359
1683634002.333,-56.641,-62.988,-51.270,-49.316
1683634002.337,-32.227,-39.062,-35.156,-11.719
1683634002.341,-17.090,-21.973,-29.297,-6.348
1683634002.345,-33.203,-33.691,-45.410,-41.016
1683634002.349,-66.406,-51.270,-67.383,-76.172
1683634002.353,-74.707,-50.293,-70.312,-67.871
1683634002.356,-49.805,-36.133,-38.086,-38.086
1683634002.360,-33.203,-30.762,-26.855,-32.227
1683634002.364,-63.965,-53.223,-53.223,-66.406
1683634002.368,-93.262,-64.453,-56.152,-97.168
1683634002.372,-89.355,-55.664,-41.504,-86.914
1683634002.389,-68.848,-43.457,-34.668,-52.734
1683634002.393,-48.340,-27.832,-28.809,-34.180
1683634002.397,-57.129,-33.691,-38.574,-59.570
1683634002.401,-82.520,-52.246,-49.316,-91.797
1683634002.405,-94.727,-62.988,-44.922,-86.914
1683634002.409,-79.102,-44.434,-34.668,-59.570
1683634002.413,-54.688,-28.320,-20.020,-38.086
1683634002.416,-50.293,-38.086,-16.113,-40.039
1683634002.420,-77.637,-56.641,-45.410,-76.660
1683634002.424,-92.773,-63.965,-90.820,-81.543
1683634002.428,-64.941,-44.434,-48.340,-40.527
1683634002.432,-38.086,-31.250,-9.277,-15.137
1683634002.434,-40.527,-41.992,-23.438,-28.809
1683634002.438,-60.059,-57.617,-40.039,-64.941
1683634002.442,-70.801,-65.430,-41.016,-79.102
1683634002.446,-65.430,-50.293,-24.902,-52.246
1683634002.450,-46.387,-37.598,-25.879,-24.414
1683634002.454,-42.969,-26.855,-32.227,-30.273
1683634002.458,-71.289,-38.574,-41.504,-74.707
1683634002.461,-93.750,-58.594,-49.805,-104.004
1683634002.465,-82.031,-45.898,-61.035,-78.125
1683634002.469,-52.246,-25.879,-64.453,-40.039
1683634002.473,-39.551,-11.230,-35.156,-42.480
1683634002.477,-62.012,-25.879,-45.410,-79.590
1683634002.434,-40.527,-41.992,-23.438,-28.809
1683634002.438,-60.059,-57.617,-40.039,-64.941
1683634002.442,-70.801,-65.430,-41.016,-79.102
1683634002.446,-65.430,-50.293,-24.902,-52.246
1683634002.450,-46.387,-37.598,-25.879,-24.414
1683634002.454,-42.969,-26.855,-32.227,-30.273
1683634002.458,-71.289,-38.574,-41.504,-74.707
1683634002.461,-93.750,-58.594,-49.805,-104.004
1683634002.465,-82.031,-45.898,-61.035,-78.125
1683634002.469,-52.246,-25.879,-64.453,-40.039
1683634002.473,-39.551,-11.230,-35.156,-42.480
1683634002.477,-62.012,-25.879,-45.410,-79.590
1683634002.479,-82.031,-45.410,-60.059,-96.680
1683634002.483,-71.777,-41.504,-44.922,-73.242
1683634002.487,-45.410,-21.973,-23.926,-37.598
1683634002.491,-32.227,-13.672,-23.438,-30.762
1683634002.495,-55.176,-28.809,-40.527,-62.012
1683634002.499,-78.125,-39.551,-45.410,-84.961
1683634002.503,-76.172,-32.227,-29.297,-69.824
1683634002.506,-50.293,-16.113,-22.461,-38.086
1683634002.510,-37.598,-18.066,-63.965,-30.273
1683634002.514,-52.734,-34.180,-59.082,-53.223
1683634002.518,-72.266,-49.316,-37.109,-74.707
1683634002.522,-77.148,-53.711,-36.133,-62.988
1683634002.524,-50.293,-36.621,-21.484,-28.809
1683634002.528,-24.414,-20.508,-19.043,-18.555
1683634002.532,-33.203,-26.367,-31.738,-47.852
1683634002.536,-63.965,-50.293,-50.781,-78.613
1683634002.540,-67.871,-56.641,-52.734,-63.965
1683634002.544,-38.574,-34.668,-34.668,-23.438
1683634002.548,-20.508,-16.602,-17.090,-17.578
1683634002.551,-32.715,-24.414,-62.500,-44.434
1683634002.555,-57.129,-39.062,-110.840,-72.754
1683634002.559,-65.430,-45.410,-58.594,-74.219
1683634002.563,-50.293,-31.738,-24.902,-44.922
1683634002.567,-30.762,-18.555,-26.855,-27.832
1683634002.569,-30.273,-20.996,-31.250,-46.387
1683634002.573,-55.664,-40.527,-41.504,-83.984
1683634002.577,-68.359,-47.363,-42.480,-87.402
1683634002.581,-51.270,-37.109,-33.203,-59.082
1683634002.585,-33.691,-27.344,-25.879,-36.133
1683634002.589,-38.574,-21.973,-25.879,-44.922
1683634002.593,-70.312,-26.855,-39.062,-78.125
1683634002.596,-92.773,-47.852,-95.215,-90.332
1683634002.600,-64.453,-43.945,-61.523,-48.828
1683634002.604,-24.902,-19.531,-7.324,-7.812
1683634002.608,-21.484,-12.207,-21.484,-19.043
1683634002.612,-52.246,-31.738,-41.992,-59.082
1683634002.614,-72.754,-60.059,-47.852,-75.684
1683634002.618,-52.246,-55.176,-33.203,-39.551
1683634002.622,-19.531,-31.738,-23.438,-3.906
1683634002.626,-15.625,-18.555,-26.367,-10.254
1683634002.630,-46.387,-38.574,-44.922,-48.828
1683634002.634,-71.289,-54.199,-44.922,-72.754
1683634002.638,-60.547,-37.598,-52.734,-55.664
1683634002.641,-36.621,-24.902,-76.172,-27.344
1683634002.645,-28.320,-22.461,-34.668,-23.438
1683634002.649,-44.922,-41.992,-30.762,-59.082
1683634002.653,-67.871,-52.246,-49.316,-85.938
1683634002.657,-62.988,-45.410,-41.992,-72.754
1683634002.659,-29.785,-27.832,-25.391,-39.062
1683634002.663,-16.602,-15.137,-25.879,-32.715
1683634002.667,-40.527,-34.668,-43.945,-61.523
1683634002.671,-67.383,-55.176,-52.246,-82.520
1683634002.675,-65.430,-50.781,-41.992,-58.594
1683634002.679,-38.574,-24.902,-23.438,-11.719
1683634002.683,-22.949,-15.625,-50.293,-1.465
1683634002.686,-42.969,-45.410,-62.500,-28.320
1683634002.690,-68.359,-74.707,-50.293,-53.711
1683634002.694,-64.453,-71.777,-42.969,-43.945
1683634002.698,-36.621,-47.363,-25.391,-8.301
1683634002.702,-26.367,-38.574,-20.996,0.977
1683634002.704,-39.551,-49.805,-28.320,-19.531
1683634002.708,-62.988,-64.941,-40.039,-51.758
1683634002.712,-62.012,-64.453,-36.621,-44.434
1683634002.716,-33.691,-37.109,-19.531,-1.953
1683634002.720,-25.879,-17.578,-10.254,1.953
1683634002.724,-37.109,-17.090,-40.527,-32.227
1683634002.728,-56.152,-30.273,-80.078,-61.035
1683634002.731,-63.965,-46.387,-54.199,-65.918
1683634002.735,-42.969,-34.180,-28.320,-40.039
1683634002.739,-22.949,-15.137,-35.645,-18.066
1683634002.743,-33.203,-21.484,-42.969,-36.133
1683634002.747,-56.641,-41.016,-46.387,-72.754
1683634002.764,-69.824,-49.805,-51.758,-74.707
1683634002.768,-46.875,-38.574,-40.527,-39.551
1683634002.772,-15.625,-13.184,-22.461,-10.742
1683634002.776,-21.973,-14.648,-21.973,-20.508
1683634002.780,-55.176,-45.898,-43.945,-53.223
1683634002.784,-75.195,-54.688,-62.012,-62.988
1683634002.788,-62.988,-41.016,-41.992,-32.715
1683634002.791,-30.273,-23.926,-13.672,2.930
1683634002.795,-32.715,-37.109,-30.273,-9.277
1683634002.799,-60.059,-61.523,-83.496,-47.852
1683634002.803,-70.801,-62.012,-69.336,-64.453
1683634002.807,-49.805,-49.805,-32.715,-35.645
1683634002.809,-22.461,-38.086,-19.531,-0.977
1683634002.813,-23.926,-36.621,-22.461,-9.277
1683634002.817,-46.387,-44.922,-36.133,-45.898
1683634002.821,-71.777,-53.711,-42.969,-76.172
1683634002.825,-79.102,-52.246,-38.086,-70.801
1683634002.829,-57.129,-32.227,-23.926,-41.504
1683634002.833,-45.898,-21.973,-25.391,-46.875
1683634002.836,-65.918,-36.621,-38.574,-84.961
1683634002.840,-84.473,-53.223,-64.453,-97.656
1683634002.844,-76.660,-57.617,-74.219,-83.008
1683634002.848,-53.711,-43.945,-33.203,-52.246
1683634002.852,-39.062,-24.902,-16.602,-32.227
1683634002.854,-50.781,-28.320,-37.109,-55.664
1683634002.858,-73.242,-49.805,-49.316,-82.031
1683634002.862,-68.848,-54.199,-41.016,-62.988
1683634002.866,-42.480,-33.203,-29.297,-21.973
1683634002.870,-28.320,-21.484,-24.902,-11.719
1683634002.874,-36.133,-32.227,-36.621,-36.621
1683634002.878,-55.664,-44.434,-47.852,-60.547
1683634002.881,-62.988,-45.898,-49.316,-52.734
1683634002.885,-45.410,-41.504,-62.500,-27.832
1683634002.889,-21.973,-30.273,-41.504,-9.766
1683634002.893,-35.645,-23.926,-22.949,-26.367
1683634002.897,-66.406,-38.574,-36.133,-63.965
1683634002.899,-66.895,-54.199,-36.133,-67.383
1683634002.903,-46.387,-43.457,-29.297,-40.527
1683634002.907,-25.391,-19.531,-21.484,-17.578
1683634002.911,-37.109,-21.973,-33.203,-41.992
1683634002.915,-70.312,-43.457,-51.758,-85.449
1683634002.919,-80.566,-53.711,-49.316,-83.496
1683634002.923,-53.711,-35.645,-35.156,-50.293
1683634002.926,-22.949,-17.578,-25.391,-21.973
1683634002.930,-20.020,-24.902,-33.691,-30.762
1683634002.934,-47.852,-43.945,-46.875,-65.918
1683634002.938,-67.383,-58.594,-44.434,-75.684
1683634002.942,-48.340,-50.781,-46.875,-46.875
1683634002.945,-25.879,-34.668,-38.574,-14.648
1683634002.949,-23.926,-29.785,-22.949,-17.578
1683634002.953,-47.852,-45.410,-34.668,-52.246
1683634002.957,-73.242,-60.547,-45.898,-67.383
1683634002.961,-61.035,-52.246,-33.691,-45.898
1683634002.965,-35.156,-25.391,-15.625,-15.137
1683634002.969,-27.832,-14.648,-20.020,-10.254
1683634002.972,-48.828,-44.922,-52.734,-47.363
1683634002.976,-76.172,-73.730,-55.664,-70.801
1683634002.980,-62.988,-65.918,-30.762,-43.945
1683634002.984,-32.227,-33.691,-16.602,0.488
1683634002.988,-37.598,-29.297,-21.973,-6.836
1683634002.989,-69.336,-50.781,-38.086,-54.688
1683634002.993,-88.379,-63.477,-46.875,-71.289
1683634002.997,-86.914,-68.359,-43.457,-56.641
1683634003.001,-57.617,-35.645,-25.391,-20.508
1683634003.005,-32.715,-17.090,-21.973,-6.348
1683634003.009,-49.316,-27.832,-26.855,-42.969
1683634003.013,-79.102,-43.457,-55.664,-77.148
1683634003.016,-83.496,-61.035,-78.613,-70.801
1683634003.020,-57.617,-51.758,-38.574,-37.109
1683634003.024,-23.926,-34.180,-17.090,-18.555
1683634003.028,-25.391,-32.715,-26.855,-33.691
1683634003.032,-54.688,-51.758,-42.480,-63.477
1683634003.034,-58.105,-58.594,-39.551,-58.105
1683634003.038,-27.832,-41.504,-19.043,-22.949
1683634003.042,-3.418,-28.809,-10.742,-3.906
1683634003.046,-14.160,-35.156,-27.832,-20.508
1683634003.050,-41.504,-52.734,-41.992,-51.758
1683634003.054,-50.781,-47.852,-37.109,-44.434
1683634003.058,-29.297,-30.273,-61.035,-4.883
1683634003.061,-9.766,-26.855,-47.852,9.766
1683634003.065,-19.531,-35.156,-22.461,-11.719
1683634003.069,-51.758,-46.875,-41.504,-43.457
1683634003.073,-68.359,-47.852,-48.828,-58.594
1683634003.077,-53.711,-44.434,-36.621,-36.621
1683634003.080,-29.297,-37.109,-24.414,-3.906
1683634003.084,-32.227,-43.457,-30.273,-17.090
1683634003.088,-60.547,-67.871,-48.340,-55.664
1683634003.092,-75.684,-73.242,-48.828,-61.523
1683634003.096,-55.664,-53.223,-27.344,-33.203
1683634003.100,-20.996,-30.273,-21.973,-7.812
1683634003.104,-4.395,-20.508,-32.227,-8.301
1683634003.107,-14.160,-38.574,-41.016,-28.809
1683634003.111,-31.250,-53.223,-38.086,-43.457
1683634003.115,-37.598,-51.758,-61.035,-37.598
1683634003.119,-22.461,-32.227,-66.406,-17.578
1683634003.123,-11.719,-16.602,-29.785,-12.207
1683634003.139,-38.574,-36.621,-37.598,-36.133
1683634003.143,-62.012,-59.570,-53.223,-52.246
1683634003.147,-54.199,-56.641,-38.574,-31.738
1683634003.151,-30.762,-40.039,-17.090,-3.418
1683634003.155,-19.043,-25.391,-22.461,-2.930
1683634003.159,-40.527,-28.320,-49.805,-32.715
1683634003.163,-63.477,-41.504,-53.223,-58.105
1683634003.166,-56.152,-49.316,-32.715,-46.875
1683634003.170,-36.133,-41.016,-30.273,-20.508
1683634003.174,-25.879,-29.785,-62.012,-15.625
1683634003.178,-36.133,-29.785,-53.223,-41.016
1683634003.182,-62.012,-48.340,-45.410,-73.242
1683634003.184,-62.988,-56.641,-41.016,-67.383
1683634003.188,-34.180,-38.086,-23.438,-35.645
1683634003.192,-20.508,-26.855,-17.578,-25.879
1683634003.196,-28.809,-37.109,-33.203,-47.363
1683634003.200,-44.434,-53.223,-53.711,-69.336
1683634003.204,-48.340,-59.570,-52.246,-64.453
1683634003.208,-20.508,-35.156,-31.738,-22.949
1683634003.211,-2.441,-22.949,-15.137,0.000
1683634003.215,-23.438,-35.156,-43.457,-19.043
1683634003.219,-55.176,-56.641,-79.102,-48.340
1683634003.223,-62.012,-60.059,-49.316,-53.223
1683634003.227,-43.457,-42.969,-23.926,-20.996
1683634003.229,-22.461,-28.809,-22.461,4.883
1683634003.233,-22.949,-29.297,-30.273,-11.719
1683634003.237,-49.805,-51.758,-46.387,-48.340
1683634003.241,-62.500,-61.523,-49.316,-51.270
1683634003.245,-41.504,-43.945,-33.691,-16.113
1683634003.249,-14.648,-26.367,-23.438,8.301
1683634003.253,-23.926,-23.438,-26.367,-12.207
1683634003.256,-57.617,-45.898,-50.293,-50.781
1683634003.260,-78.125,-69.824,-103.516,-66.895
1683634003.264,-60.059,-57.129,-72.754,-43.945
1683634003.268,-30.762,-27.832,-25.391,-15.625
1683634003.272,-33.203,-25.879,-34.668,-29.785
1683634003.275,-60.059,-52.246,-55.176,-63.965
1683634003.279,-76.660,-66.406,-62.012,-74.707
1683634003.283,-57.129,-53.711,-44.922,-50.293
1683634003.287,-22.461,-31.250,-29.785,-18.555
1683634003.291,-12.695,-25.391,-36.133,-19.043
1683634003.295,-33.203,-39.551,-51.270,-45.410
1683634003.299,-60.059,-58.594,-49.316,-67.871
1683634003.302,-63.965,-66.406,-62.500,-54.199
1683634003.306,-43.457,-53.711,-78.613,-23.438
1683634003.310,-35.645,-41.992,-31.250,-20.996
1683634003.314,-57.617,-45.410,-28.320,-50.293
1683634003.318,-83.496,-62.012,-56.152,-76.660
1683634003.319,-82.031,-59.570,-45.898,-61.523
1683634003.323,-47.852,-36.621,-22.461,-19.043
1683634003.327,-28.320,-26.367,-17.578,-13.184
1683634003.331,-46.387,-33.691,-31.738,-41.504
1683634003.335,-71.777,-54.688,-44.434,-63.477
1683634003.339,-68.848,-48.340,-33.203,-49.316
1683634003.343,-50.293,-26.855,-20.020,-14.160
1683634003.346,-38.086,-26.855,-26.855,-6.836
1683634003.350,-55.176,-46.387,-37.109,-37.598
1683634003.354,-80.078,-64.453,-40.039,-64.453
1683634003.358,-68.848,-48.340,-43.945,-52.734
1683634003.362,-38.574,-30.273,-60.547,-11.719
1683634003.364,-14.648,-22.461,-31.250,5.371
1683634003.368,-22.949,-27.344,-21.484,-22.461
1683634003.372,-57.617,-51.758,-43.945,-55.664
1683634003.376,-65.430,-59.082,-41.016,-51.758
1683634003.380,-42.969,-41.504,-18.066,-18.555
1683634003.384,-23.438,-18.066,0.977,5.371
1683634003.388,-21.484,-22.461,-31.250,-5.371
1683634003.391,-37.109,-51.270,-78.125,-31.250
1683634003.395,-49.805,-48.340,-52.246,-44.922
1683634003.399,-47.852,-38.574,-29.785,-34.180
1683634003.403,-31.250,-24.414,-20.996,-14.160
1683634003.407,-28.320,-20.996,-21.484,-23.926
1683634003.409,-51.270,-34.668,-37.598,-58.594
1683634003.413,-68.359,-49.316,-43.945,-70.801
1683634003.417,-55.664,-44.434,-34.180,-41.992
1683634003.421,-29.785,-24.902,-22.949,-18.555
1683634003.425,-26.855,-16.602,-22.461,-25.879
1683634003.429,-57.129,-26.855,-42.480,-61.035
1683634003.433,-81.055,-45.410,-83.008,-79.102
1683634003.436,-70.312,-48.828,-64.941,-55.176
1683634003.440,-41.992,-28.809,-26.855,-32.227
1683634003.444,-38.086,-22.461,-33.203,-38.086
1683634003.448,-58.105,-36.621,-44.922,-63.477
1683634003.452,-69.336,-51.758,-46.875,-75.195
1683634003.454,-61.035,-52.734,-31.738,-50.293
1683634003.458,-35.156,-38.574,-15.137,-12.207
1683634003.462,-22.949,-32.715,-18.555,-9.277
1683634003.466,-42.969,-44.434,-36.621,-41.504
1683634003.470,-67.383,-62.500,-47.363,-65.918
1683634003.474,-63.965,-56.152,-51.270,-57.129
1683634003.478,-36.133,-27.832,-41.992,-21.484
1683634003.481,-19.531,-24.414,-25.879,-14.160
1683634003.485,-35.645,-45.410,-33.691,-45.410
1683634003.489,-64.941,-61.035,-65.430,-71.777
1683634003.493,-57.129,-55.176,-60.059,-54.688
1683634003.497,-30.273,-38.086,-28.320,-11.719
1683634003.514,-23.926,-26.855,-24.902,-6.348
1683634003.518,-35.156,-33.203,-41.504,-37.109
1683634003.522,-58.105,-57.617,-59.082,-63.477
1683634003.526,-60.547,-61.523,-47.852,-60.059
1683634003.530,-39.062,-39.551,-31.250,-25.879
1683634003.534,-19.531,-18.066,-33.203,-6.836
1683634003.538,-27.832,-20.996,-37.109,-28.809
1683634003.541,-57.617,-44.434,-41.992,-59.082
1683634003.545,-58.594,-54.688,-45.898,-56.641
1683634003.549,-30.273,-42.480,-61.035,-21.973
1683634003.553,-10.742,-21.973,-38.086,-7.324
1683634003.557,-23.926,-32.227,-27.832,-28.809
1683634003.559,-51.270,-51.758,-45.898,-55.176
1683634003.563,-57.617,-60.059,-48.340,-57.617
1683634003.567,-29.297,-39.062,-30.762,-20.020
1683634003.571,-6.836,-14.160,-18.066,2.441
1683634003.575,-23.926,-22.461,-35.645,-20.996
1683634003.579,-53.223,-46.387,-53.223,-62.012
1683634003.583,-64.941,-58.105,-52.734,-69.824
1683634003.586,-50.293,-50.781,-28.320,-35.156
1683634003.590,-29.297,-35.645,-45.898,-8.301
1683634003.594,-32.715,-32.715,-84.473,-22.949
1683634003.598,-59.082,-47.363,-51.758,-62.012
1683634003.602,-80.078,-60.059,-41.504,-77.148
1683634003.604,-67.383,-54.199,-41.992,-48.340
1683634003.608,-43.457,-36.621,-22.949,-17.578
1683634003.612,-34.668,-25.879,-22.461,-27.344
1683634003.616,-56.152,-38.086,-43.945,-65.430
1683634003.620,-78.125,-50.293,-55.176,-80.566
1683634003.624,-64.941,-40.527,-38.574,-54.688
1683634003.628,-34.180,-19.531,-13.184,-18.555
1683634003.631,-22.461,-12.695,-21.484,-16.113
1683634003.635,-41.992,-36.133,-83.008,-43.945
1683634003.639,-56.641,-60.547,-74.707,-62.988
1683634003.643,-44.922,-47.852,-33.691,-42.480
1683634003.647,-20.996,-18.066,-24.902,-4.395
1683634003.649,-5.859,-19.531,-22.949,-2.930
1683634003.653,-28.809,-30.762,-32.227,-32.227
1683634003.657,-56.152,-44.922,-40.527,-55.664
1683634003.661,-60.059,-53.711,-35.156,-45.410
1683634003.665,-35.156,-30.273,-19.531,-10.254
1683634003.669,-16.602,-6.836,-14.160,0.488
1683634003.673,-28.809,-17.578,-20.508,-25.879
1683634003.676,-55.176,-44.922,-53.711,-57.617
1683634003.680,-63.477,-45.898,-74.219,-55.176
1683634003.684,-41.992,-35.156,-27.344,-23.926
1683634003.688,-27.344,-26.855,-4.395,-9.277
1683634003.692,-33.691,-25.391,-15.137,-30.762
1683634003.694,-60.547,-45.410,-31.250,-66.406
1683634003.698,-73.242,-58.594,-35.156,-67.871
1683634003.702,-46.387,-43.945,-22.461,-31.250
1683634003.706,-18.555,-21.484,-19.043,-2.930
1683634003.710,-23.438,-21.973,-30.273,-9.277
1683634003.714,-51.270,-43.945,-42.480,-40.527
1683634003.718,-52.734,-45.410,-41.016,-46.387
1683634003.721,-30.273,-35.645,-56.152,-19.043
1683634003.725,-6.836,-20.996,-34.668,3.906
1683634003.729,-14.648,-25.391,-18.066,-12.207
1683634003.733,-47.852,-39.551,-37.109,-40.039
1683634003.737,-63.965,-43.457,-41.016,-44.922
1683634003.740,-48.828,-50.293,-31.250,-25.879
1683634003.744,-26.855,-39.062,-20.508,0.488
1683634003.748,-24.902,-25.879,-26.367,-5.371
1683634003.752,-48.340,-41.992,-42.969,-44.922
1683634003.756,-66.406,-59.082,-48.828,-60.059
1683634003.760,-49.316,-42.969,-24.902,-34.668
1683634003.764,-30.762,-27.344,-25.879,-14.648
1683634003.767,-34.668,-38.086,-57.129,-28.809
1683634003.771,-50.781,-51.758,-51.758,-53.711
1683634003.775,-60.547,-57.129,-45.898,-66.895
1683634003.779,-45.898,-48.340,-39.551,-48.828
1683634003.783,-27.832,-31.738,-31.250,-16.602
1683634003.784,-20.996,-24.414,-31.738,-17.578
1683634003.788,-35.645,-36.621,-40.039,-49.805
1683634003.792,-62.012,-57.617,-52.734,-70.312
1683634003.796,-56.641,-56.641,-48.828,-59.082
1683634003.800,-30.273,-34.668,-30.273,-19.531
1683634003.804,-20.020,-16.113,-29.785,-9.277
1683634003.808,-47.363,-26.855,-92.285,-49.316
1683634003.811,-75.684,-54.199,-90.820,-68.848
1683634003.815,-68.848,-58.594,-44.434,-50.781
1683634003.819,-34.180,-35.645,-30.273,-21.484
1683634003.823,-13.672,-13.184,-24.414,-5.859
1683634003.827,-35.645,-27.832,-41.504,-33.203
1683634003.829,-63.965,-54.199,-54.688,-67.383
1683634003.833,-67.383,-54.688,-48.340,-62.012
1683634003.837,-47.363,-34.668,-32.715,-30.273
1683634003.841,-26.855,-17.578,-26.367,-9.277
1683634003.845,-32.715,-28.809,-31.250,-30.273
1683634003.849,-56.641,-46.387,-61.523,-68.359
1683634003.853,-62.500,-48.340,-85.938,-65.430
1683634003.856,-45.898,-39.551,-46.875,-37.598
1683634003.860,-20.996,-22.461,-18.555,-13.672
1683634003.864,-20.020,-22.949,-40.039,-20.508
1683634003.868,-49.805,-51.270,-57.129,-59.570
1683634003.872,-60.059,-59.082,-48.828,-62.988
1683634003.889,-35.156,-35.645,-37.598,-26.855
1683634003.893,-17.090,-19.043,-30.762,-6.836
1683634003.897,-25.391,-24.414,-34.668,-22.949
1683634003.901,-55.176,-46.875,-47.363,-61.035
1683634003.905,-66.895,-49.805,-49.316,-66.895
1683634003.909,-55.176,-33.203,-41.016,-36.133
1683634003.913,-36.621,-19.043,-22.949,-10.742
1683634003.916,-37.109,-24.414,-22.949,-23.926
1683634003.920,-64.453,-52.246,-44.922,-60.547
1683634003.924,-79.590,-67.383,-81.055,-77.637
1683634003.928,-56.641,-43.945,-44.434,-44.922
1683634003.932,-26.855,-17.090,-6.836,-18.066
1683634003.934,-27.344,-26.367,-22.949,-30.273
1683634003.938,-60.059,-49.316,-42.480,-61.035
1683634003.942,-84.473,-62.012,-51.758,-75.195
1683634003.946,-74.219,-60.059,-37.598,-50.781
1683634003.950,-47.852,-36.133,-23.926,-18.555
1683634003.954,-38.086,-19.043,-26.367,-19.043
1683634003.958,-50.781,-34.668,-38.086,-50.781
1683634003.961,-67.871,-56.152,-46.387,-71.289
1683634003.965,-57.129,-42.969,-42.969,-54.199
1683634003.969,-21.484,-23.438,-34.180,-19.531
1683634003.973,-11.230,-21.484,-30.273,-12.207
1683634003.977,-26.855,-27.832,-37.598,-40.039
1683634003.979,-48.340,-42.480,-58.594,-63.965
1683634003.983,-45.410,-42.480,-54.688,-50.781
1683634003.987,-20.996,-26.367,-19.531,-9.277
1683634003.991,-15.625,-19.531,-18.066,-5.371
1683634003.995,-41.016,-31.250,-41.504,-36.621
1683634003.999,-62.988,-43.945,-51.270,-59.082
1683634004.003,-61.523,-44.434,-42.969,-54.199
1683634004.006,-46.875,-30.273,-31.250,-21.973
1683634004.010,-33.691,-19.531,-48.828,-5.859
1683634004.014,-50.781,-38.086,-51.758,-37.109
1683634004.018,-74.707,-44.922,-40.039,-66.895
1683634004.022,-74.219,-35.645,-33.203,-59.082
1683634004.024,-53.711,-37.598,-24.902,-33.691
1683634004.028,-25.391,-26.855,-21.973,-17.090
1683634004.032,-23.926,-22.461,-25.879,-31.738
1683634004.036,-49.805,-39.551,-41.504,-65.430
1683634004.040,-63.965,-45.898,-41.992,-66.406
1683634004.044,-51.758,-28.809,-25.391,-38.086
1683634004.048,-27.344,-20.508,-16.113,-19.043
1683634004.051,-31.250,-27.832,-39.551,-30.762
1683634004.055,-62.012,-53.223,-84.473,-65.918
1683634004.059,-70.801,-69.336,-61.035,-71.289
1683634004.063,-46.387,-49.805,-31.250,-36.133
1683634004.067,-13.184,-21.484,-18.555,-0.488
1683634004.069,-13.672,-21.973,-22.461,-10.742
1683634004.073,-37.598,-40.527,-38.574,-41.016
1683634004.077,-58.105,-54.199,-44.434,-52.734
1683634004.081,-49.316,-48.828,-36.133,-28.809
1683634004.085,-24.414,-28.809,-21.973,2.441
1683634004.089,-21.484,-20.508,-23.438,-9.766
1683634004.093,-37.598,-30.762,-32.227,-41.992
1683634004.096,-58.594,-53.711,-59.082,-56.152
1683634004.100,-47.363,-52.734,-45.898,-35.156
1683634004.104,-17.578,-30.273,-14.648,-6.348
1683634004.108,-17.090,-23.438,-21.484,-11.230
1683634004.112,-47.852,-45.410,-42.969,-49.805
1683634004.114,-68.359,-61.523,-50.781,-68.359
1683634004.118,-60.059,-54.199,-41.016,-49.805
1683634004.122,-32.227,-29.297,-21.484,-17.090
1683634004.126,-18.555,-9.766,-19.531,-11.230
1683634004.130,-35.645,-24.902,-39.062,-40.039
1683634004.134,-53.223,-43.457,-35.156,-56.641
1683634004.138,-47.852,-42.480,-42.969,-44.434
1683634004.141,-28.320,-35.645,-72.266,-18.066
1683634004.145,-17.578,-27.344,-36.133,-9.766
1683634004.149,-32.227,-41.016,-26.367,-32.227
1683634004.153,-48.340,-48.828,-45.410,-52.246
1683634004.157,-42.480,-45.410,-40.527,-42.969
1683634004.159,-19.531,-35.156,-19.531,-9.277
1683634004.163,-7.324,-22.461,-15.625,3.906
1683634004.167,-29.785,-36.133,-39.551,-26.855
1683634004.171,-62.500,-52.734,-51.270,-58.594
1683634004.175,-68.848,-58.594,-41.504,-50.781
1683634004.179,-45.898,-37.109,-21.484,-11.719
1683634004.183,-28.809,-9.277,-63.477,9.766
1683634004.186,-39.551,-22.461,-69.824,-18.555
1683634004.190,-71.289,-57.617,-40.527,-57.617
1683634004.194,-80.078,-65.430,-42.969,-62.012
1683634004.198,-51.758,-41.992,-28.320,-37.109
1683634004.202,-30.273,-30.273,-16.602,-18.066
1683634004.205,-41.016,-40.039,-24.902,-35.156
1683634004.209,-68.359,-59.082,-45.410,-71.777
1683634004.213,-83.008,-61.035,-46.387,-75.684
1683634004.217,-59.570,-44.922,-30.273,-44.434
1683634004.221,-26.367,-31.738,-13.672,-18.066
1683634004.225,-31.738,-24.414,-31.250,-30.273
1683634004.229,-57.617,-36.133,-71.777,-71.289
1683634004.232,-68.848,-55.176,-57.129,-78.613
1683634004.236,-58.105,-47.852,-34.668,-46.875
1683634004.240,-36.621,-35.156,-34.180,-23.438
1683634004.244,-35.645,-33.691,-37.109,-27.344
1683634004.248,-61.523,-49.316,-41.992,-56.152
1683634004.205,-41.016,-40.039,-24.902,-35.156
1683634004.209,-68.359,-59.082,-45.410,-71.777
1683634004.213,-83.008,-61.035,-46.387,-75.684
1683634004.217,-59.570,-44.922,-30.273,-44.434
1683634004.221,-26.367,-31.738,-13.672,-18.066
1683634004.225,-31.738,-24.414,-31.250,-30.273
1683634004.229,-57.617,-36.133,-71.777,-71.289
1683634004.232,-68.848,-55.176,-57.129,-78.613
1683634004.236,-58.105,-47.852,-34.668,-46.875
1683634004.240,-36.621,-35.156,-34.180,-23.438
1683634004.244,-35.645,-33.691,-37.109,-27.344
1683634004.248,-61.523,-49.316,-41.992,-56.152
1683634004.264,-79.102,-65.430,-47.363,-71.777
1683634004.268,-62.500,-53.711,-40.527,-39.062
1683634004.272,-27.832,-32.715,-24.414,9.277
1683634004.276,-21.484,-28.320,-18.066,0.977
1683634004.280,-57.129,-44.434,-41.504,-52.246
1683634004.284,-74.219,-47.852,-65.430,-69.824
1683634004.288,-57.617,-46.387,-46.875,-40.527
1683634004.291,-24.902,-38.574,-15.625,-0.488
1683634004.295,-8.789,-33.691,-25.879,4.883
1683634004.299,-36.133,-48.340,-88.867,-32.227
1683634004.303,-61.523,-52.246,-73.730,-62.012
1683634004.307,-49.316,-49.316,-34.180,-48.828
1683634004.309,-16.602,-39.062,-26.855,-11.230
1683634004.313,-2.441,-29.297,-20.996,-1.465
1683634004.317,-21.973,-36.133,-28.809,-30.273
1683634004.321,-44.434,-48.828,-39.551,-56.152
1683634004.325,-43.945,-48.828,-35.645,-45.410
1683634004.329,-19.043,-21.484,-15.137,-8.789
1683634004.333,2.930,-6.348,-11.230,9.766
1683634004.336,-13.672,-20.020,-16.602,-18.555
1683634004.340,-48.828,-44.434,-50.781,-56.641
1683634004.344,-58.594,-56.641,-78.613,-52.734
1683634004.348,-32.227,-29.785,-24.414,-10.254
1683634004.352,-16.113,-18.555,-5.371,5.371
1683634004.354,-34.668,-31.738,-30.762,-23.438
1683634004.358,-56.641,-39.551,-46.387,-54.199
1683634004.362,-62.500,-54.688,-42.969,-51.270
1683634004.366,-40.039,-43.457,-28.809,-19.531
1683634004.370,-19.043,-21.973,-27.832,-1.953
1683634004.374,-20.020,-12.695,-32.227,-14.160
1683634004.378,-47.363,-32.227,-40.039,-48.340
1683634004.381,-60.059,-51.758,-47.363,-57.617
1683634004.385,-43.945,-38.086,-91.309,-35.645
1683634004.389,-28.809,-21.973,-58.594,-12.207
1683634004.393,-29.785,-20.020,-12.207,-20.020
1683634004.397,-53.711,-34.668,-42.969,-60.547
1683634004.399,-66.406,-52.246,-56.641,-70.312
1683634004.403,-41.504,-45.898,-25.879,-35.156
1683634004.407,-7.812,-25.391,1.465,-0.977
1683634004.411,0.000,-13.184,-5.859,-1.953
1683634004.415,-31.250,-33.691,-31.738,-37.598
1683634004.419,-45.410,-49.805,-41.992,-46.387
1683634004.423,-24.414,-30.762,-21.973,-18.066
1683634004.426,-4.883,-19.043,-31.250,10.254
1683634004.430,-7.324,-22.461,-69.824,7.324
1683634004.434,-31.738,-34.668,-48.340,-30.273
1683634004.438,-52.246,-51.758,-40.527,-52.246
1683634004.442,-46.387,-53.711,-37.598,-39.062
1683634004.444,-22.461,-34.668,-19.043,-10.254
1683634004.448,-12.207,-20.508,-15.625,-5.371
1683634004.452,-39.062,-37.109,-32.227,-38.086
1683634004.456,-62.988,-51.270,-46.387,-63.965
1683634004.460,-63.965,-50.293,-45.410,-54.199
1683634004.464,-45.410,-35.156,-29.297,-26.367
1683634004.468,-28.809,-10.254,-20.996,-18.066
1683634004.471,-45.898,-19.043,-79.590,-37.109
1683634004.475,-69.336,-57.129,-82.520,-62.500
1683634004.479,-66.895,-63.477,-39.551,-62.012
1683634004.483,-39.551,-36.621,-29.297,-28.809
1683634004.487,-13.672,-20.996,-28.320,-9.277
1683634004.489,-21.973,-27.832,-37.598,-33.691
1683634004.493,-58.105,-55.664,-47.363,-69.824
1683634004.497,-67.383,-68.848,-48.340,-65.430
1683634004.501,-35.156,-48.340,-33.203,-20.020
1683634004.505,-9.277,-28.320,-26.367,3.418
1683634004.509,-22.461,-20.996,-26.855,-15.137
1683634004.513,-49.316,-41.992,-57.129,-44.434
1683634004.516,-59.570,-56.152,-90.820,-49.805
1683634004.520,-44.434,-38.086,-40.527,-13.672
1683634004.524,-17.090,-26.367,-18.066,11.230
1683634004.528,-23.926,-31.738,-32.715,-12.695
1683634004.532,-57.617,-53.711,-44.922,-58.105
1683634004.534,-68.848,-66.406,-47.852,-68.848
1683634004.538,-53.711,-47.852,-28.320,-37.109
1683634004.542,-34.668,-28.320,-19.043,-13.184
1683634004.546,-40.039,-31.250,-26.855,-26.367
1683634004.550,-67.383,-45.410,-40.527,-64.453
1683634004.554,-73.730,-44.922,-41.016,-69.824
1683634004.558,-51.270,-37.109,-65.430,-36.133
1683634004.561,-30.762,-32.715,-49.316,-18.066
1683634004.565,-32.227,-33.691,-20.508,-34.668
1683634004.569,-55.176,-46.387,-41.504,-63.477
1683634004.573,-70.801,-54.199,-50.781,-75.195
1683634004.577,-56.641,-46.875,-33.203,-43.457
1683634004.579,-20.996,-39.551,-13.672,-3.418
1683634004.583,-5.859,-38.086,-20.020,-5.859
1683634004.587,-28.320,-51.758,-42.969,-39.551
1683634004.591,-53.711,-65.430,-58.594,-59.570
1683634004.595,-52.734,-59.570,-36.133,-39.062
1683634004.599,-29.785,-33.203,-36.133,0.488
1683634004.603,-19.043,-19.531,-92.773,-0.977
1683634004.606,-37.109,-36.133,-62.500,-40.039
1683634004.610,-62.988,-57.129,-44.434,-65.918
1683634004.614,-59.082,-53.223,-46.875,-51.270
1683634004.618,-37.598,-29.785,-22.949,-18.066
1683634004.622,-30.273,-20.020,-16.602,-16.113
1683634004.639,-51.270,-31.738,-38.086,-54.688
1683634004.643,-73.730,-43.945,-56.152,-80.566
1683634004.647,-69.824,-48.340,-48.340,-64.941
1683634004.651,-41.992,-33.691,-26.367,-35.645
1683634004.655,-26.367,-19.531,-25.391,-32.715
1683634004.659,-37.109,-22.949,-51.270,-53.223
1683634004.663,-57.617,-35.156,-58.594,-77.148
1683634004.666,-59.570,-42.969,-41.992,-69.336
1683634004.670,-28.809,-28.809,-28.809,-29.297
1683634004.674,-8.301,-19.531,-63.477,-11.230
1683634004.678,-22.461,-22.461,-52.734,-30.762
1683634004.682,-49.316,-41.016,-38.574,-66.895
1683634004.684,-58.105,-60.547,-48.340,-68.359
1683634004.688,-40.039,-42.969,-31.250,-30.762
1683634004.692,-23.438,-24.414,-14.160,-11.719
1683634004.696,-27.344,-29.785,-20.020,-25.879
1683634004.700,-52.734,-51.270,-38.574,-51.758
1683634004.704,-64.941,-60.547,-40.039,-53.223
1683634004.708,-44.922,-42.969,-27.832,-26.367
1683634004.711,-20.020,-25.879,-8.301,-0.488
1683634004.715,-22.461,-31.250,-33.691,-16.113
1683634004.719,-48.828,-50.781,-85.938,-53.223
1683634004.723,-60.059,-58.105,-49.316,-62.988
1683634004.727,-43.457,-43.945,-16.602,-35.156
1683634004.729,-22.461,-24.414,-18.066,-11.230
1683634004.733,-26.855,-23.926,-25.879,-23.926
1683634004.737,-51.758,-48.340,-35.645,-51.270
1683634004.741,-65.918,-65.918,-41.016,-62.988
1683634004.745,-49.805,-51.758,-32.227,-36.621
1683634004.749,-21.973,-31.738,-13.184,-0.977
1683634004.753,-22.461,-20.020,-6.836,-8.789
1683634004.756,-43.457,-33.691,-33.203,-44.922
1683634004.760,-59.570,-62.988,-103.516,-64.941
1683634004.764,-53.223,-57.129,-70.801,-44.922
1683634004.768,-25.879,-29.297,-7.812,-6.348
1683634004.772,-15.137,-21.484,-17.090,-10.742
1683634004.774,-35.645,-39.551,-31.738,-43.457
1683634004.778,-55.176,-60.547,-37.109,-59.082
1683634004.782,-49.805,-55.664,-28.320,-41.016
1683634004.786,-24.902,-38.086,-14.160,-11.719
1683634004.790,-7.812,-29.297,-15.137,-2.441
1683634004.794,-23.926,-32.715,-29.785,-26.367
1683634004.798,-50.293,-47.363,-30.273,-48.828
1683634004.801,-50.293,-49.805,-41.992,-40.527
1683634004.805,-23.438,-34.180,-58.594,-13.672
1683634004.809,-6.348,-26.367,-21.973,-5.859
1683634004.813,-22.949,-31.738,-18.555,-35.156
1683634004.817,-52.734,-48.340,-43.457,-67.383
1683634004.819,-61.523,-54.199,-41.504,-63.477
1683634004.823,-50.293,-41.016,-24.902,-30.762
1683634004.827,-38.086,-25.879,-21.484,-5.859
1683634004.831,-42.969,-29.785,-40.527,-20.508
1683634004.835,-62.012,-44.434,-53.711,-56.152
1683634004.839,-65.918,-38.086,-38.086,-56.152
1683634004.843,-51.758,-23.438,-26.367,-29.297
1683634004.846,-27.832,-15.137,-67.383,-12.207
1683634004.850,-23.438,-25.391,-62.012,-20.508
1683634004.854,-52.246,-47.852,-32.715,-49.805
1683634004.858,-67.871,-51.270,-33.203,-59.570
1683634004.862,-45.898,-35.156,-22.949,-28.809
1683634004.864,-15.625,-24.414,-7.324,6.836
1683634004.868,-23.926,-29.785,-14.160,-8.789
1683634004.872,-50.293,-39.062,-36.621,-50.781
1683634004.876,-58.594,-40.039,-34.668,-56.152
1683634004.880,-48.340,-37.109,-21.973,-31.738
1683634004.884,-23.926,-14.648,-4.395,-8.301
1683634004.888,-17.090,-4.883,-17.090,-13.184
1683634004.891,-54.688,-37.598,-72.266,-48.340
1683634004.895,-75.195,-59.082,-61.523,-68.359
1683634004.899,-54.199,-50.781,-32.227,-43.945
1683634004.903,-24.902,-28.320,-21.484,-7.812
1683634004.907,-12.207,-13.184,-18.066,-8.301
1683634004.909,-29.785,-27.344,-35.156,-46.875
1683634004.913,-51.758,-47.852,-48.340,-70.801
1683634004.917,-46.875,-52.734,-41.016,-51.270
1683634004.921,-24.902,-35.645,-23.926,-17.578
1683634004.925,-7.324,-20.996,-16.602,-3.906
1683634004.929,-19.043,-28.320,-28.809,-25.879
1683634004.933,-44.434,-46.387,-65.430,-53.711
1683634004.936,-42.480,-46.875,-56.152,-37.109
1683634004.940,-21.484,-35.156,-18.555,-5.859
1683634004.944,-22.461,-38.086,-23.438,-13.184
1683634004.948,-41.504,-39.551,-38.574,-45.410
1683634004.952,-59.082,-54.688,-43.945,-66.895
1683634004.954,-62.988,-64.941,-38.574,-56.641
1683634004.958,-44.434,-44.434,-23.926,-23.438
1683634004.962,-30.273,-25.879,-14.160,-4.883
1683634004.966,-40.039,-28.809,-25.879,-23.926
1683634004.970,-64.941,-45.898,-32.227,-55.176
1683634004.974,-72.266,-54.199,-40.527,-58.105
1683634004.978,-46.875,-41.992,-62.012,-24.414
1683634004.981,-20.508,-30.273,-34.180,-5.859
1683634004.985,-27.344,-35.645,-30.273,-27.832
1683634004.989,-51.758,-59.082,-54.199,-62.012
1683634004.993,-57.617,-66.406,-49.805,-63.477
1683634004.997,-35.645,-41.992,-29.297,-31.738
1683634004.954,-62.988,-64.941,-38.574,-56.641
1683634004.958,-44.434,-44.434,-23.926,-23.438
1683634004.962,-30.273,-25.879,-14.160,-4.883
1683634004.966,-40.039,-28.809,-25.879,-23.926
1683634004.970,-64.941,-45.898,-32.227,-55.176
1683634004.974,-72.266,-54.199,-40.527,-58.105
1683634004.978,-46.875,-41.992,-62.012,-24.414
1683634004.981,-20.508,-30.273,-34.180,-5.859
1683634004.985,-27.344,-35.645,-30.273,-27.832
1683634004.989,-51.758,-59.082,-54.199,-62.012
1683634004.993,-57.617,-66.406,-49.805,-63.477
1683634004.997,-35.645,-41.992,-29.297,-31.738
1683634005.014,-13.184,-22.949,-21.484,-14.648
1683634005.018,-20.020,-31.250,-32.715,-37.109
1683634005.022,-38.086,-40.039,-41.992,-62.012
1683634005.026,-49.805,-49.316,-41.016,-64.453
1683634005.030,-34.668,-36.621,-26.367,-32.227
1683634005.034,-5.859,-11.230,-26.855,0.000
1683634005.038,-11.230,-13.672,-38.086,-16.113
1683634005.041,-46.875,-34.180,-44.434,-59.082
1683634005.045,-63.965,-60.059,-57.129,-71.289
1683634005.049,-43.457,-50.293,-73.242,-37.109
1683634005.053,-21.973,-21.484,-38.574,-13.184
1683634005.057,-27.344,-28.320,-20.996,-28.320
1683634005.059,-62.500,-54.199,-45.898,-58.594
1683634005.063,-79.102,-59.570,-49.316,-65.918
1683634005.067,-56.641,-50.293,-30.273,-41.992
1683634005.071,-28.809,-36.133,-18.066,-10.742
1683634005.075,-22.949,-18.555,-22.949,-13.672
1683634005.079,-47.363,-29.297,-40.039,-52.246
1683634005.083,-61.035,-42.969,-46.875,-65.430
1683634005.086,-44.922,-38.574,-29.785,-43.457
1683634005.090,-17.090,-23.926,-36.133,-12.695
1683634005.094,-8.789,-25.391,-65.918,-8.301
1683634005.098,-28.320,-40.527,-48.828,-37.598
1683634005.102,-52.734,-48.828,-47.363,-61.523
1683634005.104,-49.805,-39.551,-43.945,-46.387
1683634005.108,-20.996,-21.973,-25.391,-5.859
1683634005.112,-1.953,-11.719,-15.137,6.836
1683634005.116,-23.926,-27.344,-30.273,-25.391
1683634005.120,-58.105,-50.293,-50.293,-54.199
1683634005.124,-67.383,-45.898,-44.434,-47.363
1683634005.128,-45.410,-31.250,-20.508,-19.531
1683634005.131,-21.973,-23.926,-17.578,-4.395
1683634005.135,-40.039,-33.203,-88.867,-35.645
1683634005.139,-75.684,-62.012,-85.938,-75.684
1683634005.143,-69.824,-52.246,-31.738,-64.453
1683634005.147,-40.039,-23.438,-22.461,-27.344
1683634005.149,-24.414,-29.297,-22.461,-19.531
1683634005.153,-33.203,-43.945,-33.203,-40.527
1683634005.157,-58.594,-60.547,-46.875,-66.406
1683634005.161,-59.570,-62.988,-43.457,-57.617
1683634005.165,-33.691,-42.969,-25.391,-23.438
1683634005.169,-8.301,-18.555,-20.996,-8.789
1683634005.173,-13.672,-23.926,-23.926,-22.461
1683634005.176,-30.762,-45.898,-48.340,-43.945
1683634005.180,-34.668,-54.688,-84.473,-42.969
1683634005.184,-17.578,-44.922,-40.039,-11.230
1683634005.188,4.395,-23.438,-8.789,12.695
1683634005.192,-10.254,-24.902,-25.391,-10.254
1683634005.194,-43.945,-47.363,-38.086,-42.969
1683634005.198,-46.875,-47.852,-34.180,-41.016
1683634005.202,-31.250,-35.645,-22.949,-17.090
1683634005.206,-5.859,-21.484,-14.648,6.836
1683634005.210,-6.836,-20.020,-19.531,-5.371
1683634005.214,-40.527,-28.320,-29.297,-42.480
1683634005.218,-62.500,-35.156,-34.180,-56.641
1683634005.221,-55.664,-37.598,-93.262,-39.551
1683634005.225,-36.133,-27.344,-66.895,-19.043
1683634005.229,-33.691,-21.484,-8.789,-21.484
1683634005.233,-51.270,-29.297,-30.273,-50.781
1683634005.237,-65.918,-48.828,-45.410,-69.336
1683634005.239,-57.617,-56.641,-35.645,-46.875
1683634005.243,-32.715,-40.039,-20.508,-15.625
1683634005.247,-33.203,-24.902,-21.973,-22.949
1683634005.251,-65.430,-23.926,-39.551,-62.012
1683634005.255,-72.754,-38.574,-47.852,-76.172
1683634005.259,-37.109,-33.203,-24.414,-43.457
1683634005.263,-12.695,-10.742,-19.043,-15.625
1683634005.266,-14.648,-19.043,-57.129,-20.996
1683634005.270,-36.133,-38.574,-43.945,-46.875
1683634005.274,-61.035,-56.152,-35.645,-62.988
1683634005.278,-60.547,-57.617,-38.086,-50.293
1683634005.282,-36.133,-35.645,-23.926,-18.555
1683634005.284,-22.949,-25.391,-18.066,-2.930
1683634005.288,-42.969,-37.598,-32.715,-28.320
1683634005.292,-72.266,-49.316,-48.828,-55.176
1683634005.296,-80.566,-55.176,-42.969,-52.734
1683634005.300,-62.988,-45.898,-23.438,-29.785
1683634005.304,-38.574,-25.391,-11.719,-12.207
1683634005.308,-47.852,-26.855,-70.312,-28.809
1683634005.311,-75.684,-53.711,-79.590,-63.477
1683634005.315,-79.102,-55.176,-30.762,-61.523
1683634005.319,-54.688,-29.297,-20.020,-29.785
1683634005.323,-35.156,-11.230,-11.719,-12.207
1683634005.327,-41.992,-24.414,-20.020,-37.598
1683634005.329,-66.406,-45.898,-41.504,-75.195
1683634005.333,-76.660,-59.082,-45.410,-78.125
1683634005.337,-53.711,-49.316,-32.227,-52.246
1683634005.341,-19.531,-20.020,-18.555,-20.996
1683634005.345,-23.926,-25.391,-15.625,-29.297
1683634005.349,-50.293,-46.387,-45.898,-64.453
1683634005.353,-58.594,-57.129,-79.590,-68.848
1683634005.356,-43.457,-48.340,-37.598,-31.738
1683634005.360,-14.648,-17.578,-4.883,0.977
1683634005.364,-9.766,-17.090,-25.391,-9.766
1683634005.368,-42.969,-48.340,-49.805,-45.898
1683634005.372,-61.523,-62.012,-42.969,-60.547
1683634005.389,-47.852,-51.270,-25.879,-34.180
1683634005.393,-24.902,-28.809,-13.184,-1.465
1683634005.397,-26.855,-20.508,-17.090,-9.277
1683634005.401,-54.688,-37.598,-31.738,-48.340
1683634005.405,-73.242,-54.688,-45.898,-70.801
1683634005.409,-61.523,-41.992,-47.363,-49.316
1683634005.413,-35.156,-19.043,-24.902,-14.160
1683634005.416,-30.273,-19.043,-14.160,-14.648
1683634005.420,-46.875,-40.039,-34.180,-50.781
1683634005.424,-68.359,-62.988,-82.031,-74.707
1683634005.428,-63.965,-57.617,-49.805,-52.734
1683634005.432,-38.086,-30.762,-7.812,-13.672
1683634005.434,-27.832,-32.227,-17.578,-12.695
1683634005.438,-34.180,-42.480,-30.762,-38.086
1683634005.442,-49.805,-45.410,-44.434,-54.688
1683634005.446,-53.223,-56.152,-43.945,-50.781
1683634005.450,-25.879,-45.898,-30.762,-17.090
1683634005.454,-13.672,-26.367,-26.855,-6.836
1683634005.458,-38.574,-34.668,-44.434,-46.387
1683634005.461,-67.383,-57.617,-51.270,-73.242
1683634005.465,-69.824,-62.500,-58.594,-62.500
1683634005.469,-45.898,-49.805,-73.730,-34.180
1683634005.473,-20.508,-32.715,-32.715,-9.766
1683634005.477,-25.391,-31.250,-28.320,-20.996
1683634005.480,-59.082,-50.293,-52.734,-58.594
1683634005.484,-71.777,-57.617,-48.828,-60.059
1683634005.488,-55.664,-46.387,-29.785,-28.320
1683634005.492,-32.715,-27.344,-21.484,-10.254
1683634005.496,-36.621,-33.203,-35.645,-27.832
1683634005.500,-64.941,-54.688,-48.828,-58.105
1683634005.504,-73.730,-53.223,-37.598,-58.105
1683634005.507,-47.363,-41.016,-24.414,-25.879
1683634005.511,-20.508,-31.738,-69.824,-4.883
1683634005.515,-20.996,-26.367,-56.152,-21.973
1683634005.519,-41.016,-30.273,-21.973,-56.152
1683634005.523,-50.781,-48.340,-37.109,-65.430
1683634005.524,-38.574,-45.898,-27.832,-36.133
1683634005.528,-17.578,-27.344,-16.113,-10.742
1683634005.532,-21.484,-29.785,-19.531,-23.926
1683634005.536,-43.457,-40.527,-33.691,-50.293
1683634005.540,-59.082,-52.734,-44.922,-65.918
1683634005.544,-49.316,-45.410,-35.645,-42.969
1683634005.548,-33.691,-33.203,-19.531,-12.695
1683634005.551,-34.180,-31.250,-36.133,-20.020
1683634005.555,-57.129,-46.387,-82.520,-55.664
1683634005.559,-76.172,-61.035,-66.406,-77.148
1683634005.563,-68.359,-48.828,-36.621,-54.199
1683634005.567,-38.574,-26.855,-20.020,-15.137
1683634005.569,-32.227,-22.949,-19.531,-21.484
1683634005.573,-57.129,-50.293,-34.668,-55.176
1683634005.577,-71.289,-65.430,-45.410,-69.336
1683634005.581,-56.641,-61.035,-41.504,-51.270
1683634005.585,-29.785,-41.504,-25.879,-9.277
1683634005.589,-22.949,-24.414,-21.973,-6.348
1683634005.593,-36.621,-22.949,-34.668,-38.086
1683634005.596,-62.500,-39.062,-62.988,-64.453
1683634005.600,-59.082,-51.270,-55.176,-52.734
1683634005.604,-18.555,-23.926,-22.461,-13.184
1683634005.608,-3.418,0.488,-16.113,0.000
1683634005.612,-21.973,-21.484,-29.297,-29.297
1683634005.614,-46.387,-56.152,-42.969,-60.059
1683634005.618,-60.547,-61.035,-41.504,-50.781
1683634005.622,-33.691,-36.621,-25.879,-9.277
1683634005.626,-7.812,-15.625,-17.090,11.230
1683634005.630,-26.855,-25.391,-26.855,-13.672
1683634005.634,-59.082,-48.340,-36.133,-46.387
1683634005.638,-61.035,-50.293,-39.551,-44.434
1683634005.641,-40.527,-43.945,-41.016,-22.461
1683634005.645,-20.508,-25.879,-20.508,-2.930
1683634005.649,-30.762,-29.297,-23.926,-19.531
1683634005.653,-60.059,-54.688,-44.922,-60.547
1683634005.657,-67.871,-62.012,-44.434,-65.918
1683634005.659,-54.688,-48.340,-24.414,-28.809
1683634005.663,-41.016,-35.156,-19.531,-6.348
1683634005.667,-42.969,-38.574,-31.738,-32.715
1683634005.671,-64.941,-48.340,-39.062,-63.477
1683634005.675,-78.125,-59.082,-38.574,-65.918
1683634005.679,-59.570,-46.875,-29.785,-43.457
1683634005.683,-28.320,-15.625,-47.852,-13.672
1683634005.686,-19.531,-18.555,-50.781,-23.438
1683634005.690,-37.598,-41.992,-44.922,-63.477
1683634005.694,-47.852,-49.805,-53.223,-70.801
1683634005.698,-25.391,-31.250,-39.062,-36.133
1683634005.702,4.395,-9.766,-22.461,-1.465
1683634005.704,2.930,-15.137,-20.996,2.441
1683634005.708,-31.250,-41.992,-38.086,-24.414
1683634005.712,-54.688,-54.688,-45.410,-38.086
1683634005.716,-42.480,-42.480,-30.762,-14.160
1683634005.720,-11.230,-24.414,-16.113,11.719
1683634005.724,-9.277,-10.742,-27.344,2.930
1683634005.728,-38.574,-24.414,-53.711,-31.250
1683634005.731,-54.688,-49.805,-50.781,-50.781
1683634005.735,-46.875,-54.199,-37.598,-31.738
1683634005.739,-27.344,-40.039,-31.250,-0.977
1683634005.743,-14.648,-23.926,-34.668,1.465
1683634005.747,-33.691,-31.738,-37.598,-33.203
1683634005.764,-62.500,-50.781,-48.828,-65.430
1683634005.768,-59.082,-45.898,-49.805,-45.898
1683634005.772,-27.344,-29.785,-28.320,-8.301
1683634005.776,-13.672,-21.973,-19.531,-9.277
1683634005.780,-31.250,-33.691,-35.156,-40.039
1683634005.784,-54.199,-46.875,-55.176,-66.406
1683634005.788,-56.152,-42.480,-51.758,-59.082
1683634005.791,-38.086,-35.156,-23.926,-30.273
1683634005.795,-22.461,-24.902,-28.320,-14.160
1683634005.799,-36.133,-30.273,-106.445,-34.668
1683634005.803,-59.082,-46.387,-83.984,-64.453
1683634005.807,-62.500,-55.176,-33.203,-61.035
1683634005.809,-43.457,-39.551,-23.438,-25.391
1683634005.813,-15.625,-19.043,-16.113,-3.418
1683634005.817,-25.391,-25.391,-28.320,-31.250
1683634005.821,-58.105,-44.434,-40.527,-65.918
1683634005.825,-57.617,-50.293,-41.504,-63.965
1683634005.829,-41.992,-35.156,-29.785,-32.715
1683634005.833,-21.484,-18.066,-20.020,-9.277
1683634005.836,-18.066,-23.438,-23.926,-28.320
1683634005.840,-46.875,-42.969,-57.617,-65.430
1683634005.844,-66.406,-60.547,-85.449,-72.754
1683634005.848,-42.969,-49.316,-40.039,-38.086
1683634005.852,-12.207,-23.438,-13.184,-9.277
1683634005.854,-18.555,-23.438,-31.738,-29.297
1683634005.858,-41.016,-43.457,-42.969,-62.012
1683634005.862,-52.734,-53.223,-40.527,-67.383
1683634005.866,-44.922,-40.527,-35.156,-42.969
1683634005.870,-27.832,-21.484,-28.320,-14.160
1683634005.874,-26.367,-16.602,-31.738,-24.414
1683634005.878,-41.992,-33.691,-40.527,-58.105
1683634005.881,-59.570,-52.246,-49.805,-75.684
1683634005.885,-60.547,-56.641,-72.266,-56.641
1683634005.889,-38.574,-41.016,-49.805,-29.785
1683634005.893,-27.832,-25.391,-24.414,-26.367
1683634005.897,-51.270,-36.621,-42.969,-59.570
1683634005.899,-70.801,-55.176,-49.316,-77.637
1683634005.903,-59.570,-56.641,-35.645,-49.316
1683634005.907,-27.344,-35.645,-19.043,-8.789
1683634005.911,-12.695,-21.484,-15.625,2.441
1683634005.915,-39.551,-34.668,-30.273,-32.715
1683634005.919,-58.594,-44.434,-41.504,-59.082
1683634005.923,-54.199,-40.039,-28.320,-48.340
1683634005.926,-40.039,-33.691,-34.668,-31.250
1683634005.930,-35.645,-29.297,-75.195,-29.297
1683634005.934,-49.316,-36.621,-50.293,-47.363
1683634005.938,-72.754,-55.176,-37.598,-74.707
1683634005.942,-76.172,-61.035,-40.039,-67.383
1683634005.944,-45.898,-42.969,-20.020,-28.809
1683634005.948,-23.438,-30.762,-12.695,-16.113
1683634005.952,-38.086,-33.691,-27.344,-41.992
1683634005.956,-67.871,-49.316,-40.039,-66.406
1683634005.960,-67.383,-56.641,-34.668,-60.059
1683634005.964,-40.527,-36.621,-13.672,-26.367
1683634005.968,-24.902,-18.066,-5.859,-4.883
1683634005.971,-27.832,-29.785,-77.637,-27.832
1683634005.975,-47.363,-59.082,-91.309,-58.594
1683634005.979,-51.758,-65.918,-41.016,-51.270
1683634005.983,-27.344,-41.992,-23.438,-13.184
1683634005.987,-9.277,-22.461,-14.160,5.371
1683634005.989,-22.461,-33.691,-26.367,-12.207
1683634005.993,-40.527,-49.805,-45.410,-43.945
1683634005.997,-52.734,-56.152,-47.852,-54.199
1683634006.001,-35.645,-38.086,-32.227,-26.855
1683634006.005,-11.719,-13.184,-23.438,-1.465
1683634006.009,-27.344,-17.090,-23.438,-24.414
1683634006.013,-59.570,-38.574,-54.688,-66.895
1683634006.016,-74.219,-55.664,-91.309,-78.125
1683634006.020,-62.012,-47.852,-45.898,-54.199
1683634006.024,-36.621,-32.715,-17.578,-23.926
1683634006.028,-34.180,-25.391,-32.227,-29.297
1683634006.032,-62.012,-41.504,-45.898,-62.988
1683634006.034,-70.312,-55.664,-42.969,-60.547
1683634006.038,-48.340,-39.062,-20.020,-23.438
1683634006.042,-19.043,-24.902,-10.254,4.395
1683634006.046,-14.648,-25.391,-13.672,1.465
1683634006.050,-44.922,-39.062,-30.762,-29.297
1683634006.054,-68.359,-50.293,-44.922,-52.246
1683634006.058,-55.176,-41.992,-77.148,-36.621
1683634006.061,-24.902,-25.391,-54.688,5.859
1683634006.065,-16.113,-20.996,-9.766,7.812
1683634006.069,-44.922,-43.945,-29.297,-30.762
1683634006.073,-70.312,-51.270,-47.363,-50.781
1683634006.077,-63.477,-46.387,-38.086,-36.621
1683634006.034,-70.312,-55.664,-42.969,-60.547
1683634006.038,-48.340,-39.062,-20.020,-23.438
1683634006.042,-19.043,-24.902,-10.254,4.395
1683634006.046,-14.648,-25.391,-13.672,1.465
1683634006.050,-44.922,-39.062,-30.762,-29.297
1683634006.054,-68.359,-50.293,-44.922,-52.246
1683634006.058,-55.176,-41.992,-77.148,-36.621
1683634006.061,-24.902,-25.391,-54.688,5.859
1683634006.065,-16.113,-20.996,-9.766,7.812
1683634006.069,-44.922,-43.945,-29.297,-30.762
1683634006.073,-70.312,-51.270,-47.363,-50.781
1683634006.077,-63.477,-46.387,-38.086,-36.621
1683634006.079,-33.203,-31.738,-17.578,-6.836
1683634006.083,-23.438,-23.438,-17.578,-7.812
1683634006.087,-45.898,-39.551,-36.133,-45.898
1683634006.091,-71.777,-50.781,-50.781,-80.566
1683634006.095,-76.660,-46.875,-42.969,-78.613
1683634006.099,-47.363,-26.367,-35.645,-41.992
1683634006.103,-27.344,-16.113,-62.500,-27.832
1683634006.106,-41.992,-31.250,-49.316,-56.641
1683634006.110,-69.824,-54.199,-40.527,-84.961
1683634006.114,-73.730,-58.594,-38.086,-72.754
1683634006.118,-49.316,-39.551,-21.484,-39.062
1683634006.122,-30.273,-23.438,-16.113,-22.949
1683634006.139,-35.156,-31.250,-26.367,-38.574
1683634006.143,-54.199,-54.199,-41.992,-62.500
1683634006.147,-62.988,-58.105,-38.086,-59.082
1683634006.151,-41.504,-36.133,-17.578,-25.391
1683634006.155,-17.578,-22.461,-8.301,-2.930
1683634006.159,-24.902,-27.344,-33.203,-15.625
1683634006.163,-48.340,-42.480,-50.781,-44.434
1683634006.166,-67.383,-62.500,-46.875,-57.617
1683634006.170,-48.828,-57.129,-40.527,-32.227
1683634006.174,-17.578,-33.691,-65.430,-2.441
1683634006.178,-16.113,-21.484,-51.270,-12.207
1683634006.182,-40.527,-34.668,-41.016,-52.734
1683634006.184,-56.152,-50.781,-56.641,-73.730
1683634006.188,-49.805,-47.363,-46.875,-52.246
1683634006.192,-34.668,-30.762,-30.762,-26.855
1683634006.196,-29.785,-22.461,-36.133,-42.969
1683634006.200,-48.828,-33.691,-48.828,-75.195
1683634006.204,-72.266,-44.434,-55.176,-92.773
1683634006.208,-65.430,-38.574,-45.898,-74.707
1683634006.211,-37.109,-24.902,-18.555,-32.715
1683634006.215,-31.738,-27.832,-29.785,-24.414
1683634006.219,-58.594,-45.410,-72.754,-58.594
1683634006.223,-74.707,-59.082,-52.246,-77.637
1683634006.227,-66.406,-51.758,-27.832,-55.664
1683634006.184,-56.152,-50.781,-56.641,-73.730
1683634006.188,-49.805,-47.363,-46.875,-52.246
1683634006.192,-34.668,-30.762,-30.762,-26.855
1683634006.196,-29.785,-22.461,-36.133,-42.969
1683634006.200,-48.828,-33.691,-48.828,-75.195
1683634006.204,-72.266,-44.434,-55.176,-92.773
1683634006.208,-65.430,-38.574,-45.898,-74.707
1683634006.211,-37.109,-24.902,-18.555,-32.715
1683634006.215,-31.738,-27.832,-29.785,-24.414
1683634006.219,-58.594,-45.410,-72.754,-58.594
1683634006.223,-74.707,-59.082,-52.246,-77.637
1683634006.227,-66.406,-51.758,-27.832,-55.664
1683634006.229,-43.457,-31.250,-21.484,-17.578
1683634006.233,-21.484,-21.973,-18.066,-6.348
1683634006.237,-35.156,-35.645,-26.855,-39.551
1683634006.241,-55.664,-53.711,-34.180,-52.734
1683634006.245,-49.316,-54.199,-32.715,-34.180
1683634006.249,-24.902,-33.691,-20.508,-5.859
1683634006.253,-13.672,-22.461,-14.160,2.930
1683634006.256,-35.645,-43.457,-34.668,-30.762
1683634006.260,-57.129,-66.406,-84.473,-54.199
1683634006.264,-46.387,-61.523,-58.594,-33.203
1683634006.268,-18.555,-32.227,-5.371,3.418
1683634006.272,-7.812,-16.602,-7.324,6.836
1683634006.274,-27.832,-36.621,-29.785,-26.855
1683634006.278,-60.547,-62.500,-46.387,-62.988
1683634006.282,-68.848,-62.012,-43.457,-62.988
1683634006.286,-35.645,-40.527,-27.832,-25.391
1683634006.290,-5.371,-16.602,-18.066,-2.930
1683634006.294,-15.137,-20.020,-29.785,-25.879
1683634006.298,-48.828,-40.527,-35.156,-53.223
1683634006.301,-55.176,-55.664,-41.504,-54.688
1683634006.305,-30.273,-52.734,-47.363,-23.926
1683634006.309,-8.789,-35.156,-19.531,-5.859
1683634006.313,-14.648,-34.180,-22.949,-25.391
1683634006.317,-47.852,-55.176,-42.480,-50.293
1683634006.319,-61.523,-63.477,-35.156,-46.875
1683634006.323,-33.203,-40.527,-18.555,-16.113
1683634006.327,-9.766,-26.855,-13.184,3.418
1683634006.331,-19.043,-30.762,-23.438,-10.742
1683634006.335,-47.852,-46.875,-38.086,-38.086
1683634006.339,-57.617,-56.641,-40.527,-45.410
1683634006.343,-32.227,-35.156,-28.809,-19.531
1683634006.346,-12.207,-23.926,-41.016,6.348
1683634006.350,-23.438,-32.715,-39.551,-4.883
1683634006.354,-41.504,-47.363,-30.273,-43.457
1683634006.358,-62.500,-56.152,-36.133,-59.082
1683634006.362,-55.176,-53.223,-26.367,-39.551
1683634006.364,-28.320,-35.645,-17.578,-15.625
1683634006.368,-28.320,-33.691,-27.344,-21.973
1683634006.372,-47.852,-49.805,-41.992,-56.152
1683634006.376,-67.383,-56.152,-44.922,-78.125
1683634006.380,-62.988,-50.781,-37.109,-59.570
1683634006.384,-35.156,-28.809,-20.020,-21.973
1683634006.388,-22.949,-21.973,-28.809,-16.113
1683634006.391,-44.434,-53.223,-64.453,-44.922
1683634006.395,-66.406,-69.336,-55.664,-65.430
1683634006.399,-59.570,-57.129,-35.156,-46.875
1683634006.403,-35.645,-30.762,-20.996,-9.766
1683634006.407,-28.320,-20.020,-20.020,-11.719
1683634006.409,-43.945,-35.156,-34.668,-41.992
1683634006.413,-59.570,-49.316,-40.039,-66.406
1683634006.417,-62.012,-47.363,-34.180,-57.617
1683634006.421,-36.621,-34.180,-21.484,-18.555
1683634006.425,-14.648,-23.926,-13.672,-1.465
1683634006.429,-39.551,-28.809,-25.391,-28.320
1683634006.433,-75.195,-48.828,-68.359,-66.895
1683634006.436,-71.777,-58.105,-64.453,-58.594
1683634006.440,-35.645,-42.969,-24.414,-20.508
1683634006.444,-10.742,-26.855,-18.066,-7.324
1683634006.448,-24.902,-28.320,-28.809,-32.715
1683634006.452,-51.270,-45.898,-46.387,-67.871
1683634006.454,-59.082,-58.594,-50.781,-70.312
1683634006.458,-39.551,-48.828,-36.133,-40.527
1683634006.462,-15.137,-30.273,-28.809,-16.602
1683634006.466,-21.973,-32.227,-44.922,-32.227
1683634006.470,-51.758,-51.758,-47.852,-63.477
1683634006.474,-59.570,-50.293,-57.129,-60.547
1683634006.478,-43.945,-37.598,-84.473,-29.297
1683634006.481,-34.180,-34.668,-43.457,-7.324
1683634006.485,-39.551,-31.250,-25.879,-21.973
1683634006.489,-52.734,-45.410,-42.969,-52.246
1683634006.493,-63.965,-58.105,-41.504,-54.688
1683634006.497,-52.246,-44.434,-31.250,-29.785
1683634006.514,-25.391,-23.926,-19.043,-5.371
1683634006.518,-23.438,-25.879,-32.227,-20.508
1683634006.522,-50.293,-39.551,-56.641,-55.176
1683634006.526,-63.965,-48.340,-53.711,-61.523
1683634006.530,-42.480,-43.945,-37.109,-37.109
1683634006.534,-16.602,-21.484,-38.086,-9.766
1683634006.538,-15.137,-8.789,-30.762,-19.531
1683634006.541,-38.574,-24.902,-34.180,-50.781
1683634006.545,-71.777,-45.898,-54.199,-68.848
1683634006.549,-63.477,-49.316,-79.102,-50.293
1683634006.553,-28.809,-22.949,-45.898,-14.160
1683634006.557,-28.320,-14.160,-20.996,-16.113
1683634006.560,-48.828,-35.645,-34.668,-42.969
1683634006.564,-64.941,-58.594,-42.480,-59.570
1683634006.568,-57.617,-59.570,-37.109,-47.363
1683634006.572,-26.367,-33.203,-22.461,-14.160
1683634006.576,-10.254,-17.578,-20.508,-6.836
1683634006.580,-27.832,-22.461,-34.180,-37.598
1683634006.584,-52.246,-42.969,-53.223,-69.336
1683634006.587,-54.199,-57.617,-42.969,-59.082
1683634006.591,-22.461,-40.527,-42.480,-20.020
1683634006.595,0.977,-22.949,-69.336,-8.789
1683634006.599,-10.742,-31.250,-46.875,-32.227
1683634006.603,-41.016,-49.316,-43.945,-58.105
1683634006.560,-48.828,-35.645,-34.668,-42.969
1683634006.564,-64.941,-58.594,-42.480,-59.570
1683634006.568,-57.617,-59.570,-37.109,-47.363
1683634006.572,-26.367,-33.203,-22.461,-14.160
1683634006.576,-10.254,-17.578,-20.508,-6.836
1683634006.580,-27.832,-22.461,-34.180,-37.598
1683634006.584,-52.246,-42.969,-53.223,-69.336
1683634006.587,-54.199,-57.617,-42.969,-59.082
1683634006.591,-22.461,-40.527,-42.480,-20.020
1683634006.595,0.977,-22.949,-69.336,-8.789
1683634006.599,-10.742,-31.250,-46.875,-32.227
1683634006.603,-41.016,-49.316,-43.945,-58.105
1683634006.604,-54.199,-55.176,-50.293,-47.852
1683634006.608,-30.273,-37.109,-32.715,-12.207
1683634006.612,-8.301,-28.320,-22.949,2.441
1683634006.616,-21.973,-37.598,-37.109,-19.043
1683634006.620,-54.688,-51.270,-50.293,-47.852
1683634006.624,-64.453,-60.059,-48.340,-52.734
1683634006.628,-41.016,-43.945,-28.320,-24.414
1683634006.631,-15.625,-25.879,-11.230,-2.441
1683634006.635,-23.438,-34.668,-50.781,-25.391
1683634006.639,-55.664,-56.152,-61.523,-65.918
1683634006.643,-65.430,-55.176,-34.180,-69.824
1683634006.647,-43.457,-41.504,-29.785,-37.598
1683634006.649,-16.113,-27.832,-24.414,-14.648
1683634006.653,-30.273,-33.203,-26.855,-34.180
1683634006.657,-66.406,-51.758,-37.598,-68.359
1683634006.661,-70.312,-51.758,-36.621,-60.059
1683634006.665,-51.270,-37.598,-26.367,-29.297
1683634006.669,-22.461,-22.461,-20.020,-3.418
1683634006.673,-19.043,-20.508,-14.648,-6.348
1683634006.676,-49.316,-39.062,-46.387,-44.922
1683634006.680,-71.289,-51.270,-85.449,-62.012
1683634006.684,-56.152,-41.992,-49.316,-35.645
1683634006.688,-25.879,-20.020,-16.113,-4.883
1683634006.692,-20.996,-12.207,-24.414,-11.719
1683634006.695,-42.969,-31.738,-41.992,-41.992
1683634006.699,-58.594,-50.781,-41.992,-52.246
1683634006.703,-48.340,-47.363,-32.715,-33.691
1683634006.707,-24.414,-29.297,-26.367,-8.301
1683634006.711,-16.113,-21.973,-27.344,-13.184
1683634006.715,-38.086,-33.691,-36.621,-46.875
1683634006.719,-55.664,-42.969,-41.016,-61.523
1683634006.722,-49.316,-45.410,-41.016,-47.363
1683634006.726,-29.297,-41.504,-31.250,-20.020
1683634006.730,-19.531,-33.203,-21.484,-20.996
1683634006.734,-33.203,-34.180,-34.180,-45.898
1683634006.738,-58.594,-50.781,-72.754,-64.453
1683634006.739,-58.105,-52.246,-50.781,-47.852
1683634006.743,-30.762,-37.109,-12.207,-9.766
1683634006.747,-12.207,-30.273,-13.184,-1.953
1683634006.751,-27.344,-35.156,-28.809,-24.902
1683634006.755,-53.711,-50.781,-47.363,-46.387
1683634006.759,-45.410,-41.504,-36.621,-35.156
1683634006.763,-20.508,-24.902,-27.344,-3.906
1683634006.766,-5.371,-21.484,-49.805,5.371
1683634006.770,-19.531,-24.902,-42.480,-18.555
1683634006.774,-53.223,-49.805,-42.480,-48.828
1683634006.778,-59.082,-60.059,-46.875,-45.898
1683634006.782,-28.320,-35.156,-33.203,-21.484
1683634006.739,-58.105,-52.246,-50.781,-47.852
1683634006.743,-30.762,-37.109,-12.207,-9.766
1683634006.747,-12.207,-30.273,-13.184,-1.953
1683634006.751,-27.344,-35.156,-28.809,-24.902
1683634006.755,-53.711,-50.781,-47.363,-46.387
1683634006.759,-45.410,-41.504,-36.621,-35.156
1683634006.763,-20.508,-24.902,-27.344,-3.906
1683634006.766,-5.371,-21.484,-49.805,5.371
1683634006.770,-19.531,-24.902,-42.480,-18.555
1683634006.774,-53.223,-49.805,-42.480,-48.828
1683634006.778,-59.082,-60.059,-46.875,-45.898
1683634006.782,-28.320,-35.156,-33.203,-21.484
1683634006.784,-18.066,-22.461,-29.297,-17.578
1683634006.788,-38.086,-35.645,-42.969,-40.527
1683634006.792,-63.965,-50.293,-60.059,-72.266
1683634006.796,-69.824,-53.223,-55.664,-72.754
1683634006.800,-46.875,-39.551,-33.203,-40.527
1683634006.804,-27.344,-19.043,-20.508,-21.484
1683634006.808,-35.156,-22.949,-70.801,-35.645
1683634006.811,-59.570,-49.316,-87.402,-67.871
1683634006.815,-74.707,-64.941,-46.875,-79.102
1683634006.819,-58.594,-59.082,-30.762,-51.270
1683634006.823,-28.809,-32.227,-17.578,-14.648
1683634006.827,-25.879,-22.949,-17.578,-19.531
1683634006.844,-50.781,-42.480,-34.180,-57.617
1683634006.848,-72.754,-63.965,-46.875,-77.637
1683634006.852,-61.035,-57.129,-39.062,-57.617
1683634006.856,-37.109,-30.273,-26.855,-25.391
1683634006.860,-35.645,-25.391,-20.508,-24.902
1683634006.864,-56.641,-34.668,-43.945,-54.688
1683634006.868,-73.730,-41.504,-93.262,-70.801
1683634006.871,-55.664,-42.969,-59.570,-48.340
1683634006.875,-22.949,-24.902,-17.090,-9.277
1683634006.879,-17.090,-21.973,-28.809,-6.348
1683634006.883,-34.668,-36.621,-46.387,-42.969
1683634006.887,-53.711,-47.852,-47.363,-64.941
1683634006.889,-46.387,-43.457,-36.621,-39.551
1683634006.893,-16.113,-18.555,-22.461,-1.953
1683634006.897,-2.441,-7.812,-18.066,0.488
1683634006.901,-21.484,-29.297,-31.738,-24.902
1683634006.905,-44.922,-48.340,-42.480,-50.293
1683634006.909,-51.270,-46.875,-40.527,-44.434
1683634006.913,-37.109,-30.762,-31.250,-10.742
1683634006.916,-17.090,-26.367,-20.508,2.441
1683634006.920,-33.691,-41.992,-36.621,-30.762
1683634006.924,-53.711,-56.152,-93.750,-62.500
1683634006.928,-46.387,-45.898,-69.824,-45.410
1683634006.932,-25.391,-29.785,-15.625,-7.812
1683634006.934,-17.090,-22.461,-17.090,-1.465
1683634006.938,-29.785,-31.738,-28.809,-32.227
1683634006.942,-56.641,-49.316,-39.551,-62.500
1683634006.946,-67.383,-46.875,-31.738,-55.664
1683634006.950,-46.875,-35.645,-20.508,-22.949
1683634006.954,-28.320,-27.344,-21.484,-9.766
1683634006.958,-36.133,-29.785,-32.227,-28.809
1683634006.961,-57.617,-51.270,-31.250,-61.035
1683634006.965,-75.195,-57.129,-51.270,-65.430
1683634006.969,-58.594,-44.434,-84.961,-41.016
1683634006.973,-24.414,-29.785,-30.762,-16.602
1683634006.977,-20.996,-27.344,-14.160,-23.438
1683634006.979,-46.875,-41.992,-43.945,-49.805
1683634006.983,-57.129,-53.223,-41.504,-52.246
1683634006.987,-37.598,-39.551,-27.832,-27.344
1683634006.991,-20.020,-23.926,-19.531,-8.301
1683634006.995,-22.949,-32.715,-26.367,-19.531
1683634006.999,-39.062,-38.574,-45.898,-52.246
1683634007.003,-51.270,-38.574,-45.898,-62.988
1683634007.006,-39.062,-34.668,-35.156,-38.086
1683634007.010,-20.020,-32.227,-64.941,-8.301
1683634007.014,-18.066,-36.133,-55.176,-9.277
1683634007.018,-37.109,-41.504,-32.227,-44.434
1683634007.022,-63.965,-55.176,-47.852,-62.012
1683634007.024,-53.223,-51.270,-37.109,-31.250
1683634007.028,-28.809,-34.180,-21.973,-8.789
1683634007.032,-21.484,-26.367,-23.926,-10.254
1683634007.036,-37.598,-33.203,-37.109,-30.273
1683634007.040,-65.430,-47.852,-51.758,-56.641
1683634007.044,-69.336,-47.363,-50.293,-43.457
1683634007.048,-41.992,-30.273,-20.508,-8.301
1683634007.051,-25.391,-25.391,-39.062,-3.418
1683634007.055,-43.945,-35.645,-105.469,-34.180
1683634007.059,-69.336,-65.430,-74.707,-65.430
1683634007.063,-70.801,-67.383,-39.551,-54.199
1683634007.067,-42.969,-37.598,-31.250,-19.531
1683634007.070,-28.809,-25.879,-21.973,-12.695
1683634007.074,-47.363,-36.133,-30.273,-41.992
1683634007.078,-70.312,-57.617,-43.457,-70.312
1683634007.082,-69.336,-53.711,-39.551,-65.430
1683634007.086,-38.086,-24.414,-17.090,-36.133
1683634007.090,-18.555,-14.160,-9.277,-20.020
1683634007.094,-29.297,-29.785,-21.973,-43.945
1683634007.097,-53.711,-59.082,-73.242,-74.707
1683634007.101,-55.664,-62.988,-71.289,-65.918
1683634007.105,-32.715,-46.875,-21.484,-29.785
1683634007.109,-23.926,-24.414,-16.113,-16.602
1683634007.113,-40.527,-19.531,-26.855,-35.156
1683634007.114,-76.660,-52.734,-39.551,-68.848
1683634007.118,-90.820,-73.242,-38.086,-69.824
1683634007.122,-58.105,-59.082,-20.020,-30.273
1683634007.126,-34.668,-34.180,-10.742,-10.742
1683634007.130,-47.363,-31.738,-22.461,-25.391
1683634007.134,-73.242,-45.898,-30.762,-58.105
1683634007.138,-84.961,-52.734,-49.805,-67.383
1683634007.141,-60.059,-45.898,-88.379,-37.109
1683634007.145,-26.367,-29.785,-31.738,-9.277
1683634007.149,-23.438,-24.414,-7.812,-16.113
1683634007.153,-48.828,-42.480,-39.062,-48.828
1683634007.157,-63.965,-54.688,-42.480,-69.824
1683634007.159,-45.410,-40.039,-25.391,-50.293
1683634007.163,-21.973,-27.344,-12.695,-23.926
1683634007.167,-18.555,-26.855,-25.391,-31.250
1683634007.171,-39.062,-44.434,-47.363,-59.570
1683634007.175,-56.152,-64.453,-49.805,-77.637
1683634007.179,-46.387,-48.828,-32.227,-51.270
1683634007.183,-23.438,-16.602,-63.965,-12.695
1683634007.186,-10.742,-18.066,-66.406,-9.766
1683634007.190,-31.250,-38.086,-31.250,-32.715
1683634007.194,-57.129,-54.199,-37.598,-53.711
1683634007.198,-57.617,-46.387,-28.809,-42.480
1683634007.202,-40.039,-27.344,-8.301,-11.719
1683634007.204,-28.809,-23.438,-5.371,-12.695
1683634007.208,-48.828,-42.480,-25.879,-49.316
1683634007.212,-72.266,-58.594,-37.598,-75.195
1683634007.216,-69.336,-48.828,-26.855,-63.965
1683634007.220,-52.246,-35.645,-9.766,-37.109
1683634007.224,-40.039,-24.414,-18.066,-32.715
1683634007.228,-50.293,-26.367,-54.199,-56.641
1683634007.231,-68.359,-56.152,-49.805,-75.684
1683634007.235,-59.082,-61.523,-27.832,-58.105
1683634007.239,-28.320,-35.645,-24.414,-22.461
1683634007.243,-6.836,-14.160,-29.785,-7.812
1683634007.247,-20.996,-18.555,-31.250,-33.691
1683634007.265,-49.805,-36.621,-42.969,-65.918
1683634007.269,-56.641,-47.363,-51.270,-68.359
1683634007.273,-45.898,-32.227,-35.645,-43.945
1683634007.277,-36.133,-12.695,-24.902,-31.738
1683634007.281,-42.969,-20.020,-34.180,-47.852
1683634007.285,-67.383,-37.109,-81.543,-73.730
1683634007.289,-76.172,-41.504,-77.148,-71.289
1683634007.292,-51.270,-31.738,-31.250,-33.203
1683634007.296,-22.949,-20.996,-26.367,-7.812
1683634007.300,-26.855,-32.715,-62.500,-28.809
1683634007.304,-53.711,-44.434,-58.105,-58.105
1683634007.308,-57.617,-45.898,-31.250,-58.594
1683634007.309,-33.203,-41.992,-17.578,-35.645
1683634007.313,-16.113,-33.203,-5.371,-13.672
1683634007.317,-31.250,-36.621,-13.672,-27.832
1683634007.321,-60.059,-51.758,-34.180,-73.242
1683634007.325,-73.730,-57.617,-40.039,-82.031
1683634007.329,-64.941,-42.480,-32.715,-51.758
1683634007.333,-36.621,-25.879,-21.484,-24.414
1683634007.336,-39.551,-28.809,-16.113,-30.762
1683634007.340,-68.359,-41.016,-48.828,-60.059
1683634007.344,-79.102,-49.805,-100.586,-70.312
1683634007.348,-60.059,-44.922,-53.711,-35.645
1683634007.352,-29.297,-27.344,-16.602,-0.977
1683634007.354,-10.742,-17.090,-28.320,-0.977
1683634007.358,-22.461,-27.832,-32.227,-21.973
1683634007.362,-40.039,-46.875,-38.086,-41.016
1683634007.366,-31.250,-42.969,-32.715,-23.926
1683634007.370,-5.371,-19.043,-21.973,3.418
1683634007.374,-6.348,-12.207,-24.414,0.977
1683634007.378,-41.016,-29.785,-35.156,-37.109
1683634007.381,-65.918,-51.758,-50.781,-75.684
1683634007.385,-61.035,-52.246,-86.426,-65.918
1683634007.389,-43.457,-37.598,-62.500,-32.715
1683634007.393,-34.180,-16.113,-20.508,-29.297
1683634007.397,-50.293,-18.555,-41.504,-60.547
1683634007.399,-83.008,-50.781,-59.082,-89.355
1683634007.403,-79.102,-58.594,-49.316,-82.031
1683634007.407,-52.246,-35.645,-34.180,-48.340
1683634007.411,-33.691,-16.113,-27.344,-25.391
1683634007.415,-41.016,-21.973,-38.574,-44.922
1683634007.419,-66.406,-37.109,-56.641,-73.242
1683634007.423,-66.895,-43.457,-45.898,-66.895
1683634007.426,-34.668,-38.574,-37.598,-30.762
1683634007.430,-23.926,-28.809,-62.012,-10.254
1683634007.434,-35.156,-33.203,-41.504,-26.367
1683634007.438,-42.969,-50.781,-37.109,-47.363
1683634007.442,-50.293,-55.176,-46.875,-42.480
1683634007.444,-31.250,-33.691,-25.391,-11.230
1683634007.448,2.930,-12.207,-12.695,5.859
1683634007.452,-3.906,-17.090,-30.762,-14.648
1683634007.456,-39.062,-42.480,-53.223,-46.875
1683634007.460,-54.688,-52.246,-51.270,-49.316
1683634007.464,-34.180,-32.715,-30.762,-13.184
1683634007.468,-15.625,-9.766,-16.113,9.766
1683634007.471,-33.691,-16.602,-69.824,-12.207
1683634007.475,-71.289,-41.992,-88.867,-48.340
1683634007.479,-86.914,-51.270,-53.223,-64.453
1683634007.483,-68.848,-34.668,-36.133,-36.133
1683634007.487,-44.434,-24.414,-21.973,-9.766
1683634007.489,-49.805,-30.273,-19.531,-30.762
1683634007.493,-79.590,-47.852,-27.344,-68.359
1683634007.497,-92.773,-63.477,-30.762,-81.543
1683634007.501,-79.590,-51.270,-19.531,-58.105
1683634007.505,-51.758,-27.344,-5.371,-24.414
1683634007.509,-45.410,-24.902,3.418,-25.879
1683634007.513,-76.660,-43.457,-36.621,-59.082
1683634007.516,-97.168,-68.848,-101.562,-72.266
1683634007.520,-67.383,-62.012,-45.898,-35.645
1683634007.524,-26.855,-38.574,-2.930,6.348
1683634007.528,-12.207,-27.832,-10.742,15.137
1683634007.532,-28.809,-36.621,-20.020,-13.184
1683634007.534,-50.781,-57.617,-32.227,-35.156
1683634007.538,-44.434,-61.523,-25.879,-20.996
1683634007.542,-20.996,-39.551,-18.066,12.207
1683634007.546,-11.230,-22.949,-12.207,20.996
1683634007.550,-35.645,-39.062,-18.066,-17.090
1683634007.554,-58.594,-56.152,-32.227,-46.875
1683634007.558,-50.781,-41.992,-70.312,-35.156
1683634007.561,-27.344,-28.809,-61.035,-4.395
1683634007.565,-13.184,-30.273,-12.207,-1.953
1683634007.569,-19.531,-30.273,-15.137,-28.809
1683634007.573,-41.016,-37.598,-32.715,-62.500
1683634007.577,-52.734,-49.316,-28.320,-67.383
1683634007.579,-32.715,-38.574,-10.254,-30.273
1683634007.583,-11.230,-23.926,-4.883,-9.277
1683634007.587,-27.832,-33.691,-18.066,-31.250
1683634007.591,-55.176,-55.664,-39.062,-63.965
1683634007.595,-58.105,-55.664,-35.156,-58.594
1683634007.599,-37.598,-28.320,-32.715,-20.020
1683634007.603,-13.184,-13.184,-61.523,1.465
1683634007.606,-15.625,-29.785,-42.480,-16.602
1683634007.610,-41.016,-47.852,-35.645,-46.387
1683634007.614,-47.363,-52.734,-46.387,-45.898
1683634007.618,-28.320,-47.363,-31.738,-19.043
1683634007.622,-4.883,-28.809,-18.555,0.488
1683634007.639,-2.441,-25.391,-23.438,-12.695
1683634007.643,-31.250,-46.875,-43.457,-46.387
1683634007.647,-56.641,-63.965,-42.969,-53.711
1683634007.651,-42.480,-48.340,-19.531,-28.320
1683634007.655,-25.391,-24.902,-7.812,-7.812
1683634007.659,-31.738,-23.438,-29.297,-25.391
1683634007.663,-49.805,-39.062,-38.574,-60.547
1683634007.666,-61.523,-60.059,-27.344,-60.059
1683634007.670,-47.852,-54.688,-18.066,-29.297
1683634007.674,-22.461,-31.250,-41.992,-10.742
1683634007.678,-20.020,-18.555,-34.180,-20.508
1683634007.682,-48.828,-29.785,-24.902,-53.223
1683634007.684,-74.219,-49.805,-41.504,-71.289
1683634007.688,-60.059,-43.945,-36.621,-50.293
1683634007.692,-25.391,-21.484,-17.578,-14.648
1683634007.696,-12.207,-20.020,-16.113,-17.578
1683634007.700,-33.691,-37.109,-35.645,-48.340
1683634007.704,-53.711,-47.363,-45.898,-59.570
1683634007.708,-46.875,-41.992,-38.086,-44.434
1683634007.711,-32.715,-37.598,-16.113,-21.973
1683634007.715,-26.855,-32.227,-34.180,-18.066
1683634007.719,-31.250,-37.109,-92.285,-39.551
1683634007.723,-46.387,-49.316,-63.477,-65.918
1683634007.727,-43.945,-45.410,-36.621,-54.688
1683634007.729,-17.578,-25.879,-29.297,-6.348
1683634007.733,-1.953,-7.324,-17.578,8.789
1683634007.737,-12.695,-11.719,-30.762,-15.625
1683634007.741,-34.180,-35.645,-49.316,-38.086
1683634007.745,-43.457,-47.852,-45.898,-34.668
1683634007.749,-20.020,-24.414,-24.902,-1.953
1683634007.753,-8.789,-6.836,-16.602,7.812
1683634007.756,-25.391,-22.949,-27.832,-24.902
1683634007.760,-56.641,-49.316,-65.430,-60.547
1683634007.764,-78.125,-52.734,-65.918,-69.824
1683634007.768,-59.082,-26.855,-28.320,-48.828
1683634007.772,-36.133,-17.578,-18.555,-27.832
1683634007.774,-40.039,-29.297,-34.668,-48.828
1683634007.778,-61.523,-45.898,-53.223,-81.055
1683634007.782,-70.801,-52.734,-48.340,-77.637
1683634007.786,-49.316,-35.645,-29.297,-41.992
1683634007.790,-20.996,-20.996,-21.973,-15.137
1683634007.794,-23.926,-28.320,-28.809,-23.438
1683634007.798,-50.781,-46.387,-36.133,-51.270
1683634007.801,-62.012,-60.059,-46.387,-53.711
1683634007.805,-40.527,-56.641,-65.430,-27.344
1683634007.809,-7.324,-36.133,-39.551,2.930
1683634007.813,-1.465,-24.414,-21.973,5.371
1683634007.817,-41.504,-40.039,-37.109,-35.156
1683634007.819,-71.777,-55.664,-39.551,-64.453
1683634007.823,-68.848,-55.664,-26.855,-48.828
1683634007.827,-52.734,-40.527,-18.066,-20.508
1683634007.831,-49.805,-36.133,-29.785,-25.391
1683634007.835,-67.871,-46.387,-45.898,-54.688
1683634007.839,-77.148,-58.594,-48.828,-66.895
1683634007.843,-64.453,-52.734,-40.039,-43.945
1683634007.846,-43.945,-33.691,-66.895,-19.043
1683634007.850,-33.203,-34.180,-64.453,-21.973
1683634007.854,-47.852,-54.199,-43.457,-48.340
1683634007.858,-69.824,-60.059,-51.270,-69.824
1683634007.862,-65.430,-51.758,-40.039,-57.617
1683634007.864,-35.156,-36.133,-22.949,-22.949
1683634007.868,-19.531,-26.367,-23.438,-16.113
1683634007.872,-34.668,-37.109,-40.527,-44.434
1683634007.876,-50.781,-48.828,-48.340,-59.082
1683634007.880,-58.105,-52.734,-43.457,-44.434
1683634007.884,-43.457,-30.762,-22.461,-23.438
1683634007.888,-28.320,-5.371,-28.320,-22.461
1683634007.891,-45.410,-27.344,-78.613,-49.316
1683634007.895,-74.219,-50.293,-61.523,-73.730
1683634007.899,-78.613,-51.758,-38.086,-65.918
1683634007.903,-52.734,-35.156,-26.855,-23.926
1683634007.907,-30.762,-16.113,-11.230,-4.395
1683634007.909,-47.852,-23.438,-25.391,-36.133
1683634007.913,-80.078,-45.410,-46.875,-73.242
1683634007.917,-81.543,-57.129,-51.270,-71.777
1683634007.921,-58.105,-42.480,-34.668,-41.016
1683634007.925,-35.156,-20.020,-19.043,-16.113
1683634007.929,-34.180,-20.996,-23.926,-28.809
1683634007.933,-60.547,-43.945,-45.898,-61.523
1683634007.936,-78.125,-61.035,-48.340,-68.848
1683634007.940,-61.035,-44.922,-21.484,-36.621
1683634007.944,-34.668,-25.879,-11.719,-12.207
1683634007.948,-30.273,-20.996,-19.531,-21.973
1683634007.952,-52.734,-32.227,-36.621,-49.805
1683634007.954,-69.336,-48.828,-43.945,-68.848
1683634007.958,-56.152,-50.781,-35.645,-55.176
1683634007.962,-34.180,-35.156,-20.996,-22.461
1683634007.966,-31.250,-23.438,-21.484,-20.020
1683634007.970,-56.152,-34.668,-30.762,-50.293
1683634007.974,-81.543,-45.410,-41.016,-68.848
1683634007.978,-70.801,-39.551,-61.523,-47.852
1683634007.981,-42.480,-36.133,-34.180,-16.602
1683634007.985,-32.715,-34.668,-19.531,-17.578
1683634007.989,-58.594,-48.828,-41.992,-48.828
1683634007.993,-75.684,-62.988,-46.387,-63.477
1683634007.997,-53.711,-50.293,-30.273,-41.992
1683634008.014,-21.484,-28.809,-11.719,-8.789
1683634008.018,-14.160,-19.531,-9.766,-5.371
1683634008.022,-35.645,-37.598,-28.809,-42.969
1683634008.026,-65.918,-57.129,-40.527,-71.777
1683634008.030,-62.988,-51.758,-31.738,-56.152
1683634008.034,-34.180,-27.832,-23.438,-19.043
1683634008.038,-24.414,-18.555,-17.578,-14.160
1683634008.041,-47.852,-41.016,-25.879,-44.434
1683634008.045,-74.219,-65.918,-40.527,-67.871
1683634008.049,-75.684,-63.477,-60.547,-59.082
1683634008.053,-53.223,-33.203,-40.527,-25.391
1683634008.057,-32.227,-19.531,-17.090,-9.277
1683634008.059,-43.945,-36.133,-40.527,-39.551
1683634008.063,-68.359,-53.711,-63.477,-69.824
1683634008.067,-67.871,-48.828,-55.176,-58.105
1683634008.071,-35.156,-26.855,-32.715,-15.137
1683634008.075,-17.578,-11.230,-28.320,4.395
1683634008.079,-31.738,-17.578,-39.551,-20.996
1683634008.083,-48.340,-36.133,-48.828,-45.898
1683634008.086,-50.293,-47.852,-45.898,-42.969
1683634008.090,-17.578,-29.785,-39.551,-9.277
1683634008.094,3.418,-19.043,-46.875,3.906
1683634008.098,-10.742,-24.902,-43.457,-27.344
1683634008.102,-37.598,-36.133,-50.293,-61.035
1683634008.104,-47.363,-45.898,-57.617,-62.500
1683634008.108,-25.391,-34.668,-39.551,-30.273
1683634008.112,-18.066,-16.113,-25.879,-8.301
1683634008.116,-41.016,-21.973,-38.574,-39.551
1683634008.120,-64.941,-41.992,-50.781,-70.801
1683634008.124,-70.312,-43.457,-49.805,-68.359
1683634008.128,-53.711,-27.832,-35.645,-44.434
1683634008.131,-33.691,-8.789,-21.973,-18.066
1683634008.135,-38.574,-20.508,-58.105,-31.250
1683634008.139,-60.059,-44.434,-74.707,-69.824
1683634008.143,-68.848,-45.898,-47.852,-70.312
1683634008.147,-50.293,-39.551,-35.645,-35.645
1683634008.149,-27.344,-33.203,-29.297,-12.695
1683634008.153,-16.602,-33.203,-27.832,-11.230
1683634008.157,-28.320,-47.363,-39.062,-36.133
1683634008.161,-43.457,-57.129,-49.805,-54.199
1683634008.165,-42.969,-49.805,-36.621,-34.180
1683634008.169,-14.160,-20.020,-21.973,-4.883
1683634008.173,-2.930,-6.348,-14.648,-6.836
1683634008.176,-32.227,-28.809,-46.875,-39.062
1683634008.180,-49.316,-45.898,-101.562,-62.500
1683634008.184,-40.039,-40.527,-50.781,-41.016
1683634008.188,-20.996,-22.461,-8.301,-9.277
1683634008.192,-10.742,-14.648,-16.602,-7.812
1683634008.195,-30.762,-34.180,-33.691,-34.180
1683634008.199,-58.105,-58.594,-46.387,-59.082
1683634008.203,-62.500,-57.129,-38.086,-54.199
1683634008.207,-47.363,-36.621,-30.273,-24.902
1683634008.211,-41.016,-23.438,-28.320,-15.625
1683634008.215,-61.035,-23.926,-30.273,-41.504
1683634008.219,-85.449,-40.039,-38.574,-69.336
1683634008.222,-88.867,-59.082,-92.773,-69.336
1683634008.226,-60.059,-47.363,-78.613,-39.062
1683634008.230,-30.762,-33.203,-17.090,-18.555
1683634008.234,-39.062,-30.762,-26.855,-37.598
1683634008.238,-60.547,-40.527,-46.875,-66.895
1683634008.239,-59.082,-55.176,-42.480,-63.477
1683634008.243,-35.645,-43.457,-25.879,-24.902
1683634008.247,-10.254,-20.508,-11.719,5.859
1683634008.251,-12.207,-20.996,-17.578,-6.348
1683634008.255,-41.504,-46.875,-42.480,-44.434
1683634008.259,-54.199,-48.340,-38.086,-53.223
1683634008.263,-31.738,-27.832,-35.645,-24.902
1683634008.266,-21.973,-26.855,-82.031,-12.695
1683634008.270,-42.969,-37.109,-53.223,-33.203
1683634008.274,-68.359,-48.828,-33.691,-63.965
1683634008.278,-74.707,-52.246,-43.457,-71.289
1683634008.282,-55.664,-36.133,-28.320,-38.574
1683634008.284,-30.273,-18.066,-10.254,-6.348
1683634008.288,-30.273,-14.160,-9.766,-11.719
1683634008.292,-64.941,-34.668,-29.785,-55.664
1683634008.296,-91.309,-56.152,-38.574,-83.496
1683634008.300,-72.266,-53.711,-25.391,-55.664
1683634008.304,-33.691,-26.367,-8.789,-17.578
1683634008.308,-31.250,-20.020,-32.227,-24.902
1683634008.311,-60.547,-50.781,-54.199,-58.105
1683634008.315,-74.707,-69.336,-41.016,-69.336
1683634008.319,-59.082,-55.664,-31.738,-42.969
1683634008.323,-29.785,-20.996,-13.672,1.465
1683634008.327,-22.949,-18.066,-5.371,-3.418
1683634008.329,-46.875,-41.992,-24.414,-38.086
1683634008.333,-67.871,-54.199,-36.133,-55.176
1683634008.337,-56.641,-52.734,-29.297,-39.062
1683634008.341,-28.809,-33.691,-18.066,-8.789
1683634008.345,-15.625,-12.207,-14.160,-3.418
1683634008.349,-38.574,-25.391,-35.156,-40.039
1683634008.353,-53.711,-48.828,-57.617,-65.430
1683634008.356,-42.480,-57.617,-40.039,-47.363
1683634008.360,-23.438,-48.340,-23.438,-24.902
1683634008.364,-9.277,-37.109,-27.832,-16.602
1683634008.368,-30.762,-38.574,-40.039,-41.992
1683634008.372,-63.965,-52.246,-49.805,-69.824
1683634008.389,-57.617,-51.270,-43.457,-51.758
1683634008.393,-38.574,-40.527,-31.738,-18.555
1683634008.397,-29.297,-30.762,-26.367,-9.766
1683634008.401,-34.668,-30.273,-33.203,-30.273
1683634008.405,-60.059,-44.922,-45.410,-59.570
1683634008.409,-76.660,-47.852,-43.457,-59.082
1683634008.413,-52.734,-31.250,-32.715,-26.367
1683634008.416,-13.672,-14.160,-20.020,5.859
1683634008.420,-21.973,-27.832,-35.645,-14.160
1683634008.424,-54.688,-52.734,-99.121,-62.012
1683634008.428,-60.547,-48.340,-84.473,-64.941
1683634008.432,-40.039,-38.574,-33.203,-33.691
1683634008.434,-20.996,-25.879,-31.738,-17.090
1683634008.438,-20.020,-22.461,-38.086,-28.320
1683634008.442,-33.691,-34.180,-47.363,-55.176
1683634008.446,-51.270,-45.410,-52.734,-64.453
1683634008.450,-45.410,-42.969,-40.039,-39.062
1683634008.454,-20.020,-16.113,-25.879,-11.719
1683634008.458,-24.414,-15.137,-33.691,-24.902
1683634008.461,-52.246,-45.410,-50.781,-70.801
1683634008.465,-60.059,-57.129,-61.035,-79.590
1683634008.469,-52.246,-55.664,-67.871,-47.363
1683634008.473,-35.156,-44.434,-36.621,-20.020
1683634008.477,-41.504,-40.039,-25.879,-29.785
1683634008.480,-66.895,-50.293,-41.016,-60.547
1683634008.484,-76.660,-63.477,-41.016,-67.871
1683634008.488,-63.965,-57.129,-24.414,-41.992
1683634008.492,-38.574,-37.109,-10.742,-10.254
1683634008.496,-22.949,-27.832,-20.020,-8.789
1683634008.500,-39.062,-42.480,-35.156,-43.457
1683634008.504,-61.035,-52.734,-39.062,-61.523
1683634008.507,-51.270,-49.316,-33.691,-47.363
1683634008.511,-22.461,-41.992,-43.945,-21.484
1683634008.515,-9.277,-37.109,-41.504,-9.277
1683634008.519,-30.273,-38.574,-29.785,-36.621
1683634008.523,-57.129,-46.875,-41.504,-62.988
1683634008.480,-66.895,-50.293,-41.016,-60.547
1683634008.484,-76.660,-63.477,-41.016,-67.871
1683634008.488,-63.965,-57.129,-24.414,-41.992
1683634008.492,-38.574,-37.109,-10.742,-10.254
1683634008.496,-22.949,-27.832,-20.020,-8.789
1683634008.500,-39.062,-42.480,-35.156,-43.457
1683634008.504,-61.035,-52.734,-39.062,-61.523
1683634008.507,-51.270,-49.316,-33.691,-47.363
1683634008.511,-22.461,-41.992,-43.945,-21.484
1683634008.515,-9.277,-37.109,-41.504,-9.277
1683634008.519,-30.273,-38.574,-29.785,-36.621
1683634008.523,-57.129,-46.875,-41.504,-62.988
1683634008.480,-66.895,-50.293,-41.016,-60.547
1683634008.484,-76.660,-63.477,-41.016,-67.871
1683634008.488,-63.965,-57.129,-24.414,-41.992
1683634008.492,-38.574,-37.109,-10.742,-10.254
1683634008.496,-22.949,-27.832,-20.020,-8.789
1683634008.500,-39.062,-42.480,-35.156,-43.457
1683634008.504,-61.035,-52.734,-39.062,-61.523
1683634008.507,-51.270,-49.316,-33.691,-47.363
1683634008.511,-22.461,-41.992,-43.945,-21.484
1683634008.515,-9.277,-37.109,-41.504,-9.277
1683634008.519,-30.273,-38.574,-29.785,-36.621
1683634008.523,-57.129,-46.875,-41.504,-62.988
1683634008.524,-54.199,-51.270,-40.527,-52.734
1683634008.528,-28.809,-38.086,-23.926,-20.020
1683634008.532,-18.555,-23.926,-13.672,-9.277
1683634008.536,-33.691,-29.785,-30.762,-36.133
1683634008.540,-47.363,-42.480,-49.316,-61.035
1683634008.544,-53.223,-49.805,-45.898,-63.965
1683634008.548,-40.039,-42.480,-26.367,-40.039
1683634008.551,-19.531,-25.879,-36.621,-22.461
1683634008.555,-26.367,-29.785,-83.984,-44.434
1683634008.559,-53.223,-46.387,-69.824,-73.730
1683634008.563,-56.641,-49.316,-44.922,-64.453
1683634008.567,-28.809,-30.273,-43.457,-27.832
1683634008.569,-9.277,-16.113,-38.086,-5.371
1683634008.573,-19.531,-16.113,-33.691,-22.461
1683634008.577,-45.898,-30.762,-42.480,-58.105
1683634008.581,-61.035,-44.434,-42.969,-60.547
1683634008.585,-46.387,-31.250,-24.414,-27.344
1683634008.589,-29.297,-12.207,-8.301,-0.977
1683634008.593,-28.320,-7.812,-11.719,-11.230
1683634008.596,-46.387,-28.320,-58.594,-53.223
1683634008.600,-58.105,-50.781,-64.453,-61.035
1683634008.604,-35.156,-38.574,-27.344,-26.855
1683634008.608,-10.254,-17.090,-16.602,-1.465
1683634008.612,-11.719,-21.484,-20.508,-11.719
1683634008.614,-45.410,-46.387,-34.668,-46.875
1683634008.618,-65.430,-58.105,-39.551,-54.688
1683634008.622,-45.898,-45.898,-30.273,-28.320
1683634008.626,-24.902,-24.902,-20.508,-6.836
1683634008.630,-28.809,-21.973,-27.344,-19.531
1683634008.634,-56.152,-39.062,-39.062,-53.711
1683634008.638,-70.312,-53.223,-56.641,-67.871
1683634008.641,-56.152,-58.594,-77.148,-52.246
1683634008.645,-33.203,-40.039,-42.480,-24.902
1683634008.649,-24.414,-27.344,-25.879,-23.926
1683634008.653,-44.434,-41.016,-44.922,-62.988
1683634008.657,-75.684,-55.664,-57.129,-90.332
1683634008.659,-71.777,-48.828,-48.828,-70.312
1683634008.663,-38.574,-27.832,-26.855,-34.180
1683634008.667,-27.344,-12.695,-24.414,-26.855
1683634008.671,-52.246,-20.996,-41.016,-57.617
1683634008.675,-71.777,-41.016,-46.875,-82.031
1683634008.679,-66.895,-40.527,-31.738,-65.918
1683634008.683,-42.480,-23.438,-47.852,-30.762
1683634008.686,-29.297,-15.137,-48.828,-17.090
1683634008.690,-39.062,-30.762,-26.367,-38.574
1683634008.694,-58.105,-52.246,-35.156,-59.570
1683634008.698,-68.848,-57.617,-29.785,-45.898
1683634008.702,-52.246,-47.852,-13.184,-17.578
1683634008.704,-35.156,-34.668,-12.207,-7.324
1683634008.708,-44.922,-42.969,-27.344,-30.762
1683634008.712,-66.895,-55.176,-38.086,-62.500
1683634008.716,-76.172,-58.594,-35.645,-62.012
1683634008.720,-57.617,-47.363,-13.672,-31.250
1683634008.724,-33.691,-20.020,-14.648,-3.906
1683634008.728,-37.109,-19.043,-80.566,-16.113
1683634008.731,-52.246,-44.434,-61.035,-51.270
1683634008.735,-59.082,-53.711,-23.926,-58.105
1683634008.739,-46.387,-41.504,-23.438,-29.297
1683634008.743,-28.809,-27.344,-12.695,-8.789
1683634008.747,-30.273,-36.133,-18.066,-25.391
1683634008.764,-54.199,-58.594,-32.227,-55.176
1683634008.768,-69.336,-62.988,-34.668,-61.035
1683634008.772,-49.316,-41.016,-20.020,-36.133
1683634008.776,-27.832,-20.020,-5.859,-11.719
1683634008.780,-32.227,-23.926,-17.090,-25.391
1683634008.784,-52.734,-36.621,-66.406,-56.641
1683634008.788,-63.965,-46.387,-69.824,-58.594
1683634008.791,-48.828,-42.480,-28.320,-36.133
1683634008.795,-20.020,-20.996,-20.020,-6.348
1683634008.799,-18.555,-19.531,-48.340,-13.184
1683634008.803,-34.180,-29.785,-47.852,-43.457
1683634008.807,-54.688,-43.457,-38.574,-59.570
1683634008.809,-53.223,-50.781,-37.598,-48.340
1683634008.813,-27.344,-36.133,-24.902,-18.066
1683634008.817,-21.484,-27.832,-15.137,-16.602
1683634008.821,-45.410,-38.086,-27.344,-45.898
1683634008.825,-71.777,-51.270,-43.457,-66.406
1683634008.829,-66.895,-42.480,-38.086,-52.246
1683634008.833,-37.598,-22.949,-26.367,-20.508
1683634008.836,-30.273,-20.020,-17.090,-23.926
1683634008.840,-60.547,-42.480,-52.246,-65.430
1683634008.844,-78.613,-61.523,-113.770,-87.402
1683634008.848,-65.918,-51.758,-54.688,-65.430
1683634008.852,-40.527,-27.344,-10.254,-34.668
1683634008.854,-31.250,-17.090,-23.438,-34.668
1683634008.858,-44.434,-19.043,-29.297,-55.664
1683634008.862,-59.570,-38.574,-38.086,-75.684
1683634008.866,-58.105,-48.340,-35.645,-65.918
1683634008.870,-25.879,-24.902,-21.484,-23.926
1683634008.874,-5.371,-6.836,-15.625,-2.441
1683634008.878,-18.066,-15.137,-28.320,-21.973
1683634008.881,-37.109,-31.250,-43.457,-51.270
1683634008.885,-35.156,-42.480,-81.055,-41.992
1683634008.889,-16.113,-31.738,-62.988,-7.324
1683634008.893,-0.977,-5.371,-12.207,11.719
1683634008.897,-1.465,-4.395,-22.949,-4.395
1683634008.899,-37.598,-36.621,-43.457,-38.086
1683634008.903,-56.641,-54.199,-38.086,-38.574
1683634008.907,-30.762,-38.086,-15.137,-4.395
1683634008.911,-11.719,-19.043,-9.766,16.113
1683634008.915,-20.508,-23.926,-20.020,0.000
1683634008.919,-45.898,-41.504,-35.156,-32.715
1683634008.923,-53.223,-42.969,-24.414,-37.109
1683634008.926,-41.992,-38.086,-32.227,-18.555
1683634008.930,-26.367,-28.320,-84.961,-5.371
1683634008.934,-26.855,-34.668,-49.805,-21.484
1683634008.938,-52.246,-51.270,-32.227,-60.547
1683634008.942,-68.359,-56.152,-48.340,-73.242
1683634008.944,-52.246,-50.781,-37.109,-47.852
1683634008.948,-28.320,-38.574,-23.438,-23.926
1683634008.952,-28.320,-29.785,-22.461,-30.762
1683634008.956,-50.293,-41.504,-42.969,-65.918
1683634008.960,-64.941,-55.176,-55.664,-83.984
1683634008.964,-54.199,-47.852,-41.016,-58.105
1683634008.968,-16.602,-17.578,-19.043,-15.625
1683634008.971,4.395,-4.883,-55.176,-7.324
1683634008.975,-18.555,-35.156,-74.219,-38.086
1683634008.979,-58.105,-59.570,-39.551,-67.871
1683634008.983,-74.219,-48.828,-30.273,-63.477
1683634008.987,-46.387,-28.809,-25.391,-28.809
1683634008.989,-23.926,-22.461,-19.043,-11.230
1683634008.993,-47.852,-36.621,-26.367,-39.551
1683634008.997,-80.078,-59.570,-36.133,-63.477
1683634009.001,-73.242,-56.152,-35.645,-46.387
1683634009.005,-41.992,-32.227,-24.414,-11.230
1683634009.009,-26.367,-21.973,-11.230,1.465
1683634009.013,-45.898,-33.691,-41.992,-30.273
1683634009.016,-65.918,-57.617,-117.188,-60.059
1683634009.020,-62.988,-62.012,-71.289,-50.293
1683634009.024,-38.574,-42.480,-13.672,-20.508
1683634009.028,-24.902,-36.621,-19.531,-12.695
1683634009.032,-32.715,-42.480,-33.691,-40.039
1683634009.034,-47.363,-56.641,-43.945,-63.965
1683634009.038,-53.711,-66.406,-41.016,-62.500
1683634009.042,-33.203,-49.316,-34.180,-40.039
1683634009.046,-10.742,-29.297,-31.738,-24.414
1683634009.050,-16.113,-32.227,-35.645,-40.527
1683634009.054,-48.340,-48.340,-46.875,-66.895
1683634009.058,-54.688,-45.898,-91.309,-62.988
1683634009.061,-31.250,-34.668,-78.125,-32.227
1683634009.065,-19.043,-30.762,-19.531,-10.254
1683634009.069,-29.297,-34.668,-23.926,-23.438
1683634009.073,-59.570,-41.016,-42.480,-52.246
1683634009.077,-73.730,-49.316,-39.062,-55.664
1683634009.079,-51.270,-41.504,-21.973,-22.461
1683634009.083,-32.227,-24.902,-11.719,-1.465
1683634009.087,-36.133,-28.320,-20.996,-19.043
1683634009.091,-57.129,-42.480,-42.969,-51.758
1683634009.095,-73.242,-58.105,-41.504,-69.824
1683634009.099,-63.965,-49.805,-39.551,-48.828
1683634009.103,-38.574,-24.414,-82.520,-23.926
1683634009.106,-19.043,-24.902,-49.805,-24.902
1683634009.110,-24.414,-42.480,-25.391,-41.992
1683634009.114,-51.270,-57.617,-37.109,-63.477
1683634009.118,-58.105,-56.641,-25.879,-51.270
1683634009.122,-26.855,-36.621,-10.742,-11.719
1683634009.139,-17.090,-30.273,-13.184,-18.555
1683634009.143,-56.152,-51.270,-39.551,-64.453
1683634009.147,-74.707,-68.848,-46.387,-78.125
1683634009.151,-52.246,-55.176,-27.832,-54.199
1683634009.155,-29.297,-32.227,-12.207,-20.508
1683634009.159,-26.855,-24.902,-40.527,-15.137
1683634009.163,-43.945,-35.645,-47.852,-37.598
1683634009.166,-58.105,-54.688,-25.879,-46.387
1683634009.170,-47.852,-61.035,-25.879,-21.484
1683634009.174,-31.250,-50.781,-41.992,10.254
1683634009.178,-20.508,-31.250,-29.785,15.137
1683634009.182,-35.645,-41.504,-26.367,-11.230
1683634009.184,-60.547,-67.871,-43.945,-42.480
1683634009.188,-54.688,-69.824,-42.480,-39.062
1683634009.192,-23.926,-47.363,-23.926,0.488
1683634009.196,-0.977,-23.438,-16.602,11.230
1683634009.200,-12.207,-25.879,-28.320,-23.438
1683634009.204,-41.992,-50.293,-41.992,-57.129
1683634009.208,-53.711,-60.059,-47.363,-52.734
1683634009.211,-35.156,-53.711,-28.809,-23.438
1683634009.215,-19.531,-39.062,-26.855,-5.859
1683634009.219,-33.203,-42.480,-66.406,-18.555
1683634009.223,-55.176,-55.664,-57.129,-48.828
1683634009.227,-62.500,-58.594,-42.969,-59.570
1683634009.184,-60.547,-67.871,-43.945,-42.480
1683634009.188,-54.688,-69.824,-42.480,-39.062
1683634009.192,-23.926,-47.363,-23.926,0.488
1683634009.196,-0.977,-23.438,-16.602,11.230
1683634009.200,-12.207,-25.879,-28.320,-23.438
1683634009.204,-41.992,-50.293,-41.992,-57.129
1683634009.208,-53.711,-60.059,-47.363,-52.734
1683634009.211,-35.156,-53.711,-28.809,-23.438
1683634009.215,-19.531,-39.062,-26.855,-5.859
1683634009.219,-33.203,-42.480,-66.406,-18.555
1683634009.223,-55.176,-55.664,-57.129,-48.828
1683634009.227,-62.500,-58.594,-42.969,-59.570
1683634009.229,-39.551,-43.945,-33.203,-35.156
1683634009.233,-16.602,-25.391,-18.066,-13.672
1683634009.237,-25.879,-25.879,-21.484,-25.391
1683634009.241,-55.664,-39.062,-36.621,-62.012
1683634009.245,-62.988,-45.898,-36.621,-66.406
1683634009.249,-33.691,-31.250,-21.484,-28.809
1683634009.253,-10.742,-11.719,-6.836,0.000
1683634009.256,-18.555,-14.160,-10.254,-5.859
1683634009.260,-53.223,-51.270,-57.617,-44.922
1683634009.264,-70.801,-71.777,-62.012,-58.105
1683634009.268,-48.828,-49.316,-17.578,-20.996
1683634009.272,-17.090,-24.902,-2.441,14.160
1683634009.274,-14.648,-28.320,-15.137,7.324
1683634009.278,-43.945,-49.805,-32.227,-36.133
1683634009.282,-74.219,-58.594,-34.668,-65.430
1683634009.286,-69.336,-55.176,-29.297,-43.945
1683634009.290,-27.344,-34.668,-15.137,-5.859
1683634009.294,-25.391,-16.602,-17.578,-14.160
1683634009.298,-63.965,-38.574,-26.367,-60.547
1683634009.301,-75.684,-62.500,-55.664,-73.242
1683634009.305,-56.641,-51.270,-103.516,-47.852
1683634009.309,-35.156,-31.738,-48.828,-18.555
1683634009.313,-28.809,-30.273,-14.648,-14.648
1683634009.317,-46.387,-41.504,-33.691,-49.805
1683634009.319,-70.801,-53.711,-45.898,-84.961
1683634009.323,-67.383,-49.316,-38.574,-66.406
1683634009.327,-30.762,-28.809,-19.043,-24.414
1683634009.331,-19.531,-20.508,-13.184,-14.160
1683634009.335,-49.316,-37.109,-29.297,-41.992
1683634009.339,-74.707,-59.082,-44.434,-70.312
1683634009.343,-63.965,-54.688,-39.062,-47.852
1683634009.346,-38.086,-36.133,-36.621,-9.277
1683634009.350,-24.414,-25.879,-32.227,-3.418
1683634009.354,-33.691,-35.645,-37.598,-30.273
1683634009.358,-58.105,-46.875,-52.246,-60.547
1683634009.362,-62.988,-46.387,-48.828,-52.734
1683634009.364,-38.086,-34.668,-35.645,-22.949
1683634009.368,-15.625,-23.438,-32.227,-14.160
1683634009.372,-27.344,-28.809,-37.109,-33.691
1683634009.376,-47.363,-41.992,-51.758,-70.312
1683634009.380,-46.387,-46.875,-52.734,-66.406
1683634009.384,-22.949,-29.785,-23.438,-24.414
1683634009.388,-5.859,-13.184,-31.250,-9.277
1683634009.391,-20.996,-24.414,-94.238,-32.715
1683634009.395,-45.898,-50.781,-75.195,-66.406
1683634009.399,-57.617,-62.012,-41.504,-72.754
1683634009.403,-44.434,-42.480,-32.715,-41.504
1683634009.407,-27.344,-25.391,-24.414,-18.555
1683634009.409,-30.762,-25.879,-21.973,-25.879
1683634009.413,-53.711,-36.621,-32.715,-60.059
1683634009.417,-74.219,-50.781,-43.457,-72.754
1683634009.421,-64.941,-41.992,-27.832,-41.016
1683634009.425,-38.086,-22.949,-15.625,-8.789
1683634009.429,-29.785,-12.695,-20.020,-20.996
1683634009.433,-62.012,-31.250,-79.102,-69.824
1683634009.436,-86.914,-59.082,-97.168,-94.727
1683634009.440,-73.730,-55.176,-41.992,-68.848
1683634009.444,-43.457,-30.762,-19.043,-27.832
1683634009.448,-26.855,-13.184,-21.973,-27.344
1683634009.452,-51.270,-32.227,-38.574,-63.965
1683634009.454,-72.754,-52.734,-48.828,-77.637
1683634009.458,-59.570,-50.293,-39.062,-58.105
1683634009.462,-36.621,-32.227,-31.738,-33.691
1683634009.466,-25.391,-14.160,-32.715,-29.297
1683634009.470,-41.016,-26.367,-36.133,-58.594
1683634009.474,-67.871,-52.246,-62.500,-80.566
1683634009.478,-62.988,-52.246,-117.676,-63.965
1683634009.481,-31.250,-34.668,-54.199,-26.855
1683634009.485,-20.020,-25.391,-10.742,-12.207
1683634009.489,-40.039,-37.598,-43.945,-34.180
1683634009.493,-69.336,-59.082,-53.711,-58.105
1683634009.497,-68.359,-56.152,-45.410,-46.387
1683634009.514,-41.504,-36.621,-28.809,-7.812
1683634009.518,-28.809,-22.949,-30.762,2.441
1683634009.522,-44.922,-30.273,-43.457,-29.785
1683634009.526,-76.172,-57.617,-50.781,-60.547
1683634009.530,-80.566,-58.105,-46.387,-48.828
1683634009.534,-53.223,-35.645,-57.129,-18.066
1683634009.538,-33.203,-24.414,-47.363,-11.719
1683634009.541,-37.109,-34.180,-26.367,-30.273
1683634009.545,-49.805,-52.246,-38.574,-49.316
1683634009.549,-49.316,-62.500,-64.941,-47.363
1683634009.553,-32.715,-49.316,-36.621,-17.578
1683634009.557,-16.602,-28.809,-6.836,-0.488
1683634009.559,-23.926,-31.250,-24.414,-22.949
1683634009.563,-49.316,-50.293,-42.480,-60.547
1683634009.567,-58.594,-56.641,-37.109,-66.406
1683634009.571,-39.551,-44.922,-24.902,-38.086
1683634009.575,-21.973,-24.414,-19.531,-16.113
1683634009.579,-33.691,-19.043,-27.344,-32.715
1683634009.583,-62.500,-36.621,-43.945,-70.801
1683634009.586,-78.613,-57.129,-45.898,-81.543
1683634009.590,-57.617,-44.434,-45.898,-40.527
1683634009.594,-20.508,-26.367,-68.848,8.789
1683634009.598,-12.207,-35.156,-39.062,1.465
1683634009.602,-51.270,-46.875,-35.156,-52.246
1683634009.604,-81.055,-58.105,-57.617,-70.312
1683634009.608,-59.570,-55.176,-41.504,-33.203
1683634009.612,-32.227,-34.180,-20.508,-5.371
1683634009.616,-37.598,-21.973,-28.320,-22.949
1683634009.620,-55.176,-33.203,-48.340,-53.711
1683634009.624,-68.359,-47.852,-55.176,-69.824
1683634009.628,-58.594,-40.527,-43.945,-49.805
1683634009.631,-27.832,-23.438,-28.809,-13.672
1683634009.635,-20.996,-22.949,-58.105,-14.648
1683634009.639,-35.645,-32.227,-67.871,-44.434
1683634009.643,-53.711,-41.992,-49.805,-63.965
1683634009.647,-47.363,-42.969,-46.875,-50.293
1683634009.604,-81.055,-58.105,-57.617,-70.312
1683634009.608,-59.570,-55.176,-41.504,-33.203
1683634009.612,-32.227,-34.180,-20.508,-5.371
1683634009.616,-37.598,-21.973,-28.320,-22.949
1683634009.620,-55.176,-33.203,-48.340,-53.711
1683634009.624,-68.359,-47.852,-55.176,-69.824
1683634009.628,-58.594,-40.527,-43.945,-49.805
1683634009.631,-27.832,-23.438,-28.809,-13.672
1683634009.635,-20.996,-22.949,-58.105,-14.648
1683634009.639,-35.645,-32.227,-67.871,-44.434
1683634009.643,-53.711,-41.992,-49.805,-63.965
1683634009.647,-47.363,-42.969,-46.875,-50.293
1683634009.649,-16.113,-27.344,-33.203,-20.996
1683634009.653,-7.324,-21.484,-27.344,-17.578
1683634009.657,-27.832,-27.832,-40.039,-45.898
1683634009.661,-49.316,-40.527,-48.828,-72.754
1683634009.665,-56.152,-47.363,-42.480,-63.965
1683634009.669,-32.715,-31.738,-32.715,-38.086
1683634009.673,-22.461,-13.184,-10.742,-29.297
1683634009.676,-45.898,-26.855,-33.691,-50.293
1683634009.680,-62.988,-52.246,-104.492,-73.730
1683634009.684,-60.059,-53.711,-64.941,-62.500
1683634009.688,-43.945,-42.969,-14.648,-25.879
1683634009.692,-20.996,-29.785,-18.066,-4.883
1683634009.695,-27.832,-30.273,-24.902,-22.949
1683634009.699,-58.105,-45.898,-31.250,-48.340
1683634009.703,-65.430,-57.129,-32.715,-40.527
1683634009.707,-40.039,-45.410,-25.879,-8.789
1683634009.711,-20.996,-28.320,-16.602,7.324
1683634009.715,-26.367,-34.180,-16.113,-14.648
1683634009.719,-50.781,-45.410,-27.344,-46.875
1683634009.722,-67.383,-56.152,-84.473,-59.570
1683634009.726,-51.758,-56.641,-76.172,-37.598
1683634009.730,-27.344,-33.203,-12.695,-11.719
1683634009.734,-35.156,-27.832,-21.484,-25.879
1683634009.738,-60.547,-48.828,-45.410,-60.059
1683634009.739,-70.312,-62.500,-42.969,-72.754
1683634009.743,-57.617,-50.781,-27.832,-51.758
1683634009.747,-33.203,-27.832,-19.531,-24.902
1683634009.751,-27.344,-17.090,-27.832,-37.598
1683634009.755,-48.340,-25.391,-46.875,-73.730
1683634009.759,-62.012,-40.039,-44.922,-89.355
1683634009.763,-43.945,-39.551,-52.734,-62.012
1683634009.766,-15.625,-20.508,-112.305,-27.832
1683634009.770,-11.230,-15.137,-58.105,-26.367
1683634009.774,-26.855,-31.738,-19.531,-50.781
1683634009.778,-41.504,-45.410,-49.805,-64.453
1683634009.782,-32.715,-35.156,-43.457,-37.109
1683634009.785,-3.418,-10.742,-13.184,4.883
1683634009.789,0.000,-7.324,-9.277,5.859
1683634009.793,-26.367,-28.809,-33.691,-28.320
1683634009.797,-51.270,-43.945,-46.387,-42.969
1683634009.801,-52.246,-47.852,-39.062,-25.391
1683634009.805,-26.855,-20.996,-14.648,6.836
1683634009.809,-13.184,-2.441,-59.082,8.789
1683634009.812,-36.133,-33.691,-87.891,-25.391
1683634009.816,-58.594,-59.082,-44.922,-53.711
1683634009.820,-55.664,-52.734,-36.621,-47.363
1683634009.824,-37.598,-30.762,-31.250,-22.949
1683634009.828,-27.832,-19.043,-22.461,-13.672
1683634009.829,-38.086,-29.785,-26.367,-36.621
1683634009.833,-67.383,-53.223,-41.504,-67.871
1683634009.837,-74.707,-62.500,-41.504,-65.918
1683634009.841,-48.340,-41.992,-27.344,-32.715
1683634009.845,-40.527,-25.391,-20.996,-18.555
1683634009.849,-52.734,-25.879,-35.645,-38.086
1683634009.853,-69.336,-40.527,-60.059,-64.453
1683634009.856,-71.289,-59.570,-57.617,-62.012
1683634009.860,-41.016,-42.480,-29.785,-23.438
1683634009.864,-21.484,-20.996,-33.203,-0.977
1683634009.868,-31.250,-25.879,-66.406,-23.438
1683634009.872,-56.641,-43.457,-57.129,-57.617
1683634009.889,-67.871,-55.176,-46.387,-64.453
1683634009.893,-39.551,-43.457,-35.156,-30.762
1683634009.897,-8.789,-19.043,-20.020,-2.930
1683634009.901,-11.230,-16.113,-23.926,-19.043
1683634009.905,-37.109,-34.668,-35.645,-54.199
1683634009.909,-53.711,-43.945,-44.922,-56.152
1683634009.913,-36.621,-28.320,-38.086,-25.879
1683634009.916,-13.672,-14.648,-16.602,-0.488
1683634009.920,-19.531,-23.926,-22.949,-15.625
1683634009.924,-50.293,-51.270,-76.660,-50.293
1683634009.928,-63.965,-56.152,-73.242,-63.965
1683634009.932,-49.805,-47.363,-35.156,-42.969
1683634009.934,-32.715,-33.203,-24.414,-11.230
1683634009.938,-29.785,-31.738,-28.809,-15.137
1683634009.942,-45.410,-46.387,-41.992,-48.828
1683634009.946,-64.941,-58.594,-53.223,-64.453
1683634009.950,-54.688,-55.664,-47.363,-42.969
1683634009.954,-20.020,-24.902,-24.414,-1.465
1683634009.958,-12.207,-7.324,-18.555,4.883
1683634009.961,-31.738,-26.367,-28.809,-29.297
1683634009.965,-48.340,-49.316,-43.457,-51.270
1683634009.969,-44.434,-52.246,-54.199,-35.645
1683634009.973,-20.508,-28.320,-26.855,-6.348
1683634009.977,-9.766,-14.648,-15.137,-3.418
1683634009.979,-28.320,-30.273,-33.203,-28.320
1683634009.983,-50.293,-43.457,-41.504,-48.828
1683634009.987,-49.316,-39.062,-38.574,-40.039
1683634009.991,-24.414,-22.461,-23.926,-8.789
1683634009.995,-11.230,-17.578,-20.996,1.465
1683634009.999,-28.320,-27.832,-34.180,-30.273
1683634010.003,-50.293,-38.574,-42.480,-62.988
1683634010.006,-55.664,-46.387,-31.738,-60.547
1683634010.010,-33.691,-43.457,-43.457,-31.250
1683634010.014,-15.137,-29.785,-42.480,-18.066
1683634010.018,-33.203,-25.879,-30.762,-41.992
1683634010.022,-57.617,-50.781,-54.688,-74.219
1683634010.024,-58.105,-61.523,-59.570,-68.359
1683634010.028,-39.551,-42.480,-36.621,-29.785
1683634010.032,-19.531,-23.926,-22.461,-5.371
1683634010.036,-33.203,-23.926,-29.785,-28.809
1683634010.040,-65.918,-33.691,-45.898,-65.430
1683634010.044,-73.242,-44.434,-50.781,-64.941
1683634010.048,-53.223,-34.180,-33.203,-32.715
1683634010.051,-23.438,-20.508,-29.297,-6.836
1683634010.055,-22.461,-27.344,-53.223,-18.066
1683634010.059,-47.852,-43.945,-47.363,-49.316
1683634010.063,-65.430,-51.758,-35.645,-57.129
1683634010.067,-52.246,-39.551,-26.367,-29.785
1683634010.069,-28.320,-20.996,-15.137,-6.836
1683634010.073,-32.715,-23.926,-16.602,-21.484
1683634010.077,-57.617,-39.551,-30.273,-59.570
1683634010.081,-72.754,-51.758,-42.969,-74.219
1683634010.085,-55.176,-44.434,-33.203,-46.387
1683634010.089,-26.367,-24.902,-16.602,-16.113
1683634010.093,-22.461,-16.602,-18.066,-26.855
1683634010.096,-45.898,-31.250,-65.918,-61.523
1683634010.100,-70.312,-58.105,-79.102,-79.590
1683634010.104,-61.035,-53.223,-35.156,-57.129
