timestamps,TP9,AF7,AF8,TP10
1683631420.773,-50.293,-58.594,-48.340,-64.941
1683631420.777,-7.812,-30.762,-33.691,-43.945
1683631420.781,-13.672,-18.066,-27.832,-29.297
1683631420.785,-47.852,-28.320,-31.738,-35.645
1683631420.789,-48.828,-29.785,-46.387,-41.504
1683631420.793,-29.785,-21.484,-53.711,-38.574
1683631420.797,-22.949,-27.832,-53.711,-33.691
1683631420.800,-23.926,-43.457,-53.711,-35.645
1683631420.804,-43.945,-47.363,-45.898,-39.062
1683631420.808,-64.453,-47.363,-39.551,-41.504
1683631420.812,-44.434,-43.457,-39.062,-35.645
1683631420.816,0.000,-34.180,-31.250,-23.926
1683631420.818,-13.184,-32.227,-39.062,-30.273
1683631420.822,-57.129,-38.574,-55.176,-42.480
1683631420.826,-62.988,-55.664,-57.129,-47.852
1683631420.830,-41.992,-38.574,-41.504,-37.109
1683631420.834,-19.531,-20.508,-33.203,-32.227
1683631420.838,-11.230,-25.879,-41.992,-35.645
1683631420.842,-37.598,-39.551,-50.293,-36.133
1683631420.845,-52.734,-47.363,-43.945,-27.832
1683631420.849,-52.246,-44.434,-35.645,-33.203
1683631420.853,-36.621,-45.898,-33.203,-43.945
1683631420.857,-11.230,-30.273,-32.227,-29.785
1683631420.861,-41.016,-43.457,-51.758,-38.574
1683631420.863,-71.777,-69.336,-60.059,-47.363
1683631420.867,-63.477,-60.547,-47.363,-41.504
1683631420.871,-31.738,-43.945,-43.457,-34.668
1683631420.875,-11.719,-31.250,-41.504,-27.344
1683631420.879,-34.668,-36.621,-33.691,-29.785
1683631420.883,-57.617,-39.062,-26.855,-34.668
1683631420.887,-59.082,-32.227,-26.855,-41.016
1683631420.890,-31.738,-32.227,-25.879,-31.250
1683631420.894,-17.578,-33.691,-33.203,-26.855
1683631420.898,-56.641,-41.016,-43.945,-41.504
1683631420.902,-88.867,-53.711,-43.945,-49.316
1683631420.906,-73.730,-45.410,-45.898,-39.062
1683631420.908,-50.293,-36.621,-43.945,-34.180
1683631420.912,-32.715,-32.715,-43.457,-34.668
1683631420.916,-45.898,-33.691,-51.270,-37.598
1683631420.920,-84.473,-40.039,-49.805,-42.969
1683631420.924,-91.309,-52.734,-56.152,-40.039
1683631420.928,-66.406,-57.129,-55.664,-42.969
1683631420.932,-37.109,-38.574,-29.297,-46.387
1683631420.935,-39.551,-34.180,-18.555,-39.062
1683631420.939,-62.988,-41.016,-32.715,-37.598
1683631420.943,-79.590,-51.270,-48.828,-47.363
1683631420.947,-63.965,-60.547,-52.246,-46.387
1683631420.951,-14.648,-33.203,-36.621,-30.273
1683631420.953,-16.602,-21.484,-48.340,-32.227
1683631420.957,-62.012,-38.574,-65.430,-47.852
1683631420.961,-73.242,-49.805,-46.387,-43.457
1683631420.965,-65.430,-53.711,-34.668,-47.363
1683631420.969,-36.621,-34.668,-38.574,-43.945
1683631420.973,-31.738,-21.484,-45.898,-38.574
1683631420.977,-62.500,-33.203,-42.480,-47.852
1683631420.980,-57.617,-38.574,-32.715,-44.922
1683631420.984,-50.781,-30.762,-26.855,-48.828
1683631420.988,-39.062,-34.180,-38.086,-47.852
1683631420.992,-38.086,-45.898,-50.293,-48.828
1683631420.996,-54.199,-60.059,-37.109,-44.922
1683631420.998,-64.941,-53.711,-32.227,-39.551
1683631421.002,-63.965,-41.016,-41.016,-53.711
1683631421.006,-32.227,-39.551,-46.387,-50.293
1683631421.010,-19.043,-16.113,-52.246,-41.504
1683631421.014,-50.781,-12.695,-64.941,-56.152
1683631421.018,-63.965,-32.715,-52.734,-61.523
1683631421.022,-60.547,-39.062,-44.434,-56.152
1683631421.025,-41.504,-30.762,-51.758,-52.246
1683631421.029,-28.320,-18.555,-51.270,-46.875
1683631421.033,-42.969,-29.297,-48.828,-45.898
1683631421.037,-54.199,-30.762,-45.410,-40.527
1683631421.041,-53.223,-19.531,-50.293,-34.668
1683631421.043,-25.879,-24.414,-46.387,-38.086
1683631421.047,-5.371,-28.809,-40.039,-38.086
1683631421.051,-24.902,-36.621,-56.641,-35.645
1683631421.055,-55.176,-50.293,-60.547,-36.621
1683631421.059,-60.059,-49.805,-51.270,-41.504
1683631421.063,-28.320,-24.414,-39.551,-43.945
1683631421.067,-13.672,-5.371,-44.922,-35.645
1683631421.070,-21.973,-18.066,-58.105,-32.227
1683631421.074,-43.457,-44.434,-57.617,-44.922
1683631421.078,-76.172,-60.059,-49.805,-52.246
1683631421.082,-56.152,-52.734,-43.457,-38.574
1683631421.086,-10.254,-20.996,-34.180,-20.508
1683631421.088,-18.555,-13.184,-25.391,-19.043
1683631421.092,-50.781,-32.715,-43.457,-35.156
1683631421.096,-57.129,-42.969,-47.363,-41.992
1683631421.100,-40.039,-38.086,-29.785,-40.039
1683631421.104,-14.160,-33.203,-34.668,-34.180
1683631421.108,-24.902,-27.832,-51.270,-28.809
1683631421.112,-54.688,-38.086,-58.594,-40.527
1683631421.115,-62.988,-60.547,-52.246,-48.340
1683631421.119,-55.176,-53.223,-46.875,-47.852
1683631421.123,-28.809,-42.969,-51.270,-46.387
1683631421.127,-35.645,-51.270,-56.152,-39.551
1683631421.131,-75.684,-56.152,-54.199,-39.062
1683631421.148,-75.195,-51.270,-37.109,-33.691
1683631421.152,-61.523,-49.805,-31.250,-36.133
1683631421.156,-31.250,-31.250,-35.156,-37.598
1683631421.160,-19.531,-24.414,-47.852,-33.203
1683631421.164,-66.406,-56.152,-57.617,-53.223
1683631421.168,-83.008,-67.383,-51.270,-65.430
1683631421.172,-65.430,-58.105,-51.758,-58.594
1683631421.175,-32.227,-45.898,-42.969,-48.828
1683631421.179,-7.812,-31.250,-36.621,-42.969
1683631421.183,-42.480,-41.504,-58.105,-53.711
1683631421.187,-78.125,-57.129,-62.988,-53.711
1683631421.191,-62.012,-51.270,-39.551,-49.316
1683631421.193,-22.949,-32.715,-27.832,-43.457
1683631421.197,0.488,-16.602,-26.855,-20.020
1683631421.201,-24.902,-23.926,-37.109,-24.414
1683631421.205,-67.383,-52.734,-51.758,-45.410
1683631421.209,-68.848,-71.289,-64.453,-42.969
1683631421.213,-38.574,-56.152,-64.941,-46.875
1683631421.217,-14.160,-26.855,-56.641,-46.875
1683631421.220,-37.598,-27.344,-53.711,-43.945
1683631421.224,-78.613,-40.527,-41.504,-56.152
1683631421.228,-69.824,-37.109,-20.508,-50.293
1683631421.232,-36.621,-35.645,-17.090,-32.715
1683631421.236,-8.789,-32.715,-27.832,-22.461
1683631421.238,-35.645,-32.715,-36.621,-36.133
1683631421.242,-79.102,-51.270,-57.129,-55.664
1683631421.246,-79.102,-60.547,-58.594,-53.223
1683631421.250,-49.805,-46.875,-48.828,-51.758
1683631421.254,-33.203,-53.223,-57.129,-54.688
1683631421.258,-46.875,-53.223,-45.898,-48.828
1683631421.262,-67.871,-51.758,-35.156,-46.387
1683631421.265,-79.102,-68.848,-42.969,-47.363
1683631421.269,-64.941,-47.363,-47.852,-44.922
1683631421.273,-23.438,-14.160,-44.434,-37.598
1683631421.277,-37.598,-24.902,-48.340,-49.805
1683631421.281,-78.125,-42.969,-50.781,-59.082
1683631421.283,-71.289,-44.922,-32.715,-41.504
1683631421.287,-46.387,-41.992,-30.762,-34.180
1683631421.291,-16.113,-41.504,-46.387,-32.715
1683631421.295,-29.297,-39.551,-47.852,-36.621
1683631421.299,-73.730,-54.199,-45.410,-50.781
1683631421.303,-88.379,-58.105,-48.828,-54.199
1683631421.307,-73.242,-38.574,-44.434,-52.734
1683631421.310,-42.969,-36.133,-35.645,-48.340
1683631421.314,-40.527,-43.457,-41.992,-50.781
1683631421.318,-62.500,-42.969,-56.152,-54.688
1683631421.322,-68.359,-39.062,-53.223,-54.688
1683631421.326,-52.246,-34.668,-35.156,-43.457
1683631421.328,-16.602,-25.391,-11.719,-25.391
1683631421.332,-17.578,-33.203,-17.090,-45.898
1683631421.336,-71.289,-51.758,-32.227,-61.523
1683631421.340,-95.215,-49.805,-35.645,-52.246
1683631421.344,-75.195,-36.621,-45.898,-55.664
1683631421.348,-36.621,-32.227,-33.203,-40.527
1683631421.352,-13.184,-22.949,-31.738,-30.273
1683631421.355,-41.016,-34.180,-50.293,-40.527
1683631421.359,-71.777,-51.758,-34.180,-48.828
1683631421.363,-64.453,-51.758,-12.695,-41.016
1683631421.367,-30.762,-31.250,-10.742,-23.438
1683631421.371,-17.578,-28.809,-31.250,-39.062
1683631421.373,-47.363,-41.992,-41.504,-60.059
1683631421.377,-64.453,-51.758,-39.551,-51.270
1683631421.381,-63.477,-66.895,-63.477,-53.223
1683631421.385,-44.922,-53.223,-51.270,-47.852
1683631421.389,-19.043,-32.715,-34.180,-26.855
1683631421.393,-32.715,-35.645,-39.551,-37.598
1683631421.397,-63.477,-45.410,-42.969,-45.410
1683631421.400,-60.547,-52.734,-53.711,-37.109
1683631421.404,-34.668,-55.664,-46.387,-38.574
1683631421.408,-20.996,-41.504,-38.574,-36.133
1683631421.412,-39.551,-33.691,-41.504,-34.180
1683631421.416,-60.547,-30.273,-29.297,-33.691
1683631421.418,-65.430,-28.809,-18.555,-37.598
1683631421.422,-61.035,-51.758,-38.574,-51.270
1683631421.426,-36.133,-46.387,-50.293,-45.898
1683631421.430,-38.574,-31.738,-57.617,-41.992
1683631421.434,-76.172,-44.922,-67.871,-53.223
1683631421.438,-83.496,-44.434,-51.758,-45.898
1683631421.442,-65.918,-41.992,-39.551,-43.457
1683631421.445,-23.438,-34.668,-25.391,-39.551
1683631421.449,-21.484,-47.852,-24.902,-41.016
1683631421.453,-67.871,-64.941,-32.715,-53.223
1683631421.457,-87.402,-63.965,-42.480,-63.477
1683631421.461,-66.406,-55.176,-49.805,-62.012
1683631421.463,-39.062,-33.203,-51.270,-51.270
1683631421.467,-41.504,-34.180,-50.781,-47.363
1683631421.471,-72.754,-50.781,-46.875,-52.246
1683631421.475,-73.242,-46.387,-47.363,-50.293
1683631421.479,-52.246,-49.805,-45.410,-39.062
1683631421.483,-19.043,-41.504,-34.668,-30.273
1683631421.487,-12.207,-24.902,-35.645,-33.691
1683631421.490,-52.246,-39.551,-41.016,-47.852
1683631421.494,-67.871,-55.176,-49.316,-52.734
1683631421.498,-41.016,-55.664,-51.270,-40.527
1683631421.502,-12.695,-53.711,-40.039,-33.691
1683631421.506,-0.488,-29.297,-39.062,-35.645
1683631421.523,-22.461,-21.973,-48.828,-43.457
1683631421.527,-40.527,-42.480,-52.734,-41.016
1683631421.531,-42.480,-62.988,-55.176,-45.410
1683631421.535,-30.762,-60.547,-41.016,-49.316
1683631421.539,-8.301,-48.828,-35.156,-35.156
1683631421.543,-29.785,-48.340,-43.457,-35.645
1683631421.547,-55.664,-35.156,-33.691,-35.645
1683631421.550,-58.105,-37.109,-31.250,-34.180
1683631421.554,-42.969,-49.316,-42.969,-41.016
1683631421.558,-23.438,-46.875,-50.293,-47.852
1683631421.562,-41.016,-33.203,-43.457,-40.039
1683631421.566,-59.082,-40.039,-37.598,-38.086
1683631421.568,-73.730,-67.871,-50.781,-52.246
1683631421.572,-42.969,-54.688,-42.969,-39.551
1683631421.576,-4.395,-31.250,-33.691,-29.297
1683631421.580,-33.203,-36.133,-54.688,-35.156
1683631421.584,-58.594,-49.805,-57.129,-45.410
1683631421.588,-50.293,-59.570,-42.480,-45.898
1683631421.592,-33.691,-50.293,-30.273,-34.668
1683631421.595,-22.461,-39.062,-28.320,-31.250
1683631421.599,-27.344,-31.250,-43.945,-34.180
1683631421.603,-61.035,-45.410,-52.246,-46.387
1683631421.607,-83.984,-60.547,-54.688,-59.082
1683631421.611,-66.406,-61.035,-55.664,-54.688
1683631421.613,-28.320,-62.012,-40.039,-51.758
1683631421.617,-10.742,-42.480,-27.344,-32.715
1683631421.621,-40.527,-26.855,-33.691,-23.926
1683631421.625,-69.824,-50.781,-56.641,-43.457
1683631421.629,-55.176,-59.570,-59.082,-46.875
1683631421.633,-12.695,-30.273,-33.203,-32.227
1683631421.637,-7.812,-17.090,-29.785,-19.043
1683631421.640,-41.016,-27.344,-36.133,-29.297
1683631421.644,-69.336,-48.340,-39.062,-43.457
1683631421.648,-55.176,-58.105,-41.504,-39.551
1683631421.652,-18.066,-41.016,-34.180,-42.480
1683631421.656,-18.066,-17.090,-46.387,-40.039
1683631421.658,-44.922,-19.531,-61.523,-36.621
1683631421.662,-45.898,-38.574,-34.668,-36.133
1683631421.666,-39.551,-48.340,-19.531,-33.203
1683631421.670,-26.855,-32.715,-30.273,-32.227
1683631421.674,-20.996,-31.250,-41.992,-39.062
1683631421.678,-40.527,-44.434,-42.480,-48.828
1683631421.682,-51.758,-41.504,-37.109,-39.062
1683631421.685,-48.828,-39.551,-32.227,-34.668
1683631421.689,-16.113,-32.227,-29.297,-33.203
1683631421.693,8.789,-31.250,-34.668,-24.414
1683631421.697,-26.855,-43.945,-40.039,-29.297
1683631421.701,-61.035,-48.340,-51.758,-38.086
1683631421.703,-62.012,-41.992,-61.035,-59.570
1683631421.707,-34.180,-30.273,-53.223,-70.312
1683631421.711,-9.277,-14.160,-45.410,-56.641
1683631421.715,-25.391,-10.742,-41.992,-62.012
1683631421.719,-53.223,-37.598,-44.922,-78.125
1683631421.723,-51.270,-44.434,-50.781,-70.312
1683631421.727,-41.992,-32.227,-48.828,-71.777
1683631421.730,-23.926,-40.039,-42.480,-78.125
1683631421.734,-30.762,-42.969,-45.898,-69.336
1683631421.738,-53.711,-36.133,-49.316,-65.918
1683631421.742,-55.664,-40.039,-41.016,-67.383
1683631421.746,-40.039,-36.133,-42.969,-68.359
1683631421.748,-1.953,-8.789,-22.461,-52.246
1683631421.752,-10.742,-8.789,-20.508,-48.340
1683631421.756,-56.152,-38.086,-46.875,-63.965
1683631421.760,-67.871,-40.527,-54.199,-70.312
1683631421.764,-52.734,-30.762,-41.016,-70.312
1683631421.768,-37.598,-26.367,-39.062,-62.012
1683631421.772,-39.062,-26.855,-50.781,-63.965
1683631421.775,-69.336,-38.086,-64.941,-68.848
1683631421.779,-91.309,-45.410,-67.871,-68.848
1683631421.783,-66.406,-43.945,-47.363,-68.359
1683631421.787,-21.484,-38.574,-49.316,-54.688
1683631421.791,-16.113,-26.855,-40.527,-42.969
1683631421.793,-49.316,-33.691,-21.973,-47.852
1683631421.797,-68.359,-56.152,-37.109,-65.430
1683631421.801,-63.965,-47.363,-42.480,-62.500
1683631421.805,-31.738,-17.090,-30.273,-43.457
1683631421.809,-8.301,-13.672,-38.086,-34.668
1683631421.813,-47.852,-21.973,-46.387,-40.527
1683631421.817,-73.730,-40.039,-49.805,-58.594
1683631421.820,-62.988,-49.316,-52.734,-62.988
1683631421.824,-22.461,-25.391,-32.715,-43.457
1683631421.828,4.395,-11.719,-24.902,-24.902
1683631421.832,-33.203,-33.691,-53.711,-41.016
1683631421.836,-68.848,-54.688,-61.523,-53.711
1683631421.853,-72.266,-52.734,-58.105,-54.199
1683631421.857,-26.855,-32.227,-39.062,-44.922
1683631421.861,-5.371,-21.973,-24.902,-35.156
1683631421.865,-44.922,-34.180,-37.109,-51.758
1683631421.869,-63.477,-37.109,-23.926,-43.945
1683631421.873,-46.387,-29.785,-14.648,-19.531
1683631421.877,-32.227,-32.227,-32.715,-36.133
1683631421.880,-26.367,-39.551,-41.992,-55.664
1683631421.884,-40.039,-36.621,-41.504,-49.805
1683631421.888,-54.199,-33.203,-45.898,-41.016
1683631421.892,-51.270,-46.875,-51.270,-41.504
1683631421.896,-19.043,-46.387,-44.434,-41.016
1683631421.898,-1.465,-29.785,-34.668,-35.156
1683631421.902,-20.020,-31.250,-34.668,-26.367
1683631421.906,-44.922,-52.734,-51.758,-30.273
1683631421.910,-56.152,-54.688,-63.965,-34.668
1683631421.914,-34.668,-30.762,-45.898,-35.156
1683631421.918,-22.949,-30.273,-29.297,-49.805
1683631421.922,-38.086,-38.574,-26.367,-51.270
1683631421.925,-63.477,-41.992,-35.156,-58.105
1683631421.929,-74.219,-53.711,-38.574,-58.105
1683631421.933,-51.758,-47.852,-30.762,-46.387
1683631421.937,-19.043,-35.645,-24.414,-37.109
1683631421.941,-16.602,-42.969,-32.715,-33.203
1683631421.943,-46.875,-40.527,-44.434,-45.410
1683631421.947,-82.031,-41.992,-43.457,-57.617
1683631421.951,-79.102,-51.758,-40.527,-55.176
1683631421.955,-47.363,-37.109,-41.992,-50.293
1683631421.959,-35.645,-28.320,-49.316,-41.992
1683631421.963,-57.129,-46.387,-43.945,-38.086
1683631421.967,-84.473,-53.711,-39.551,-59.082
1683631421.970,-65.430,-48.340,-28.320,-58.105
1683631421.974,-24.414,-46.875,-19.043,-41.016
1683631421.978,-29.297,-51.758,-43.945,-46.875
1683631421.982,-54.688,-52.734,-56.152,-56.641
1683631421.986,-64.941,-38.086,-38.574,-48.340
1683631421.988,-67.871,-39.551,-36.621,-40.039
1683631421.992,-37.598,-38.086,-46.875,-49.805
1683631421.996,-24.414,-26.367,-48.340,-46.875
1683631422.000,-59.082,-40.039,-45.410,-38.086
1683631422.004,-71.289,-51.270,-47.363,-41.016
1683631422.008,-52.246,-47.852,-37.109,-42.480
1683631422.012,-33.203,-48.828,-34.180,-46.387
1683631422.015,-14.160,-41.504,-53.711,-41.504
1683631422.019,-32.227,-41.992,-42.969,-30.762
1683631422.023,-71.777,-55.176,-32.715,-34.668
1683631422.027,-73.242,-59.082,-42.480,-48.340
1683631422.031,-38.574,-43.945,-35.156,-43.457
1683631422.033,-15.625,-31.250,-36.133,-41.016
1683631422.037,-36.133,-42.480,-52.246,-46.875
1683631422.041,-62.012,-44.922,-43.945,-34.668
1683631422.045,-57.617,-38.086,-38.086,-34.180
1683631422.049,-36.621,-37.598,-46.387,-44.434
1683631422.053,-3.906,-27.344,-32.227,-26.367
1683631422.057,-21.484,-31.738,-36.133,-24.902
1683631422.060,-66.895,-53.223,-55.664,-41.504
1683631422.064,-59.570,-57.129,-50.781,-40.039
1683631422.068,-36.133,-57.617,-42.969,-36.621
1683631422.072,-20.508,-52.734,-40.527,-30.762
1683631422.076,-19.043,-30.273,-36.621,-29.785
1683631422.078,-47.363,-31.738,-33.203,-37.598
1683631422.082,-62.012,-49.316,-35.645,-44.922
1683631422.086,-46.387,-56.641,-34.180,-46.387
1683631422.090,-19.043,-36.621,-37.598,-40.039
1683631422.094,-24.414,-31.250,-48.340,-45.898
1683631422.098,-61.523,-45.898,-52.246,-53.223
1683631422.102,-70.801,-36.621,-44.434,-38.574
1683631422.105,-42.480,-29.297,-30.762,-31.250
1683631422.109,-14.160,-31.738,-35.156,-38.086
1683631422.113,-22.461,-36.621,-48.340,-42.480
1683631422.117,-47.852,-44.922,-61.523,-42.969
1683631422.121,-76.660,-57.129,-69.336,-57.617
1683631422.123,-66.406,-56.152,-56.152,-60.547
1683631422.127,-26.855,-44.434,-44.922,-52.246
1683631422.131,-19.043,-39.062,-46.875,-46.387
1683631422.135,-45.410,-38.086,-40.039,-41.992
1683631422.139,-64.941,-53.711,-46.387,-43.945
1683631422.143,-63.965,-60.059,-53.711,-47.363
1683631422.147,-30.273,-38.086,-45.410,-43.457
1683631422.150,-9.277,-20.996,-37.598,-31.738
1683631422.154,-43.457,-37.598,-41.992,-43.457
1683631422.158,-61.035,-60.547,-41.504,-46.387
1683631422.162,-66.895,-61.523,-46.875,-50.781
1683631422.166,-46.875,-42.480,-51.270,-50.293
1683631422.123,-66.406,-56.152,-56.152,-60.547
1683631422.127,-26.855,-44.434,-44.922,-52.246
1683631422.131,-19.043,-39.062,-46.875,-46.387
1683631422.135,-45.410,-38.086,-40.039,-41.992
1683631422.139,-64.941,-53.711,-46.387,-43.945
1683631422.143,-63.965,-60.059,-53.711,-47.363
1683631422.147,-30.273,-38.086,-45.410,-43.457
1683631422.150,-9.277,-20.996,-37.598,-31.738
1683631422.154,-43.457,-37.598,-41.992,-43.457
1683631422.158,-61.035,-60.547,-41.504,-46.387
1683631422.162,-66.895,-61.523,-46.875,-50.781
1683631422.166,-46.875,-42.480,-51.270,-50.293
1683631422.168,-23.438,-32.715,-44.434,-33.203
1683631422.172,-52.734,-51.758,-44.434,-43.457
1683631422.176,-69.824,-59.570,-39.551,-46.875
1683631422.180,-60.059,-54.688,-31.250,-42.480
1683631422.184,-23.926,-41.992,-29.785,-36.621
1683631422.188,9.277,-15.137,-33.691,-23.438
1683631422.192,-21.973,-30.762,-43.457,-25.391
1683631422.195,-75.684,-61.523,-41.016,-37.109
1683631422.199,-84.961,-58.594,-31.250,-47.852
1683631422.203,-53.223,-58.594,-24.414,-50.781
1683631422.207,-33.203,-49.805,-21.484,-44.922
1683631422.211,-55.176,-48.340,-25.391,-43.945
1683631422.168,-23.438,-32.715,-44.434,-33.203
1683631422.172,-52.734,-51.758,-44.434,-43.457
1683631422.176,-69.824,-59.570,-39.551,-46.875
1683631422.180,-60.059,-54.688,-31.250,-42.480
1683631422.184,-23.926,-41.992,-29.785,-36.621
1683631422.188,9.277,-15.137,-33.691,-23.438
1683631422.192,-21.973,-30.762,-43.457,-25.391
1683631422.195,-75.684,-61.523,-41.016,-37.109
1683631422.199,-84.961,-58.594,-31.250,-47.852
1683631422.203,-53.223,-58.594,-24.414,-50.781
1683631422.207,-33.203,-49.805,-21.484,-44.922
1683631422.211,-55.176,-48.340,-25.391,-43.945
1683631422.213,-76.660,-70.312,-22.461,-43.457
1683631422.217,-87.891,-67.871,-12.207,-48.828
1683631422.221,-69.336,-61.035,-6.348,-56.641
1683631422.225,-42.480,-60.547,-19.531,-49.805
1683631422.229,-41.016,-51.758,-40.039,-44.434
1683631422.233,-67.383,-50.781,-43.945,-53.223
1683631422.237,-71.777,-49.316,-27.344,-42.480
1683631422.240,-44.922,-50.781,-18.555,-31.738
1683631422.244,-34.668,-52.734,-46.875,-44.922
1683631422.248,-33.691,-41.992,-52.734,-43.945
1683631422.252,-54.688,-48.828,-31.738,-45.898
1683631422.256,-85.938,-59.570,-32.715,-54.688
1683631422.273,-71.777,-53.223,-35.156,-48.340
1683631422.277,-26.855,-41.504,-19.531,-30.273
1683631422.281,-27.832,-51.758,-30.762,-33.203
1683631422.285,-53.711,-50.293,-38.574,-38.574
1683631422.289,-62.988,-34.668,-36.621,-32.227
1683631422.293,-54.199,-38.574,-29.785,-30.762
1683631422.297,-11.719,-31.250,-15.137,-20.996
1683631422.300,-26.367,-35.156,-33.691,-30.762
1683631422.304,-63.477,-47.363,-38.574,-46.875
1683631422.308,-67.871,-57.129,-38.574,-46.387
1683631422.312,-75.684,-64.941,-52.246,-39.062
1683631422.316,-39.062,-43.457,-46.387,-27.344
1683631422.273,-71.777,-53.223,-35.156,-48.340
1683631422.277,-26.855,-41.504,-19.531,-30.273
1683631422.281,-27.832,-51.758,-30.762,-33.203
1683631422.285,-53.711,-50.293,-38.574,-38.574
1683631422.289,-62.988,-34.668,-36.621,-32.227
1683631422.293,-54.199,-38.574,-29.785,-30.762
1683631422.297,-11.719,-31.250,-15.137,-20.996
1683631422.300,-26.367,-35.156,-33.691,-30.762
1683631422.304,-63.477,-47.363,-38.574,-46.875
1683631422.308,-67.871,-57.129,-38.574,-46.387
1683631422.312,-75.684,-64.941,-52.246,-39.062
1683631422.316,-39.062,-43.457,-46.387,-27.344
1683631422.318,-15.137,-31.738,-31.250,-21.973
1683631422.322,-49.805,-37.109,-28.320,-31.250
1683631422.326,-71.289,-40.039,-29.785,-39.062
1683631422.330,-68.848,-48.340,-29.297,-37.598
1683631422.334,-26.855,-37.598,-21.484,-17.090
1683631422.338,-7.324,-35.645,-30.762,-16.602
1683631422.342,-32.227,-49.316,-58.594,-35.156
1683631422.345,-45.410,-53.223,-61.523,-33.203
1683631422.349,-60.547,-59.082,-48.340,-39.062
1683631422.353,-52.246,-62.988,-42.480,-42.969
1683631422.357,-21.484,-56.641,-36.133,-30.762
1683631422.361,-29.297,-43.457,-32.227,-30.273
1683631422.363,-49.805,-38.574,-28.809,-30.762
1683631422.367,-57.617,-40.039,-41.992,-39.062
1683631422.371,-33.203,-38.574,-49.316,-36.621
1683631422.375,-4.883,-21.484,-32.715,-16.602
1683631422.379,-22.949,-20.020,-36.133,-14.648
1683631422.383,-41.992,-28.809,-48.340,-23.438
1683631422.387,-43.945,-38.574,-45.898,-30.273
1683631422.390,-18.555,-50.781,-39.551,-34.180
1683631422.394,-0.977,-49.316,-41.016,-32.715
1683631422.398,-23.438,-41.992,-47.852,-20.996
1683631422.402,-45.410,-40.527,-53.223,-29.297
1683631422.406,-54.199,-43.457,-53.223,-37.598
1683631422.408,-40.527,-44.922,-45.410,-39.062
1683631422.412,-15.137,-53.223,-37.598,-51.270
1683631422.416,-15.625,-40.039,-27.832,-43.945
1683631422.420,-49.805,-26.367,-34.180,-39.551
1683631422.424,-55.664,-40.039,-43.457,-42.480
1683631422.428,-19.531,-35.645,-40.039,-33.691
1683631422.432,-1.953,-25.879,-44.922,-38.574
1683631422.435,-22.949,-42.480,-51.270,-48.828
1683631422.439,-57.129,-60.059,-42.480,-54.688
1683631422.443,-60.547,-64.941,-38.574,-48.340
1683631422.447,-31.738,-55.664,-51.270,-36.621
1683631422.451,-9.766,-28.809,-46.875,-27.344
1683631422.453,-22.949,-28.320,-47.363,-35.645
1683631422.457,-49.805,-50.781,-54.688,-40.039
1683631422.461,-67.871,-56.641,-53.711,-43.457
1683631422.465,-72.266,-49.316,-42.480,-50.293
1683631422.469,-36.621,-25.879,-31.738,-31.738
1683631422.473,-19.531,-19.043,-35.645,-30.762
1683631422.477,-53.711,-37.598,-45.898,-46.387
1683631422.480,-84.473,-61.035,-52.734,-57.129
1683631422.484,-77.148,-68.359,-45.898,-49.316
1683631422.488,-20.996,-46.875,-35.156,-32.715
1683631422.492,1.953,-29.297,-45.898,-30.762
1683631422.496,-41.504,-46.387,-68.848,-52.246
1683631422.498,-70.801,-53.223,-72.266,-66.406
1683631422.502,-63.477,-38.574,-52.734,-55.176
1683631422.506,-36.133,-29.785,-43.457,-43.945
1683631422.510,-33.203,-24.902,-67.871,-54.688
1683631422.514,-42.480,-24.414,-66.406,-48.340
1683631422.518,-67.871,-32.227,-42.480,-41.016
1683631422.522,-81.055,-59.082,-45.410,-69.824
1683631422.525,-32.715,-61.523,-42.480,-64.453
1683631422.529,-7.812,-35.156,-33.203,-36.621
1683631422.533,-37.109,-26.855,-36.133,-41.016
1683631422.537,-59.082,-44.922,-42.480,-49.805
1683631422.541,-50.781,-45.410,-42.480,-43.945
1683631422.543,-22.949,-24.414,-25.391,-35.156
1683631422.547,2.441,-16.113,-24.902,-31.250
1683631422.551,-20.508,-41.016,-57.129,-40.039
1683631422.555,-44.922,-45.898,-55.664,-37.109
1683631422.559,-48.828,-29.297,-43.457,-19.043
1683631422.563,-33.691,-27.344,-23.438,-28.320
1683631422.567,-1.465,-30.762,-18.555,-41.016
1683631422.570,-30.762,-39.551,-35.645,-41.016
1683631422.574,-68.848,-42.480,-50.781,-44.922
1683631422.578,-72.754,-50.781,-54.688,-50.293
1683631422.582,-46.387,-44.922,-40.527,-41.504
1683631422.586,-8.301,-14.648,-31.738,-22.461
1683631422.588,-12.207,-6.836,-36.133,-24.414
1683631422.592,-31.738,-27.344,-34.668,-17.578
1683631422.596,-56.641,-49.316,-41.016,-14.648
1683631422.600,-48.828,-45.410,-40.039,-23.438
1683631422.604,-4.883,-35.156,-35.645,-17.090
1683631422.608,-3.906,-35.156,-37.109,-20.020
1683631422.612,-50.781,-41.016,-54.199,-36.621
1683631422.615,-71.777,-47.852,-61.035,-41.992
1683631422.619,-51.758,-48.340,-30.762,-29.785
1683631422.623,-20.996,-45.410,-19.043,-24.902
1683631422.627,-12.695,-41.016,-35.645,-29.297
1683631422.631,-44.434,-36.621,-46.387,-43.945
1683631422.648,-54.199,-30.762,-38.086,-38.574
1683631422.652,-40.527,-35.156,-32.715,-39.062
1683631422.656,-22.461,-36.621,-32.227,-37.109
1683631422.660,-5.371,-27.832,-30.273,-21.973
1683631422.664,-39.551,-44.922,-51.758,-42.969
1683631422.668,-68.848,-57.617,-64.941,-57.617
1683631422.672,-68.848,-58.105,-57.617,-44.434
1683631422.675,-40.527,-57.617,-49.805,-36.133
1683631422.679,-4.883,-29.297,-40.039,-35.156
1683631422.683,-21.484,-20.996,-40.039,-35.156
1683631422.687,-42.480,-38.086,-34.668,-37.598
1683631422.691,-45.410,-44.922,-32.227,-42.480
1683631422.693,-29.785,-50.781,-40.039,-53.711
1683631422.697,-16.113,-50.781,-47.363,-51.270
1683631422.701,-34.180,-41.992,-48.340,-47.852
1683631422.705,-41.504,-33.203,-50.293,-42.969
1683631422.709,-49.805,-40.039,-54.688,-39.062
1683631422.713,-46.387,-43.945,-58.105,-47.363
1683631422.717,-25.391,-30.273,-51.758,-36.133
1683631422.720,-26.855,-27.832,-41.016,-21.484
1683631422.724,-52.246,-49.805,-42.969,-35.156
1683631422.728,-73.242,-60.547,-40.527,-42.480
1683631422.732,-53.711,-44.922,-34.180,-43.457
1683631422.736,-20.996,-30.273,-37.109,-39.551
1683631422.738,-20.996,-30.273,-50.293,-32.715
1683631422.742,-58.105,-47.363,-67.871,-44.922
1683631422.746,-71.289,-61.523,-59.082,-49.316
1683631422.750,-38.574,-55.176,-41.016,-41.504
1683631422.754,-10.742,-42.969,-41.504,-38.574
1683631422.758,-25.879,-37.598,-49.805,-44.922
1683631422.762,-63.477,-62.500,-63.477,-55.664
1683631422.765,-79.102,-80.566,-60.547,-53.711
1683631422.769,-67.383,-68.848,-52.246,-54.688
1683631422.773,-35.156,-33.691,-48.828,-42.969
1683631422.777,-27.832,-29.785,-41.992,-33.203
1683631422.781,-64.941,-53.223,-45.898,-46.875
1683631422.783,-83.496,-52.246,-45.410,-57.617
1683631422.787,-72.754,-39.551,-45.410,-56.152
1683631422.791,-39.551,-35.156,-41.992,-39.551
1683631422.795,-16.602,-25.391,-30.762,-33.691
1683631422.799,-60.547,-48.340,-43.945,-50.781
1683631422.803,-92.773,-65.918,-51.758,-56.152
1683631422.807,-70.801,-52.734,-43.945,-46.387
1683631422.810,-28.809,-43.457,-37.598,-34.180
1683631422.814,-18.066,-53.223,-46.875,-37.109
1683631422.818,-58.594,-69.336,-56.641,-47.363
1683631422.822,-67.871,-50.293,-49.805,-38.574
1683631422.826,-52.246,-26.855,-39.062,-42.969
1683631422.828,-36.133,-27.344,-34.668,-44.922
1683631422.832,-20.996,-32.227,-32.227,-29.785
1683631422.836,-35.156,-31.738,-35.156,-31.250
1683631422.840,-49.316,-29.297,-41.504,-41.504
1683631422.844,-61.035,-42.480,-45.898,-44.922
1683631422.848,-40.527,-47.852,-35.645,-36.621
1683631422.852,-13.672,-31.250,-32.715,-35.645
1683631422.855,-43.457,-34.180,-50.293,-49.316
1683631422.859,-75.684,-60.059,-64.941,-48.828
1683631422.863,-70.801,-62.988,-64.941,-44.922
1683631422.867,-45.898,-39.062,-40.039,-34.180
1683631422.871,-29.785,-34.180,-28.320,-22.461
1683631422.873,-54.688,-48.828,-51.758,-31.738
1683631422.877,-82.520,-50.293,-57.129,-41.992
1683631422.881,-87.402,-44.922,-40.527,-39.551
1683631422.885,-69.336,-40.039,-36.621,-39.062
1683631422.889,-28.320,-34.668,-19.531,-30.273
1683631422.893,-34.180,-32.715,-11.719,-33.203
1683631422.897,-63.965,-41.992,-44.434,-39.062
1683631422.900,-66.895,-48.828,-62.500,-31.250
1683631422.904,-52.246,-44.922,-48.828,-38.086
1683631422.908,-8.789,-28.809,-32.227,-33.691
1683631422.912,-11.719,-34.180,-39.062,-25.879
1683631422.916,-62.500,-54.688,-45.898,-37.598
1683631422.918,-72.754,-52.734,-50.781,-52.246
1683631422.922,-50.781,-50.781,-51.758,-43.945
1683631422.926,-21.484,-40.527,-33.691,-24.902
1683631422.930,-25.879,-28.809,-31.250,-27.344
1683631422.934,-51.758,-39.551,-42.480,-42.969
1683631422.938,-72.266,-47.852,-32.227,-50.293
1683631422.942,-62.988,-43.945,-25.879,-44.922
1683631422.945,-23.438,-36.133,-22.461,-34.180
1683631422.949,-24.414,-44.434,-30.273,-40.527
1683631422.953,-59.570,-52.734,-45.898,-45.410
1683631422.957,-71.289,-42.969,-36.133,-35.156
1683631422.961,-58.594,-41.504,-37.598,-32.715
1683631422.963,-31.738,-39.551,-44.922,-41.992
1683631422.967,-14.160,-32.227,-32.715,-35.156
1683631422.971,-46.875,-40.039,-48.340,-38.086
1683631422.975,-82.031,-53.223,-59.570,-51.270
1683631422.979,-63.965,-52.734,-31.738,-46.387
1683631422.983,-30.762,-38.086,-21.973,-36.621
1683631422.987,-16.113,-22.461,-32.715,-33.691
1683631422.990,-33.691,-28.809,-31.250,-36.621
1683631422.994,-66.406,-43.945,-32.715,-43.945
1683631422.998,-72.754,-41.504,-33.691,-47.363
1683631423.002,-35.645,-30.762,-15.137,-25.391
1683631423.006,-23.926,-32.227,-23.926,-17.578
1683631423.023,-43.945,-41.016,-45.410,-34.180
1683631423.027,-46.387,-42.969,-34.668,-32.227
1683631423.031,-59.082,-66.406,-29.297,-33.203
1683631423.035,-63.477,-69.824,-55.176,-48.340
1683631423.039,-43.457,-48.340,-63.965,-50.781
1683631423.043,-47.852,-38.574,-54.199,-43.945
1683631423.047,-75.684,-54.688,-54.688,-48.828
1683631423.050,-67.871,-53.711,-49.316,-41.016
1683631423.054,-38.574,-38.574,-48.340,-35.645
1683631423.058,-24.902,-30.273,-45.410,-35.645
1683631423.062,-22.949,-22.461,-31.250,-26.855
1683631423.066,-58.105,-38.574,-52.246,-42.480
1683631423.068,-78.613,-48.340,-54.199,-50.293
1683631423.072,-41.992,-27.344,-25.391,-39.062
1683631423.076,-8.301,-23.438,-25.879,-44.922
1683631423.080,-28.809,-26.855,-37.109,-47.363
1683631423.084,-61.035,-29.297,-53.711,-45.898
1683631423.088,-72.266,-48.828,-57.617,-46.875
1683631423.092,-58.594,-57.129,-53.711,-45.898
1683631423.095,-10.254,-33.691,-45.898,-35.645
1683631423.099,-14.160,-35.645,-51.270,-27.832
1683631423.103,-67.871,-63.477,-65.918,-32.715
1683631423.107,-73.242,-37.109,-52.246,-34.180
1683631423.111,-41.016,-3.418,-23.438,-25.391
1683631423.113,-17.578,-19.531,-42.480,-31.250
1683631423.117,-22.949,-25.879,-53.711,-37.598
1683631423.121,-55.176,-37.109,-32.715,-45.898
1683631423.125,-77.148,-48.340,-41.016,-52.246
1683631423.129,-66.406,-43.945,-51.758,-50.781
1683631423.133,-32.227,-34.180,-41.504,-38.574
1683631423.137,-17.090,-27.344,-34.180,-23.926
1683631423.140,-46.387,-40.527,-40.527,-29.297
1683631423.144,-69.824,-61.523,-52.246,-41.016
1683631423.148,-56.152,-59.570,-50.781,-40.039
1683631423.152,-9.277,-34.180,-24.902,-17.090
1683631423.156,13.672,-13.184,-20.020,-8.301
1683631423.158,-30.273,-24.902,-42.480,-38.574
1683631423.162,-69.824,-47.363,-55.664,-53.711
1683631423.166,-68.848,-47.363,-60.547,-43.457
1683631423.170,-36.621,-31.250,-48.340,-32.715
1683631423.174,0.000,-22.461,-31.250,-31.250
1683631423.178,-26.855,-33.203,-31.250,-38.086
1683631423.182,-72.754,-41.016,-37.598,-46.387
1683631423.185,-69.336,-40.527,-40.039,-43.457
1683631423.189,-38.574,-36.133,-41.504,-32.227
1683631423.193,-16.113,-25.879,-43.945,-34.668
1683631423.197,-22.949,-32.227,-35.156,-33.203
1683631423.201,-57.617,-57.129,-37.598,-42.969
1683631423.158,-30.273,-24.902,-42.480,-38.574
1683631423.162,-69.824,-47.363,-55.664,-53.711
1683631423.166,-68.848,-47.363,-60.547,-43.457
1683631423.170,-36.621,-31.250,-48.340,-32.715
1683631423.174,0.000,-22.461,-31.250,-31.250
1683631423.178,-26.855,-33.203,-31.250,-38.086
1683631423.182,-72.754,-41.016,-37.598,-46.387
1683631423.185,-69.336,-40.527,-40.039,-43.457
1683631423.189,-38.574,-36.133,-41.504,-32.227
1683631423.193,-16.113,-25.879,-43.945,-34.668
1683631423.197,-22.949,-32.227,-35.156,-33.203
1683631423.201,-57.617,-57.129,-37.598,-42.969
1683631423.203,-78.125,-67.871,-47.363,-59.082
1683631423.207,-48.340,-42.480,-39.551,-48.828
1683631423.211,-16.602,-31.250,-36.621,-37.109
1683631423.215,-33.203,-41.504,-45.410,-40.527
1683631423.219,-58.105,-56.641,-45.410,-43.457
1683631423.223,-62.012,-50.293,-43.945,-35.156
1683631423.227,-50.781,-30.273,-59.570,-37.109
1683631423.230,-23.438,-34.180,-41.992,-39.551
1683631423.234,-25.391,-38.086,-33.691,-38.574
1683631423.238,-55.664,-46.875,-46.387,-40.527
1683631423.242,-58.105,-47.363,-37.598,-30.273
1683631423.246,-41.992,-42.480,-36.133,-34.668
1683631423.248,-22.949,-51.270,-41.016,-41.504
1683631423.252,-21.973,-58.594,-46.387,-43.945
1683631423.256,-52.734,-59.082,-54.688,-50.781
1683631423.260,-62.500,-52.246,-58.594,-53.223
1683631423.264,-53.223,-52.734,-50.293,-52.246
1683631423.268,-20.996,-32.227,-31.250,-39.062
1683631423.272,-10.742,-18.555,-34.668,-34.668
1683631423.275,-40.527,-35.645,-48.340,-39.062
1683631423.279,-60.059,-53.711,-41.992,-46.875
1683631423.283,-60.059,-71.777,-27.344,-52.246
1683631423.287,-28.809,-50.293,-18.555,-44.922
1683631423.291,-15.137,-21.484,-35.645,-38.574
1683631423.293,-39.551,-26.367,-43.945,-33.203
1683631423.297,-80.566,-48.340,-42.480,-45.898
1683631423.301,-81.055,-60.059,-46.875,-52.734
1683631423.305,-45.898,-59.570,-36.621,-54.688
1683631423.309,-35.156,-46.875,-33.203,-54.688
1683631423.313,-52.246,-36.621,-36.133,-44.922
1683631423.317,-65.918,-41.992,-40.527,-47.363
1683631423.320,-67.871,-48.340,-40.527,-59.570
1683631423.324,-48.828,-49.316,-47.363,-59.082
1683631423.328,-34.180,-44.922,-62.988,-61.035
1683631423.332,-45.410,-41.504,-51.758,-62.012
1683631423.336,-66.406,-50.781,-33.203,-49.805
1683631423.338,-49.805,-44.434,-25.391,-26.367
1683631423.342,-21.484,-39.551,-35.645,-29.785
1683631423.346,-17.578,-37.109,-49.316,-41.016
1683631423.350,-30.762,-31.738,-55.664,-35.156
1683631423.354,-54.688,-46.875,-52.246,-41.504
1683631423.358,-58.594,-46.875,-32.227,-42.969
1683631423.362,-38.086,-38.574,-16.602,-33.691
1683631423.365,-12.695,-38.574,-20.508,-28.809
1683631423.369,-22.949,-31.738,-36.621,-32.227
1683631423.373,-57.129,-44.434,-45.898,-33.691
1683631423.377,-62.012,-55.664,-48.828,-34.668
1683631423.381,-32.715,-38.574,-41.016,-33.203
1683631423.398,4.883,-16.602,-20.508,-8.789
1683631423.402,-7.324,-22.949,-10.254,-2.441
1683631423.406,-59.570,-54.688,-28.809,-39.551
1683631423.410,-77.637,-69.824,-45.898,-60.059
1683631423.414,-52.734,-70.312,-43.457,-56.152
1683631423.418,-20.508,-46.875,-41.992,-54.688
1683631423.422,-18.555,-33.691,-34.180,-46.387
1683631423.425,-50.781,-62.500,-41.504,-53.223
1683631423.429,-65.430,-67.871,-38.574,-51.270
1683631423.433,-46.387,-42.969,-32.715,-32.715
1683631423.437,-22.949,-34.180,-40.527,-27.344
1683631423.441,-16.602,-43.945,-40.039,-30.762
1683631423.443,-37.109,-42.969,-25.879,-32.227
1683631423.447,-78.125,-51.270,-56.641,-51.270
1683631423.451,-83.008,-63.965,-77.148,-54.688
1683631423.455,-25.879,-42.480,-44.922,-47.363
1683631423.459,-11.719,-30.762,-33.691,-47.363
1683631423.463,-60.547,-41.992,-45.898,-46.387
1683631423.467,-89.355,-51.270,-50.293,-52.734
1683631423.470,-78.125,-50.293,-48.340,-56.641
1683631423.474,-40.039,-48.828,-39.062,-47.852
1683631423.478,-24.414,-48.340,-30.273,-39.062
1683631423.482,-46.875,-52.246,-33.203,-37.109
1683631423.486,-74.707,-53.711,-42.480,-38.574
1683631423.488,-65.430,-48.828,-37.109,-42.480
1683631423.492,-14.648,-36.621,-31.250,-36.621
1683631423.496,-7.812,-34.668,-39.551,-33.691
1683631423.500,-55.664,-45.898,-53.711,-46.387
1683631423.504,-67.871,-52.246,-58.594,-50.293
1683631423.508,-58.594,-41.992,-52.734,-50.293
1683631423.512,-45.898,-41.016,-46.387,-49.316
1683631423.515,-15.625,-36.133,-25.879,-43.457
1683631423.519,-20.508,-24.902,-26.367,-41.016
1683631423.523,-48.828,-34.180,-45.898,-36.133
1683631423.527,-56.641,-44.434,-39.551,-36.133
1683631423.531,-36.621,-57.129,-33.691,-46.387
1683631423.533,-5.859,-49.805,-26.855,-41.016
1683631423.537,-14.648,-29.785,-27.344,-36.133
1683631423.541,-48.340,-34.180,-41.504,-37.598
1683631423.545,-56.152,-38.574,-39.062,-36.621
1683631423.549,-34.668,-39.551,-32.227,-36.133
1683631423.553,0.488,-32.227,-38.086,-33.691
1683631423.557,-3.906,-20.508,-43.945,-32.715
1683631423.560,-52.734,-47.852,-46.387,-41.504
1683631423.564,-57.617,-62.988,-54.199,-43.945
1683631423.568,-31.250,-42.969,-44.434,-34.668
1683631423.572,-19.043,-25.391,-34.668,-28.809
1683631423.576,-21.973,-25.391,-42.480,-29.297
1683631423.578,-45.410,-35.156,-44.434,-37.109
1683631423.582,-56.152,-36.133,-47.852,-36.621
1683631423.586,-64.453,-37.598,-43.945,-42.480
1683631423.590,-46.875,-27.832,-28.320,-43.457
1683631423.594,-29.297,-16.113,-35.156,-32.227
1683631423.598,-58.105,-27.832,-40.039,-36.133
1683631423.602,-73.242,-37.109,-36.133,-43.457
1683631423.605,-50.293,-45.410,-39.551,-42.480
1683631423.609,-21.484,-42.480,-36.621,-43.945
1683631423.613,-21.973,-34.668,-26.855,-38.086
1683631423.617,-52.246,-37.598,-37.109,-33.203
1683631423.621,-65.430,-46.875,-49.316,-41.504
1683631423.623,-58.105,-55.664,-49.316,-49.805
1683631423.627,-34.180,-41.016,-32.715,-47.363
1683631423.631,-27.832,-31.738,-36.621,-53.223
1683631423.635,-51.270,-49.805,-58.105,-59.082
1683631423.639,-50.293,-49.805,-54.688,-43.945
1683631423.643,-42.480,-33.203,-39.551,-42.969
1683631423.647,-31.250,-36.621,-41.992,-54.688
1683631423.650,-21.484,-40.527,-55.176,-53.223
1683631423.654,-39.062,-33.203,-59.570,-50.781
1683631423.658,-63.477,-38.086,-52.734,-51.270
1683631423.662,-68.359,-61.035,-42.969,-52.246
1683631423.666,-44.434,-51.758,-29.297,-41.504
1683631423.683,-30.273,-31.738,-31.250,-33.203
1683631423.687,-46.387,-36.621,-43.457,-40.527
1683631423.691,-69.336,-57.617,-50.781,-55.176
1683631423.695,-62.988,-66.895,-42.480,-45.410
1683631423.699,-28.809,-48.340,-31.250,-20.508
1683631423.703,0.977,-26.855,-19.531,-16.602
1683631423.707,-30.762,-36.621,-36.621,-37.109
1683631423.710,-69.336,-55.664,-58.105,-40.039
1683631423.714,-63.477,-55.664,-49.316,-31.250
1683631423.718,-50.293,-47.363,-32.227,-38.086
1683631423.722,-25.879,-31.250,-30.762,-44.434
1683631423.726,-34.668,-32.227,-41.992,-35.645
1683631423.713,-76.172,-51.758,-50.781,-43.945
1683631423.717,-79.102,-56.641,-48.828,-47.852
1683631423.721,-51.758,-47.852,-35.645,-37.109
1683631423.725,-17.578,-34.180,-26.367,-35.645
1683631423.729,-17.578,-28.809,-29.297,-35.156
1683631423.733,-62.988,-57.129,-49.316,-46.875
1683631423.737,-84.473,-66.895,-57.617,-59.082
1683631423.740,-43.457,-40.039,-45.898,-40.039
1683631423.744,-13.184,-32.715,-42.480,-32.715
1683631423.748,-41.016,-45.898,-51.270,-48.828
1683631423.752,-66.406,-51.270,-45.410,-50.781
1683631423.756,-57.129,-41.992,-37.598,-41.016
1683631423.773,-56.152,-40.527,-41.504,-42.969
1683631423.777,-33.203,-41.016,-37.109,-41.504
1683631423.781,-20.996,-44.922,-48.828,-41.504
1683631423.785,-55.664,-48.340,-52.246,-46.387
1683631423.789,-74.707,-45.898,-47.852,-41.504
1683631423.793,-71.289,-56.152,-46.387,-50.781
1683631423.797,-45.410,-52.734,-50.293,-51.758
1683631423.800,-27.344,-39.551,-40.527,-35.156
1683631423.804,-58.105,-37.598,-32.227,-35.156
1683631423.808,-88.867,-56.641,-44.434,-47.363
1683631423.812,-75.195,-62.988,-54.199,-41.016
1683631423.816,-53.223,-63.965,-54.688,-44.922
1683631423.818,-49.316,-54.199,-43.945,-51.758
1683631423.822,-62.500,-36.621,-41.016,-46.387
1683631423.826,-77.637,-30.273,-42.480,-35.645
1683631423.830,-72.266,-33.203,-42.969,-31.738
1683631423.834,-58.594,-44.922,-40.527,-40.527
1683631423.838,-41.016,-45.898,-34.180,-38.086
1683631423.842,-34.180,-31.738,-32.715,-27.832
1683631423.845,-58.105,-51.758,-36.133,-32.715
1683631423.849,-75.195,-75.684,-45.898,-48.340
1683631423.853,-41.992,-52.246,-43.457,-31.250
1683631423.857,-1.465,-33.203,-38.086,-12.207
1683631423.861,-9.766,-49.805,-48.828,-28.809
1683631423.863,-53.223,-62.500,-56.641,-45.410
1683631423.867,-67.871,-47.852,-56.641,-44.434
1683631423.871,-29.297,-27.344,-49.316,-38.086
1683631423.875,-8.301,-23.438,-40.039,-28.320
1683631423.879,-30.273,-28.320,-32.715,-27.832
1683631423.883,-52.734,-29.297,-30.273,-36.621
1683631423.887,-61.035,-34.668,-41.016,-37.598
1683631423.890,-42.969,-35.645,-39.551,-33.691
1683631423.894,-10.742,-27.832,-31.738,-24.902
1683631423.898,-25.879,-31.250,-44.434,-30.273
1683631423.902,-66.406,-60.547,-61.523,-46.387
1683631423.906,-77.148,-69.824,-55.664,-48.828
1683631423.908,-63.477,-49.805,-47.852,-50.293
1683631423.912,-43.457,-42.969,-54.688,-52.246
1683631423.916,-37.598,-40.527,-54.688,-42.969
1683631423.920,-53.711,-42.969,-53.223,-44.922
1683631423.924,-69.336,-61.523,-62.500,-54.199
1683631423.928,-72.266,-54.688,-49.805,-51.270
1683631423.932,-49.805,-28.809,-27.344,-41.016
1683631423.935,-28.809,-20.508,-28.320,-28.320
1683631423.939,-57.617,-39.551,-44.922,-34.668
1683631423.943,-76.660,-46.387,-37.109,-35.156
1683631423.947,-49.316,-38.574,-19.531,-21.973
1683631423.951,-29.785,-46.875,-24.414,-25.879
1683631423.953,-36.133,-53.223,-40.527,-39.062
1683631423.957,-47.852,-45.898,-48.340,-39.062
1683631423.961,-62.500,-44.434,-53.711,-30.762
1683631423.965,-54.199,-36.133,-62.988,-41.016
1683631423.969,-16.113,-34.180,-50.781,-39.551
1683631423.973,-8.301,-34.668,-38.574,-25.391
1683631423.977,-34.668,-31.738,-54.199,-24.414
1683631423.980,-57.617,-47.852,-56.641,-28.809
1683631423.984,-63.477,-54.199,-47.363,-33.691
1683631423.988,-40.527,-44.922,-48.828,-34.668
1683631423.992,-12.207,-30.762,-36.133,-22.461
1683631423.996,-28.809,-31.250,-32.227,-32.227
1683631423.998,-64.453,-32.227,-32.715,-40.527
1683631424.002,-73.242,-41.504,-36.621,-41.016
1683631424.006,-41.504,-50.293,-43.945,-46.875
1683631424.010,-24.902,-30.762,-35.156,-41.992
1683631424.014,-55.176,-31.250,-40.039,-47.363
1683631424.018,-88.379,-58.105,-55.664,-59.570
1683631424.022,-96.191,-68.848,-52.734,-64.453
1683631424.025,-76.172,-59.082,-55.176,-56.152
1683631424.029,-39.551,-35.156,-45.410,-32.715
1683631424.033,-35.156,-29.785,-23.926,-29.297
1683631424.037,-76.172,-54.199,-36.133,-49.316
1683631424.041,-92.285,-54.199,-40.039,-50.781
1683631424.043,-79.102,-42.969,-47.363,-49.805
1683631424.047,-44.922,-34.180,-55.176,-41.992
1683631424.051,-37.598,-30.273,-48.340,-38.574
1683631424.055,-82.520,-45.898,-54.688,-61.523
1683631424.059,-81.543,-50.781,-47.852,-53.711
1683631424.063,-60.059,-41.504,-41.992,-42.969
1683631424.067,-32.715,-32.227,-33.691,-37.598
1683631424.070,-14.648,-31.738,-36.133,-33.203
1683631424.074,-45.898,-50.781,-55.176,-41.504
1683631424.078,-57.617,-62.500,-54.199,-41.992
1683631424.082,-50.781,-52.246,-52.246,-42.969
1683631424.086,-26.855,-35.645,-52.734,-41.992
1683631424.088,-2.441,-17.578,-39.062,-27.344
1683631424.092,-33.203,-21.484,-41.504,-25.391
1683631424.096,-67.871,-47.363,-49.316,-41.992
1683631424.100,-58.105,-52.734,-41.016,-47.363
1683631424.104,-19.043,-41.016,-33.203,-34.668
1683631424.108,-10.254,-28.320,-42.480,-32.227
1683631424.112,-53.223,-38.086,-60.059,-51.270
1683631424.115,-77.637,-52.734,-53.223,-49.805
1683631424.119,-63.965,-52.734,-49.316,-31.738
1683631424.123,-26.367,-35.645,-30.762,-23.438
1683631424.127,-20.020,-25.879,-16.602,-27.344
1683631424.131,-53.223,-42.480,-41.992,-41.016
1683631424.148,-65.918,-48.340,-57.617,-31.250
1683631424.152,-64.453,-42.969,-47.852,-28.809
1683631424.156,-49.316,-47.852,-41.992,-38.574
1683631424.160,-26.367,-46.875,-46.387,-44.434
1683631424.164,-34.668,-42.480,-43.945,-42.480
1683631424.168,-56.152,-36.133,-38.086,-35.156
1683631424.172,-54.199,-30.762,-44.434,-30.762
1683631424.175,-41.504,-34.668,-41.016,-27.832
1683631424.179,-23.926,-31.738,-39.062,-25.879
1683631424.183,-36.621,-43.945,-49.805,-31.250
1683631424.187,-73.242,-50.293,-53.223,-46.875
1683631424.191,-73.730,-52.734,-46.875,-47.852
1683631424.193,-40.039,-56.641,-41.992,-41.016
1683631424.197,-1.953,-34.668,-41.504,-37.109
1683631424.201,3.418,-25.391,-36.621,-24.902
1683631424.205,-29.297,-37.598,-42.969,-23.926
1683631424.209,-55.176,-47.852,-58.594,-39.551
1683631424.213,-40.527,-47.852,-55.176,-51.758
1683631424.217,-15.625,-38.574,-38.086,-37.109
1683631424.220,-23.926,-33.203,-24.414,-24.902
1683631424.224,-53.223,-47.852,-34.668,-47.363
1683631424.228,-70.312,-56.641,-45.410,-51.758
1683631424.232,-54.199,-41.992,-42.969,-44.922
1683631424.236,-17.090,-25.879,-34.180,-40.039
1683631424.238,-16.113,-21.973,-35.645,-42.480
1683631424.242,-51.758,-41.992,-43.457,-52.734
1683631424.246,-65.430,-47.363,-44.922,-51.758
1683631424.250,-48.340,-40.527,-51.270,-44.922
1683631424.254,-25.879,-43.457,-45.898,-39.062
1683631424.258,-21.973,-42.480,-24.902,-40.039
1683631424.262,-47.852,-51.758,-37.109,-51.758
1683631424.265,-84.961,-73.730,-49.316,-61.035
1683631424.269,-66.406,-72.266,-33.691,-47.852
1683631424.273,-25.391,-43.457,-34.180,-40.039
1683631424.277,-24.902,-24.902,-54.688,-44.922
1683631424.281,-43.457,-29.297,-53.223,-50.293
1683631424.283,-56.641,-39.062,-43.945,-46.875
1683631424.287,-55.176,-51.270,-49.805,-37.109
1683631424.291,-25.391,-43.945,-39.062,-25.879
1683631424.295,-4.883,-27.832,-30.762,-19.531
1683631424.299,-34.180,-47.852,-40.039,-34.668
1683631424.303,-55.664,-52.734,-48.340,-40.527
1683631424.307,-50.781,-35.645,-49.316,-36.133
1683631424.310,-29.297,-29.297,-35.645,-42.480
1683631424.314,-15.137,-38.574,-33.203,-37.109
1683631424.318,-30.762,-38.086,-47.852,-28.809
1683631424.322,-49.316,-40.527,-49.805,-32.715
1683631424.326,-66.406,-65.918,-42.969,-45.410
1683631424.328,-39.062,-47.363,-47.852,-38.574
1683631424.332,-7.324,-28.320,-49.805,-24.902
1683631424.336,-22.461,-51.270,-46.875,-29.785
1683631424.340,-59.082,-54.688,-52.246,-41.992
1683631424.344,-75.684,-41.016,-47.852,-40.039
1683631424.348,-58.594,-38.574,-39.062,-43.945
1683631424.352,-28.320,-40.039,-31.250,-42.480
1683631424.355,-30.762,-40.039,-32.227,-40.039
1683631424.359,-66.406,-41.016,-48.340,-36.621
1683631424.363,-79.590,-46.875,-53.223,-36.621
1683631424.367,-52.246,-41.992,-42.480,-35.156
1683631424.371,-1.465,-19.043,-27.344,-20.020
1683631424.373,-14.160,-29.297,-28.809,-19.043
1683631424.377,-59.570,-63.965,-47.852,-34.668
1683631424.381,-56.152,-55.664,-44.922,-37.598
1683631424.385,-40.039,-34.668,-37.598,-45.410
1683631424.389,-28.320,-26.855,-45.410,-50.781
1683631424.393,-28.320,-27.344,-44.922,-50.293
1683631424.397,-45.410,-54.688,-51.758,-57.129
1683631424.400,-50.781,-75.684,-54.199,-58.105
1683631424.404,-22.461,-47.363,-32.715,-37.109
1683631424.408,-8.301,-19.531,-31.250,-30.273
1683631424.412,-6.836,-18.555,-45.410,-28.809
1683631424.416,-22.949,-30.273,-38.574,-26.367
1683631424.418,-67.383,-55.664,-40.527,-40.039
1683631424.422,-80.566,-76.172,-49.316,-50.781
1683631424.426,-31.250,-65.918,-29.297,-36.133
1683631424.430,-19.531,-47.363,-30.762,-31.738
1683631424.434,-64.941,-49.316,-51.758,-48.828
1683631424.438,-79.590,-53.711,-54.688,-46.875
1683631424.442,-62.500,-51.758,-58.105,-32.715
1683631424.445,-28.320,-41.504,-49.316,-22.461
1683631424.449,-17.090,-33.203,-51.758,-35.156
1683631424.453,-45.898,-38.574,-50.781,-54.199
1683631424.457,-61.035,-45.410,-43.945,-48.828
1683631424.461,-52.246,-47.852,-57.129,-38.574
1683631424.463,-23.926,-33.203,-62.500,-39.062
1683631424.467,-0.488,-8.301,-40.527,-26.855
1683631424.471,-32.715,-30.273,-43.945,-30.273
1683631424.475,-73.730,-64.941,-63.477,-55.664
1683631424.479,-74.219,-59.082,-53.223,-59.570
1683631424.483,-46.875,-35.156,-39.551,-46.387
1683631424.487,-26.855,-30.273,-34.180,-30.273
1683631424.490,-44.434,-46.387,-42.480,-41.992
1683631424.494,-87.402,-62.012,-60.547,-63.477
1683631424.498,-81.543,-52.246,-53.711,-47.363
1683631424.502,-41.992,-45.410,-39.551,-35.156
1683631424.506,-20.996,-44.922,-32.227,-38.574
1683631424.523,-40.039,-26.367,-23.926,-29.297
1683631424.527,-75.195,-30.762,-31.250,-40.527
1683631424.531,-92.285,-49.316,-50.781,-68.848
1683631424.535,-64.941,-48.340,-41.016,-59.082
1683631424.539,-28.320,-46.875,-38.574,-50.781
1683631424.543,-31.738,-51.758,-59.082,-58.105
1683631424.547,-57.129,-47.363,-64.453,-51.758
1683631424.550,-70.312,-47.363,-51.270,-41.992
1683631424.554,-52.246,-44.922,-37.109,-29.297
1683631424.558,-19.531,-31.250,-29.785,-20.508
1683631424.562,-14.648,-33.691,-26.855,-21.484
1683631424.566,-35.156,-47.363,-36.133,-29.297
1683631424.568,-57.617,-52.734,-64.941,-42.480
1683631424.572,-50.781,-37.109,-54.688,-41.016
1683631424.576,-11.230,-10.254,-13.184,-21.973
1683631424.580,-11.230,-15.625,-28.809,-29.785
1683631424.584,-43.457,-36.621,-47.852,-46.875
1683631424.588,-64.941,-48.828,-40.527,-48.828
1683631424.592,-68.359,-47.852,-52.246,-47.852
1683631424.595,-25.391,-38.574,-44.922,-34.180
1683631424.599,-4.395,-37.598,-27.344,-29.785
1683631424.603,-55.664,-43.457,-29.785,-48.828
1683631424.607,-85.449,-40.527,-40.527,-46.387
1683631424.611,-70.312,-39.062,-48.340,-35.156
1683631424.613,-34.180,-44.434,-41.016,-34.668
1683631424.617,-13.184,-33.203,-51.270,-34.668
1683631424.621,-34.668,-17.578,-58.594,-32.227
1683631424.625,-75.195,-36.621,-53.711,-49.316
1683631424.629,-77.637,-64.941,-57.129,-60.547
1683631424.633,-35.645,-53.711,-33.203,-45.410
1683631424.637,-25.391,-43.457,-27.344,-39.062
1683631424.640,-53.223,-47.852,-36.133,-44.922
1683631424.644,-61.035,-37.598,-40.039,-45.898
1683631424.648,-61.035,-49.316,-52.734,-48.828
1683631424.652,-47.363,-54.688,-43.945,-50.293
1683631424.656,-19.043,-27.832,-36.133,-43.457
1683631424.613,-34.180,-44.434,-41.016,-34.668
1683631424.617,-13.184,-33.203,-51.270,-34.668
1683631424.621,-34.668,-17.578,-58.594,-32.227
1683631424.625,-75.195,-36.621,-53.711,-49.316
1683631424.629,-77.637,-64.941,-57.129,-60.547
1683631424.633,-35.645,-53.711,-33.203,-45.410
1683631424.637,-25.391,-43.457,-27.344,-39.062
1683631424.640,-53.223,-47.852,-36.133,-44.922
1683631424.644,-61.035,-37.598,-40.039,-45.898
1683631424.648,-61.035,-49.316,-52.734,-48.828
1683631424.652,-47.363,-54.688,-43.945,-50.293
1683631424.656,-19.043,-27.832,-36.133,-43.457
1683631424.658,-29.297,-18.555,-41.992,-42.480
1683631424.662,-59.570,-38.086,-52.246,-50.781
1683631424.666,-61.523,-47.363,-48.340,-45.898
1683631424.670,-38.574,-40.039,-44.434,-44.434
1683631424.674,-15.137,-34.180,-42.969,-43.945
1683631424.678,-27.832,-22.949,-43.457,-40.527
1683631424.682,-62.988,-29.297,-51.270,-42.969
1683631424.685,-86.426,-65.430,-48.340,-50.781
1683631424.689,-67.871,-65.430,-31.738,-52.734
1683631424.693,-26.855,-43.945,-30.762,-46.875
1683631424.697,-40.527,-53.711,-43.945,-45.898
1683631424.701,-75.195,-60.547,-49.316,-49.805
1683631424.703,-81.543,-57.129,-46.875,-47.852
1683631424.707,-58.105,-34.668,-41.992,-47.852
1683631424.711,-17.578,-16.113,-32.715,-35.156
1683631424.715,-21.484,-25.879,-33.691,-27.344
1683631424.719,-56.641,-42.480,-45.898,-42.480
1683631424.723,-63.965,-50.293,-45.898,-42.480
1683631424.727,-56.152,-47.852,-37.109,-39.062
1683631424.730,-29.785,-47.852,-41.016,-32.715
1683631424.734,-15.625,-36.621,-50.781,-34.180
1683631424.738,-30.762,-33.691,-53.711,-35.156
1683631424.742,-64.453,-54.199,-50.781,-34.180
1683631424.746,-58.105,-47.852,-49.805,-35.156
1683631424.748,-25.391,-31.250,-38.086,-34.668
1683631424.752,-28.320,-41.992,-35.645,-39.551
1683631424.756,-46.387,-57.617,-53.223,-43.457
1683631424.760,-66.406,-58.105,-48.828,-35.645
1683631424.764,-61.035,-51.758,-29.785,-31.250
1683631424.768,-24.902,-40.527,-22.461,-30.273
1683631424.772,-20.996,-38.574,-38.086,-31.738
1683631424.775,-51.758,-39.062,-45.898,-41.016
1683631424.779,-68.848,-35.645,-38.574,-46.875
1683631424.783,-64.941,-38.574,-48.340,-51.270
1683631424.787,-36.133,-25.879,-42.480,-48.828
1683631424.791,-26.367,-18.066,-34.668,-49.316
1683631424.793,-58.105,-30.762,-33.203,-44.434
1683631424.797,-83.496,-42.969,-38.574,-38.574
1683631424.801,-77.148,-47.852,-47.363,-40.039
1683631424.805,-35.645,-30.273,-41.016,-32.715
1683631424.809,-23.438,-21.973,-49.316,-38.086
1683631424.813,-45.410,-21.973,-53.711,-45.898
1683631424.817,-65.430,-35.156,-48.340,-47.363
1683631424.820,-83.984,-57.129,-56.152,-60.059
1683631424.824,-61.523,-55.664,-51.758,-56.641
1683631424.828,-15.137,-37.109,-35.645,-37.109
1683631424.832,-27.832,-28.320,-40.527,-39.551
1683631424.836,-54.199,-32.715,-44.922,-44.922
1683631424.838,-64.453,-41.992,-52.734,-41.016
1683631424.842,-57.617,-53.223,-67.383,-46.387
1683631424.846,-16.113,-34.180,-56.641,-39.551
1683631424.850,-23.926,-13.672,-47.363,-35.156
1683631424.854,-57.129,-31.250,-48.340,-42.480
1683631424.858,-60.059,-43.457,-45.898,-45.410
1683631424.862,-45.410,-39.551,-45.898,-42.480
1683631424.865,-20.508,-37.598,-44.922,-42.969
1683631424.869,-25.879,-41.992,-41.016,-38.086
1683631424.873,-50.293,-48.828,-40.527,-32.715
1683631424.877,-80.078,-58.105,-59.082,-52.734
1683631424.881,-81.055,-64.941,-71.289,-58.594
1683631424.898,-29.785,-44.434,-53.223,-39.551
1683631424.902,-22.461,-32.227,-46.875,-31.738
1683631424.906,-80.566,-53.711,-63.965,-46.387
1683631424.910,-106.445,-59.082,-61.035,-66.895
1683631424.914,-77.148,-55.176,-43.457,-50.781
1683631424.918,-36.621,-39.551,-37.109,-37.109
1683631424.922,-22.461,-22.949,-29.297,-34.180
1683631424.925,-46.387,-38.086,-39.062,-37.109
1683631424.929,-68.848,-44.434,-59.082,-42.480
1683631424.933,-44.922,-44.434,-48.340,-37.598
1683631424.937,-12.695,-46.387,-28.320,-28.809
1683631424.941,-6.836,-44.922,-30.273,-32.227
1683631424.943,-41.992,-47.852,-44.434,-45.898
1683631424.947,-83.984,-54.688,-55.176,-48.340
1683631424.951,-79.102,-54.199,-53.223,-47.852
1683631424.955,-47.363,-36.621,-49.316,-45.898
1683631424.959,-22.461,-35.645,-51.758,-44.434
1683631424.963,-39.551,-48.828,-56.152,-45.898
1683631424.967,-74.707,-54.688,-51.270,-46.387
1683631424.970,-67.871,-48.828,-33.691,-49.805
1683631424.974,-42.480,-45.898,-35.156,-49.316
1683631424.978,-26.855,-46.875,-47.852,-45.898
1683631424.982,-41.504,-49.805,-49.316,-49.316
1683631424.986,-75.195,-49.316,-57.617,-61.523
1683631424.988,-75.684,-37.598,-47.363,-51.270
1683631424.992,-48.340,-46.387,-41.992,-41.016
1683631424.996,-33.203,-45.410,-50.293,-42.969
1683631425.000,-46.387,-37.598,-51.270,-48.340
1683631425.004,-74.707,-58.105,-54.199,-49.316
1683631425.008,-90.820,-62.988,-53.223,-53.711
1683631425.012,-53.711,-48.828,-51.758,-49.805
1683631425.015,-11.719,-42.480,-58.105,-31.250
1683631425.019,-24.414,-35.645,-56.152,-31.250
1683631425.023,-54.688,-42.480,-46.387,-42.969
1683631425.027,-67.871,-50.781,-47.363,-42.969
1683631425.031,-43.945,-37.598,-41.016,-42.969
1683631425.033,-0.977,-30.273,-33.691,-41.504
1683631425.037,-3.906,-25.391,-22.461,-20.020
1683631425.041,-56.641,-41.016,-29.785,-27.832
1683631425.045,-76.660,-47.852,-43.945,-45.898
1683631425.049,-52.246,-32.227,-37.109,-37.598
1683631425.053,-20.508,-26.855,-35.645,-32.715
1683631425.057,-22.949,-28.809,-42.480,-38.086
1683631425.060,-56.641,-40.039,-51.270,-39.062
1683631425.064,-75.195,-59.570,-60.547,-49.805
1683631425.068,-59.570,-62.012,-48.340,-47.852
1683631425.072,-23.438,-43.945,-31.250,-41.016
1683631425.076,-21.973,-42.480,-43.457,-48.828
1683631425.078,-57.617,-39.551,-66.895,-55.664
1683631425.082,-79.102,-39.551,-58.594,-46.875
1683631425.086,-61.523,-44.434,-35.645,-39.551
1683631425.090,-24.414,-28.809,-24.414,-31.738
1683631425.094,-14.648,-32.715,-34.668,-37.598
1683631425.098,-43.457,-46.875,-41.504,-47.363
1683631425.102,-64.941,-55.176,-44.922,-37.598
1683631425.105,-63.477,-68.359,-49.316,-37.109
1683631425.109,-32.227,-47.363,-34.180,-39.062
1683631425.113,-19.043,-33.691,-32.715,-41.504
1683631425.117,-49.316,-52.246,-49.316,-47.363
1683631425.121,-57.129,-41.016,-41.504,-32.227
1683631425.123,-54.688,-32.715,-33.203,-26.367
1683631425.127,-25.391,-27.832,-32.227,-24.902
1683631425.131,1.465,-21.484,-34.180,-25.879
1683631425.135,-20.996,-33.691,-44.922,-30.762
1683631425.139,-62.012,-53.711,-39.551,-33.203
1683631425.143,-72.754,-59.570,-37.109,-48.828
1683631425.147,-41.016,-58.105,-41.504,-48.340
1683631425.150,-20.508,-44.434,-42.480,-41.504
1683631425.154,-33.203,-23.438,-46.875,-43.457
1683631425.158,-58.105,-30.273,-40.527,-42.969
1683631425.162,-64.453,-46.875,-37.109,-44.434
1683631425.166,-47.852,-43.945,-33.203,-44.922
1683631425.123,-54.688,-32.715,-33.203,-26.367
1683631425.127,-25.391,-27.832,-32.227,-24.902
1683631425.131,1.465,-21.484,-34.180,-25.879
1683631425.135,-20.996,-33.691,-44.922,-30.762
1683631425.139,-62.012,-53.711,-39.551,-33.203
1683631425.143,-72.754,-59.570,-37.109,-48.828
1683631425.147,-41.016,-58.105,-41.504,-48.340
1683631425.150,-20.508,-44.434,-42.480,-41.504
1683631425.154,-33.203,-23.438,-46.875,-43.457
1683631425.158,-58.105,-30.273,-40.527,-42.969
1683631425.162,-64.453,-46.875,-37.109,-44.434
1683631425.166,-47.852,-43.945,-33.203,-44.922
1683631425.168,-22.461,-34.668,-26.367,-35.156
1683631425.172,-25.391,-29.297,-28.809,-26.855
1683631425.176,-55.176,-41.016,-37.598,-36.621
1683631425.180,-75.195,-69.824,-47.363,-44.434
1683631425.184,-49.316,-59.570,-45.410,-33.203
1683631425.188,-12.695,-31.250,-43.945,-26.855
1683631425.192,-19.531,-32.715,-54.688,-36.133
1683631425.195,-39.062,-40.527,-53.223,-37.598
1683631425.199,-60.547,-42.969,-48.828,-44.434
1683631425.203,-45.410,-40.039,-42.969,-45.898
1683631425.207,-10.254,-28.809,-31.738,-37.109
1683631425.211,-9.766,-25.391,-33.691,-31.738
1683631425.213,-41.992,-38.574,-33.691,-45.898
1683631425.217,-70.801,-52.246,-34.668,-55.664
1683631425.221,-55.176,-50.781,-33.203,-44.922
1683631425.225,-20.508,-34.180,-25.879,-38.574
1683631425.229,-20.996,-36.621,-44.434,-44.434
1683631425.233,-45.410,-37.109,-49.805,-44.922
1683631425.237,-54.688,-45.898,-52.246,-41.504
1683631425.240,-43.945,-61.523,-51.270,-37.109
1683631425.244,-17.578,-47.852,-37.598,-27.832
1683631425.248,-17.578,-34.668,-37.109,-29.297
1683631425.252,-44.922,-36.621,-42.969,-34.668
1683631425.256,-64.941,-46.387,-44.922,-36.621
1683631425.273,-61.523,-43.945,-35.156,-35.645
1683631425.277,-34.180,-39.062,-30.762,-38.086
1683631425.281,-13.672,-38.086,-33.691,-34.668
1683631425.285,-19.531,-34.180,-28.809,-25.879
1683631425.289,-56.641,-45.898,-44.434,-36.133
1683631425.293,-74.707,-49.805,-58.105,-49.316
1683631425.297,-44.922,-42.480,-45.410,-43.457
1683631425.300,-19.043,-42.480,-38.574,-42.480
1683631425.304,-45.410,-55.664,-46.387,-47.363
1683631425.308,-80.078,-72.754,-48.340,-54.199
1683631425.312,-71.777,-63.965,-48.340,-55.176
1683631425.316,-51.270,-34.180,-52.246,-41.992
1683631425.273,-61.523,-43.945,-35.156,-35.645
1683631425.277,-34.180,-39.062,-30.762,-38.086
1683631425.281,-13.672,-38.086,-33.691,-34.668
1683631425.285,-19.531,-34.180,-28.809,-25.879
1683631425.289,-56.641,-45.898,-44.434,-36.133
1683631425.293,-74.707,-49.805,-58.105,-49.316
1683631425.297,-44.922,-42.480,-45.410,-43.457
1683631425.300,-19.043,-42.480,-38.574,-42.480
1683631425.304,-45.410,-55.664,-46.387,-47.363
1683631425.308,-80.078,-72.754,-48.340,-54.199
1683631425.312,-71.777,-63.965,-48.340,-55.176
1683631425.316,-51.270,-34.180,-52.246,-41.992
1683631425.318,-25.391,-22.949,-37.598,-28.320
1683631425.322,-32.227,-28.809,-29.297,-39.551
1683631425.326,-62.988,-51.758,-37.109,-52.246
1683631425.330,-65.430,-61.523,-51.758,-51.270
1683631425.334,-38.574,-44.922,-55.176,-52.734
1683631425.338,-10.742,-30.762,-40.039,-39.062
1683631425.342,-10.742,-23.438,-27.344,-30.273
1683631425.345,-22.949,-29.297,-17.090,-33.203
1683631425.349,-34.668,-48.340,-33.691,-42.480
1683631425.353,-12.695,-41.016,-37.109,-29.785
1683631425.357,14.160,-27.832,-27.832,-9.766
1683631425.361,-23.438,-37.109,-41.992,-36.621
1683631425.363,-67.383,-35.156,-44.434,-45.898
1683631425.367,-76.660,-48.828,-41.992,-39.062
1683631425.371,-50.293,-59.570,-46.875,-38.574
1683631425.375,-13.184,-31.250,-45.410,-15.137
1683631425.379,-23.926,-30.762,-41.992,-18.066
1683631425.383,-60.059,-41.992,-37.598,-41.992
1683631425.387,-77.637,-47.363,-43.457,-52.734
1683631425.390,-62.988,-61.035,-31.738,-49.805
1683631425.394,-24.902,-54.199,-18.066,-38.086
1683631425.398,-21.973,-36.621,-39.062,-37.109
1683631425.402,-58.594,-37.598,-48.828,-40.039
1683631425.406,-76.172,-62.012,-38.574,-42.480
1683631425.408,-64.941,-62.988,-39.062,-39.551
1683631425.412,-28.320,-31.250,-44.434,-28.809
1683631425.416,-3.906,-18.555,-46.387,-23.438
1683631425.420,-33.203,-26.367,-50.293,-34.180
1683631425.424,-54.688,-38.086,-47.363,-36.133
1683631425.428,-41.992,-40.039,-36.621,-32.715
1683631425.432,-16.602,-44.434,-31.250,-34.180
1683631425.435,-2.441,-40.527,-41.992,-34.180
1683631425.439,-31.738,-35.645,-54.688,-36.133
1683631425.443,-61.523,-49.316,-41.992,-41.504
1683631425.447,-57.129,-62.500,-31.738,-48.340
1683631425.451,-23.438,-44.922,-28.809,-35.645
1683631425.453,-14.648,-34.180,-45.410,-30.273
1683631425.457,-34.180,-40.039,-49.805,-34.180
1683631425.461,-62.012,-55.664,-38.574,-41.504
1683631425.465,-66.406,-51.758,-30.273,-43.945
1683631425.469,-36.621,-27.344,-21.973,-40.039
1683631425.473,-22.461,-35.645,-29.785,-43.945
1683631425.477,-44.922,-53.711,-45.898,-44.434
1683631425.480,-63.477,-53.223,-51.758,-39.062
1683631425.484,-60.547,-41.992,-42.969,-34.668
1683631425.488,-29.297,-30.273,-29.297,-27.344
1683631425.492,-7.812,-28.320,-35.156,-30.762
1683631425.496,-35.645,-41.504,-48.828,-44.922
1683631425.498,-60.059,-44.434,-37.109,-39.551
1683631425.502,-62.500,-47.363,-45.410,-35.645
1683631425.506,-32.715,-46.387,-49.316,-38.086
1683631425.510,10.742,-35.645,-27.832,-23.438
1683631425.514,-8.301,-40.039,-41.504,-25.391
1683631425.518,-38.086,-41.504,-57.129,-40.527
1683631425.522,-43.457,-45.898,-46.387,-44.922
1683631425.525,-41.016,-51.758,-38.086,-42.480
1683631425.529,-4.883,-37.109,-31.738,-26.855
1683631425.533,-0.488,-20.996,-37.109,-26.367
1683631425.537,-43.457,-41.016,-47.363,-41.016
1683631425.541,-66.895,-54.688,-55.664,-47.363
1683631425.543,-54.688,-41.504,-57.129,-50.293
1683631425.547,-24.414,-40.039,-35.156,-45.410
1683631425.551,-27.344,-40.527,-33.691,-37.109
1683631425.555,-57.129,-36.133,-37.598,-45.898
1683631425.559,-81.543,-46.387,-40.527,-59.082
1683631425.563,-72.266,-57.129,-56.641,-48.340
1683631425.567,-31.250,-47.852,-46.387,-35.645
1683631425.570,-31.738,-43.457,-43.457,-37.109
1683631425.574,-72.266,-53.711,-48.340,-49.805
1683631425.578,-84.473,-52.734,-38.086,-54.688
1683631425.582,-63.965,-45.898,-42.480,-50.293
1683631425.586,-40.527,-41.504,-51.270,-42.969
1683631425.588,-25.391,-32.227,-48.828,-34.180
1683631425.592,-41.992,-35.156,-48.828,-40.039
1683631425.596,-58.594,-42.480,-46.875,-38.086
1683631425.600,-46.875,-37.109,-47.852,-32.715
1683631425.604,-28.809,-40.527,-41.992,-36.133
1683631425.608,-20.020,-45.410,-26.855,-41.504
1683631425.612,-37.598,-52.734,-35.156,-44.434
1683631425.615,-54.199,-56.641,-42.480,-45.410
1683631425.619,-45.898,-47.363,-36.133,-40.039
1683631425.623,-31.738,-44.434,-46.387,-35.156
1683631425.627,-8.301,-36.133,-48.340,-29.785
1683631425.631,-32.715,-32.715,-41.504,-34.180
1683631425.648,-80.078,-45.898,-47.363,-48.828
1683631425.652,-77.148,-47.363,-41.504,-45.410
1683631425.656,-43.457,-33.203,-39.551,-41.504
1683631425.660,-18.066,-19.531,-36.133,-41.504
1683631425.664,-30.273,-23.438,-32.227,-46.387
1683631425.668,-64.453,-36.621,-42.969,-47.852
1683631425.672,-74.707,-44.434,-48.828,-49.316
1683631425.675,-51.758,-47.363,-39.551,-42.969
1683631425.679,-25.879,-43.457,-36.621,-35.645
1683631425.683,-24.414,-41.504,-48.828,-37.598
1683631425.687,-61.523,-53.711,-59.082,-46.387
1683631425.691,-92.285,-60.059,-57.129,-41.504
1683631425.693,-63.477,-49.316,-45.898,-25.391
1683631425.697,-19.043,-39.551,-34.180,-18.555
1683631425.701,-18.555,-37.598,-37.598,-25.879
1683631425.705,-48.828,-41.992,-41.504,-33.691
1683631425.709,-62.012,-40.527,-41.992,-36.621
1683631425.713,-58.105,-30.273,-47.852,-41.992
1683631425.717,-35.645,-23.926,-47.852,-38.086
1683631425.720,-31.738,-28.809,-42.480,-38.574
1683631425.724,-61.523,-49.805,-39.062,-42.480
1683631425.728,-65.430,-54.199,-40.527,-46.875
1683631425.732,-53.223,-36.133,-39.062,-38.574
1683631425.736,-20.996,-28.809,-29.297,-23.926
1683631425.738,0.488,-34.668,-30.762,-23.926
1683631425.742,-47.852,-45.410,-44.434,-35.645
1683631425.746,-91.309,-52.734,-59.082,-48.340
1683631425.750,-93.262,-61.523,-64.453,-60.059
1683631425.754,-55.664,-41.992,-43.457,-43.457
1683631425.758,-41.992,-25.879,-42.969,-40.039
1683631425.762,-69.336,-30.273,-49.316,-51.270
1683631425.765,-84.961,-39.062,-39.551,-47.363
1683631425.769,-84.473,-42.969,-32.227,-46.387
1683631425.773,-51.758,-28.320,-25.879,-31.738
1683631425.777,-38.574,-34.668,-47.852,-27.344
1683631425.781,-66.895,-50.781,-72.266,-42.969
1683631425.783,-85.938,-55.664,-64.941,-50.781
1683631425.787,-67.871,-57.617,-44.434,-45.410
1683631425.791,-38.574,-56.641,-37.109,-33.691
1683631425.795,-24.414,-38.086,-41.992,-34.668
1683631425.799,-36.133,-28.320,-45.410,-33.203
1683631425.803,-64.453,-37.109,-57.617,-38.086
1683631425.807,-73.730,-41.504,-66.406,-52.734
1683631425.810,-39.551,-40.527,-57.617,-42.480
1683631425.814,-12.695,-35.645,-35.156,-36.621
1683631425.818,-24.414,-33.691,-25.391,-34.180
1683631425.822,-68.848,-48.828,-40.039,-49.805
1683631425.826,-87.402,-56.641,-55.176,-57.617
1683632313.322,-114.258,-55.664,-57.129,-112.793
1683632313.326,-125.000,-44.922,-43.945,-107.422
1683632313.330,-26.367,-17.090,-3.418,-2.441
1683632313.334,55.176,4.395,7.324,65.918
1683632313.338,14.648,-16.113,-20.508,8.301
1683632313.342,-94.238,-46.387,-47.363,-97.168
1683632313.346,-133.301,-49.805,-41.016,-110.352
1683632313.349,-52.246,-32.227,-9.277,-15.625
1683632313.353,42.969,-22.461,4.395,58.105
1683632313.357,19.043,-42.480,-32.227,13.184
1683632313.361,-86.426,-58.594,-56.641,-88.379
1683632313.365,-118.652,-42.480,-45.898,-112.305
1683632313.367,-47.852,-16.602,-26.367,-36.133
1683632313.371,46.875,-2.441,-7.324,46.387
1683632313.375,49.805,-17.090,-20.508,29.785
1683632313.379,-47.852,-49.316,-53.223,-71.289
1683632313.383,-121.582,-57.129,-57.617,-117.676
1683632313.387,-62.988,-22.461,-25.879,-42.969
1683632313.391,47.852,-2.930,2.441,57.617
1683632313.394,51.270,-31.250,-4.395,42.480
1683632313.398,-45.898,-57.617,-43.457,-61.035
1683632313.402,-118.164,-57.617,-53.711,-116.211
1683632313.406,-82.031,-40.527,-27.344,-62.012
1683632313.410,23.926,-20.508,-5.371,39.062
1683632313.412,57.617,-22.461,-16.113,43.457
1683632313.416,-28.320,-46.875,-44.922,-55.176
1683632313.420,-107.422,-43.945,-50.293,-110.352
1683632313.424,-80.078,-40.039,-30.762,-59.082
1683632313.428,13.184,-36.133,-5.371,30.273
1683632313.432,55.176,-13.184,-6.348,58.105
1683632313.436,-18.555,-37.598,-36.133,-27.832
1683632313.439,-114.746,-68.359,-53.711,-116.699
1683632313.443,-102.539,-51.758,-35.156,-83.984
1683632313.447,0.000,-21.973,-6.348,22.949
1683632313.451,50.781,-15.137,-1.953,56.641
1683632313.455,-13.184,-40.527,-28.320,-25.391
1683632313.457,-102.539,-56.152,-53.711,-113.770
1683632313.461,-108.398,-47.852,-35.156,-96.680
1683632313.465,-11.719,-24.902,-0.977,11.230
1683632313.469,63.965,-15.137,0.000,62.500
1683632313.473,6.836,-36.133,-30.762,-14.648
1683632313.477,-100.586,-53.223,-57.129,-113.281
1683632313.481,-114.746,-43.457,-45.410,-108.887
1683632313.484,-27.344,-32.715,-22.949,-16.602
1683632313.488,54.199,-35.645,-16.602,42.480
1683632313.492,20.508,-40.527,-36.133,-4.883
1683632313.496,-83.984,-53.711,-58.105,-99.609
1683632313.500,-112.793,-62.012,-53.711,-111.328
1683632313.502,-22.461,-37.598,-20.508,-12.695
1683632313.506,66.406,-22.461,-1.953,62.012
1683632313.510,34.668,-33.203,-19.043,19.531
1683632313.514,-72.266,-53.223,-46.875,-83.008
1683632313.518,-117.188,-52.734,-41.504,-115.723
1683632313.522,-45.898,-23.926,-13.184,-28.809
1683632313.526,54.199,-5.371,4.883,61.035
1683632313.529,43.457,-28.809,-17.090,27.832
1683632313.533,-61.523,-59.082,-49.805,-74.707
1683632313.537,-115.723,-63.965,-56.641,-112.793
1683632313.541,-62.012,-41.992,-33.203,-46.875
1683632313.545,40.039,-18.066,-2.930,46.387
1683632313.547,45.410,-32.227,-18.555,34.180
1683632313.551,-55.176,-62.500,-51.758,-62.012
1683632313.555,-121.094,-62.012,-50.293,-108.398
1683632313.559,-75.684,-43.945,-27.344,-49.805
1683632313.563,23.926,-24.414,-2.930,45.410
1683632313.567,52.246,-16.602,-6.836,51.758
1683632313.571,-34.668,-33.691,-38.574,-39.062
1683632313.574,-124.023,-61.035,-57.129,-112.793
1683632313.578,-89.355,-49.316,-35.156,-63.477
1683632313.582,22.949,-13.672,-2.441,46.387
1683632313.586,60.547,-13.184,-4.395,64.453
1683632313.590,-25.879,-58.594,-40.039,-31.738
1683632313.607,-118.652,-62.500,-56.641,-107.910
1683632313.611,-100.098,-36.621,-36.133,-73.730
1683632313.615,4.395,-16.113,-8.789,25.391
1683632313.619,55.664,-11.719,-8.301,59.570
1683632313.623,-13.184,-28.809,-37.598,-24.902
1683632313.627,-109.863,-43.945,-58.594,-111.328
1683632313.631,-111.328,-48.340,-40.527,-93.262
1683632313.634,-13.672,-29.297,-7.812,6.348
1683632313.638,46.875,-19.043,-2.441,54.199
1683632313.642,-4.883,-43.457,-36.133,-10.742
1683632313.646,-103.027,-62.012,-53.711,-108.398
1683632313.650,-127.441,-51.270,-39.062,-105.469
1683632313.652,-29.785,-21.973,-11.230,2.441
1683632313.656,56.641,-23.926,-1.465,60.547
1683632313.660,9.277,-44.434,-33.203,-5.859
1683632313.664,-94.238,-44.922,-61.035,-100.586
1683632313.668,-118.652,-45.410,-43.945,-96.191
1683632313.672,-36.133,-22.949,-10.254,-1.465
1683632313.676,49.316,-7.324,0.977,66.895
1683632313.679,20.020,-35.645,-22.461,17.090
1683632313.683,-88.379,-59.570,-54.199,-91.797
1683632313.687,-134.277,-53.711,-55.176,-119.629
1683632313.691,-56.641,-24.902,-28.320,-29.785
1683632313.695,37.109,-20.020,-12.695,50.781
1683632313.697,22.949,-36.133,-24.902,16.113
1683632313.701,-75.684,-56.641,-56.641,-87.402
1683632313.705,-129.883,-50.293,-57.129,-122.559
1683632313.709,-71.777,-38.574,-24.902,-46.875
1683632313.713,27.832,-24.414,-3.418,45.898
1683632313.717,33.691,-22.949,-19.531,31.738
1683632313.721,-64.941,-63.965,-57.617,-74.707
1683632313.724,-133.301,-68.359,-65.430,-122.559
1683632313.728,-79.590,-39.062,-34.180,-54.688
1683632313.732,21.973,-23.926,-8.789,41.016
1683632313.736,37.598,-22.949,-22.949,41.992
1683632313.740,-46.387,-40.039,-55.176,-54.688
1683632313.742,-124.512,-52.734,-62.012,-125.488
1683632313.746,-93.750,-43.457,-34.180,-72.754
1683632313.750,11.230,-19.043,-1.465,38.574
1683632313.754,45.898,-10.254,-11.230,58.105
1683632313.758,-38.086,-33.691,-40.527,-33.691
1683632313.762,-129.395,-55.664,-54.688,-118.164
1683632313.766,-114.258,-48.828,-39.062,-85.449
1683632313.769,-9.766,-31.250,-11.719,23.438
1683632313.773,46.875,-21.973,-7.812,58.594
1683632313.777,-23.926,-44.922,-33.691,-23.438
1683632313.781,-123.047,-66.895,-56.152,-114.258
1683632313.785,-117.676,-46.875,-35.645,-89.844
1683632313.787,-22.949,-25.391,-2.930,5.371
1683632313.791,40.527,-25.391,-4.395,48.340
1683632313.795,-11.719,-41.016,-37.598,-22.949
1683632313.799,-117.188,-61.035,-59.570,-126.953
1683632313.803,-126.465,-56.641,-43.457,-125.000
1683632313.807,-18.555,-25.391,-10.254,-12.695
1683632313.811,55.176,-14.160,1.465,55.176
1683632313.814,9.766,-48.340,-23.926,-9.277
1683632313.818,-97.168,-77.637,-53.711,-111.816
1683632313.822,-123.047,-68.359,-42.969,-114.746
1683632313.826,-37.598,-38.086,-11.719,-18.066
1683632313.830,41.016,-22.949,-8.301,55.664
1683632313.832,10.742,-43.945,-27.344,7.812
1683632313.836,-91.797,-71.289,-44.434,-96.680
1683632313.840,-127.441,-56.152,-46.387,-114.746
1683632313.844,-51.758,-21.973,-20.020,-26.855
1683632313.848,41.992,-12.207,-1.953,49.316
1683632313.852,33.203,-31.250,-26.367,23.926
1683632313.856,-73.730,-55.664,-56.152,-69.824
1683632313.859,-134.766,-71.777,-54.199,-114.258
1683632313.863,-68.359,-59.082,-22.949,-46.875
1683632313.867,39.551,-12.207,2.441,41.992
1683632313.871,44.434,-9.766,-14.160,30.762
1683632313.875,-58.105,-56.152,-45.898,-74.219
1683632313.877,-127.441,-63.477,-54.199,-128.418
1683632313.881,-87.402,-49.805,-30.273,-62.988
1683632313.885,11.230,-28.809,-2.441,39.062
1683632313.889,41.992,-21.484,-14.160,41.504
1683632313.893,-45.410,-40.039,-44.922,-61.035
1683632313.897,-132.324,-36.133,-53.711,-124.512
1683632313.901,-104.004,-25.391,-29.297,-77.148
1683632313.904,3.906,-29.785,-5.371,31.250
1683632313.908,43.457,-26.367,-10.742,48.340
1683632313.912,-47.363,-52.734,-47.363,-54.688
1683632313.916,-142.090,-60.547,-60.547,-126.953
1683632313.920,-107.422,-28.809,-33.691,-83.496
1683632313.922,4.883,-12.695,-9.277,20.996
1683632313.926,42.480,-35.645,-16.113,48.828
1683632313.930,-33.203,-51.758,-42.969,-29.785
1683632313.934,-128.906,-52.734,-61.523,-111.816
1683632313.938,-123.047,-41.504,-46.875,-86.426
1683632313.942,-14.648,-9.766,-9.766,22.461
1683632313.946,52.246,-5.371,-5.859,67.383
1683632313.949,-9.277,-46.387,-41.016,-11.230
1683632313.953,-112.793,-67.871,-64.453,-114.258
1683632313.957,-124.512,-50.293,-50.781,-111.816
1683632313.961,-32.715,-20.996,-20.508,-9.277
1683632313.965,40.039,-16.113,-9.277,55.176
1683632313.982,-4.395,-40.527,-30.762,-5.371
1683632313.986,-107.910,-61.035,-54.199,-101.562
1683632313.990,-143.555,-52.246,-46.875,-109.375
1683632313.994,-59.570,-37.109,-16.113,-18.555
1683632313.998,30.762,-31.250,-5.859,56.641
1683632314.002,-6.836,-34.180,-31.250,3.906
1683632314.006,-110.352,-55.664,-61.523,-102.539
1683632314.009,-144.531,-66.895,-58.594,-129.395
1683632314.013,-71.289,-39.551,-21.484,-48.340
1683632314.017,28.320,-22.461,-15.137,38.574
1683632314.021,25.391,-34.180,-37.598,11.719
1683632314.025,-73.730,-59.082,-60.059,-86.914
1683632314.027,-135.254,-56.152,-58.594,-120.117
1683632314.031,-77.148,-33.691,-27.832,-38.574
1683632314.035,20.020,-20.996,-8.301,54.199
1683632314.039,16.602,-34.180,-22.461,31.738
1683632314.043,-88.867,-67.871,-52.246,-75.684
1683632314.047,-157.715,-67.871,-57.129,-124.512
1683632314.051,-101.562,-47.852,-28.809,-54.199
1683632314.054,8.789,-39.551,-5.859,40.039
1683632314.058,30.762,-45.898,-19.043,33.203
1683632314.062,-60.547,-64.941,-51.758,-74.219
1683632314.066,-140.625,-64.941,-57.617,-135.254
1683632314.070,-104.492,-52.246,-31.250,-83.496
1683632314.072,0.977,-31.738,-13.672,15.137
1683632314.076,32.715,-34.668,-26.367,30.273
1683632314.080,-51.270,-74.707,-52.734,-60.059
1683632314.084,-135.254,-75.684,-62.500,-126.465
1683632314.088,-103.516,-47.363,-37.598,-77.637
1683632314.092,8.789,-20.996,-9.766,29.785
1683632314.096,54.688,-20.996,-16.602,53.223
1683632314.099,-16.113,-44.434,-43.457,-30.273
1683632314.103,-104.004,-69.824,-62.500,-109.375
1683632314.107,-102.051,-62.988,-52.734,-83.984
1683632314.111,-8.301,-38.086,-21.973,19.043
1683632314.115,48.828,-34.668,-16.602,61.035
1683632314.072,0.977,-31.738,-13.672,15.137
1683632314.076,32.715,-34.668,-26.367,30.273
1683632314.080,-51.270,-74.707,-52.734,-60.059
1683632314.084,-135.254,-75.684,-62.500,-126.465
1683632314.088,-103.516,-47.363,-37.598,-77.637
1683632314.092,8.789,-20.996,-9.766,29.785
1683632314.096,54.688,-20.996,-16.602,53.223
1683632314.099,-16.113,-44.434,-43.457,-30.273
1683632314.103,-104.004,-69.824,-62.500,-109.375
1683632314.107,-102.051,-62.988,-52.734,-83.984
1683632314.111,-8.301,-38.086,-21.973,19.043
1683632314.115,48.828,-34.668,-16.602,61.035
1683632314.117,-16.113,-52.246,-48.340,-13.672
1683632314.121,-112.793,-70.312,-68.359,-106.445
1683632314.125,-125.488,-63.477,-52.246,-102.539
1683632314.129,-27.344,-37.598,-31.738,-3.906
1683632314.133,52.734,-17.578,-25.879,56.152
1683632314.137,-4.395,-48.340,-46.875,-14.160
1683632314.141,-110.840,-57.617,-69.824,-112.305
1683632314.144,-128.906,-51.270,-60.059,-109.863
1683632314.148,-42.480,-46.387,-24.902,-17.578
1683632314.152,40.039,-21.973,-4.395,53.223
1683632314.156,13.672,-21.973,-25.879,7.812
1683632314.160,-94.238,-59.570,-60.547,-103.027
1683632314.162,-139.648,-66.895,-52.734,-124.023
1683632314.166,-62.988,-47.363,-23.926,-32.715
1683632314.170,23.438,-32.227,-11.230,47.852
1683632314.174,15.137,-34.668,-25.391,22.461
1683632314.178,-79.102,-51.270,-52.734,-84.473
1683632314.182,-129.395,-46.875,-50.781,-116.211
1683632314.186,-56.152,-21.484,-17.578,-30.273
1683632314.189,39.551,-14.160,-3.906,58.105
1683632314.193,37.109,-34.180,-23.438,37.109
1683632314.197,-66.406,-56.152,-54.199,-71.289
1683632314.201,-135.742,-57.617,-55.664,-122.559
1683632314.205,-72.266,-28.809,-23.926,-51.270
1683632314.207,40.039,-0.977,0.488,46.387
1683632314.211,47.852,-27.832,-17.090,36.133
1683632314.215,-52.246,-55.664,-47.363,-65.430
1683632314.219,-125.488,-59.082,-51.758,-130.859
1683632314.223,-84.473,-36.621,-29.785,-80.078
1683632314.227,28.809,9.277,-1.465,23.926
1683632314.231,65.430,5.859,-3.906,40.527
1683632314.234,-25.391,-36.621,-32.227,-56.641
1683632314.238,-117.676,-47.363,-46.875,-131.836
1683632314.242,-90.332,-42.480,-32.715,-88.867
1683632314.246,12.207,-12.207,-8.789,20.020
1683632314.250,56.641,-12.695,-12.695,47.363
1683632314.252,-20.020,-55.176,-39.551,-41.016
1683632314.256,-112.305,-62.012,-50.781,-115.723
1683632314.260,-93.262,-27.832,-25.391,-82.031
1683632314.264,5.859,-15.625,-0.977,14.160
1683632314.268,57.129,-31.738,-15.137,44.434
1683632314.272,-0.488,-36.133,-42.480,-26.855
1683632314.276,-100.586,-68.848,-61.523,-123.047
1683632314.279,-120.117,-77.148,-56.152,-116.699
1683632314.283,-28.320,-39.551,-22.949,-7.324
1683632314.287,45.410,-26.855,-11.719,53.711
1683632314.291,3.418,-41.016,-38.574,-16.602
1683632314.295,-98.145,-64.453,-59.082,-117.188
1683632314.297,-117.676,-56.152,-54.688,-110.352
1683632314.301,-25.879,-23.926,-24.902,-12.207
1683632314.305,62.500,-12.207,-7.812,50.781
1683632314.309,26.855,-36.133,-28.809,-1.465
1683632314.313,-82.520,-59.570,-54.688,-106.934
1683632314.317,-112.793,-48.340,-50.293,-118.652
1683632314.321,-34.668,-19.531,-20.020,-24.902
1683632314.324,48.340,-24.902,-5.371,48.828
1683632314.328,31.250,-36.621,-31.250,12.695
1683632314.332,-71.777,-55.664,-58.594,-87.402
1683632314.336,-125.977,-61.035,-49.316,-121.582
1683632314.340,-60.059,-41.016,-20.020,-37.598
1683632314.357,34.668,-21.973,-4.883,52.734
1683632314.361,22.949,-34.668,-27.344,28.809
1683632314.365,-77.637,-47.363,-54.199,-74.707
1683632314.369,-128.418,-50.293,-57.129,-116.699
1683632314.373,-64.941,-37.109,-24.414,-39.062
1683632314.377,34.180,-15.137,1.953,57.129
1683632314.381,41.992,-26.367,-18.066,42.969
1683632314.384,-54.688,-53.711,-52.734,-63.477
1683632314.388,-128.906,-58.105,-61.035,-115.723
1683632314.392,-80.078,-40.527,-35.645,-56.641
1683632314.396,21.973,-18.555,-6.348,35.645
1683632314.400,44.434,-18.066,-13.672,37.109
1683632314.402,-37.109,-37.598,-52.246,-60.547
1683632314.406,-118.652,-53.223,-66.406,-131.836
1683632314.410,-98.633,-35.645,-38.574,-91.309
1683632314.414,0.488,-14.648,-7.812,4.883
1683632314.418,54.199,-15.625,-17.090,37.109
1683632314.422,-21.484,-32.227,-49.805,-48.828
1683632314.426,-133.301,-62.500,-74.219,-145.508
1683632314.429,-129.395,-59.570,-60.059,-118.164
1683632314.433,-34.180,-33.203,-29.297,-7.324
1683632314.437,25.391,-30.762,-29.785,34.668
1683632314.441,-28.809,-50.293,-59.570,-42.969
1683632314.445,-125.488,-70.312,-80.078,-133.301
1683632314.447,-126.953,-56.641,-62.012,-111.816
1683632314.451,-20.508,-27.344,-25.391,-10.742
1683632314.455,52.246,-18.066,-11.230,40.527
1683632314.459,-3.418,-35.645,-36.133,-21.484
1683632314.463,-108.887,-51.270,-55.664,-118.652
1683632314.467,-124.023,-45.410,-47.363,-114.258
1683632314.471,-29.297,-32.227,-21.973,-15.625
1683632314.474,53.223,-22.949,-9.277,53.223
1683632314.478,11.719,-37.598,-33.691,2.930
1683632314.482,-96.191,-65.430,-63.965,-107.422
1683632314.486,-119.141,-54.688,-50.781,-116.699
1683632314.490,-41.504,-24.902,-20.996,-15.625
1683632314.492,47.852,-10.254,-7.324,56.641
1683632314.496,38.086,-40.039,-27.344,13.184
1683632314.500,-62.988,-64.453,-45.898,-88.379
1683632314.504,-115.723,-51.270,-35.156,-113.770
1683632314.508,-53.223,-31.250,-16.113,-28.320
1683632314.512,37.109,-21.484,-1.465,52.246
1683632314.516,29.785,-31.250,-19.043,22.461
1683632314.519,-69.824,-61.035,-50.293,-83.496
1683632314.523,-129.395,-75.684,-54.688,-127.930
1683632314.527,-70.801,-41.992,-21.484,-49.805
1683632314.531,32.227,-3.906,-0.488,42.480
1683632314.535,41.992,-15.137,-16.113,32.715
1683632314.537,-47.852,-45.410,-44.434,-69.336
1683632314.541,-128.418,-59.570,-60.059,-127.930
1683632314.545,-89.844,-29.785,-25.391,-61.523
1683632314.549,20.996,-13.672,1.465,35.156
1683632314.553,44.922,-27.344,-14.648,34.668
1683632314.557,-32.227,-25.391,-37.109,-46.875
1683632314.561,-100.098,-36.621,-47.852,-110.352
1683632314.564,-79.590,-38.574,-37.109,-76.172
1683632314.568,24.414,-17.578,-15.137,23.438
1683632314.572,60.547,-18.066,-14.648,49.805
1683632314.576,-18.555,-34.180,-42.480,-28.320
1683632314.580,-104.980,-41.992,-61.035,-105.957
1683632314.582,-92.285,-35.156,-32.227,-79.590
1683632314.586,11.719,-14.648,-3.418,21.973
1683632314.590,64.453,-0.488,-10.254,56.641
1683632314.594,-0.488,-21.973,-34.180,-25.391
1683632314.598,-102.051,-41.504,-54.688,-120.605
1683632314.602,-114.258,-22.461,-39.062,-99.609
1683632314.606,-21.484,-3.418,-10.742,5.371
1683632314.609,41.016,-13.672,-13.672,47.363
1683632314.613,-18.066,-46.875,-39.551,-27.344
1683632314.617,-124.023,-63.965,-57.617,-123.535
1683632314.621,-133.789,-38.574,-38.574,-113.281
1683632314.625,-35.156,-27.344,-15.137,-2.930
1683632314.627,34.180,-24.414,-10.742,56.641
1683632314.631,-6.348,-36.621,-33.691,-1.465
1683632314.635,-98.145,-54.199,-58.105,-102.051
1683632314.639,-122.559,-52.246,-48.340,-110.352
1683632314.643,-37.598,-20.020,-14.160,-10.742
1683632314.647,52.246,8.301,2.441,64.941
1683632314.651,26.855,-19.043,-21.484,24.902
1683632314.654,-83.008,-59.570,-54.199,-79.102
1683632314.658,-128.906,-53.223,-48.828,-102.051
1683632314.662,-57.617,-39.551,-15.625,-21.973
1683632314.666,29.297,-29.297,0.000,59.082
1683632314.670,16.602,-31.250,-27.344,30.273
1683632314.672,-86.426,-48.340,-54.199,-83.496
1683632314.676,-140.625,-47.852,-46.875,-121.094
1683632314.680,-72.266,-17.578,-21.973,-41.992
1683632314.684,26.855,-4.883,-0.977,47.852
1683632314.688,20.996,-34.180,-20.996,25.391
1683632314.692,-74.707,-47.363,-53.711,-79.590
1683632314.696,-147.949,-53.223,-53.711,-129.395
1683632314.699,-109.863,-55.176,-32.227,-68.848
1683632314.703,0.000,-25.391,-10.742,26.367
1683632314.707,34.180,-19.531,-12.695,32.227
1683632314.711,-50.781,-39.551,-39.062,-59.570
1683632314.715,-139.160,-56.641,-53.223,-122.070
1683632314.732,-112.793,-51.758,-35.156,-73.730
1683632314.736,-6.836,-35.156,-8.789,28.320
1683632314.740,29.785,-31.738,-8.789,51.758
1683632314.744,-39.551,-41.504,-44.434,-32.715
1683632314.748,-123.535,-59.570,-59.082,-103.516
1683632314.752,-110.840,-50.293,-36.133,-64.941
1683632314.756,-10.742,-24.414,-19.043,43.457
1683632314.759,35.156,-35.645,-23.926,68.359
1683632314.763,-29.785,-60.059,-52.246,-26.367
1683632314.767,-118.164,-71.289,-65.430,-113.770
1683632314.771,-123.047,-51.758,-46.387,-93.750
1683632314.775,-22.949,-18.066,-18.066,-0.488
1683632314.777,46.875,-10.254,-17.090,39.551
1683632314.781,-11.230,-41.992,-53.711,-34.180
1683632314.785,-110.352,-52.734,-71.289,-132.324
1683632314.789,-124.023,-39.062,-51.270,-126.953
1683632314.793,-35.645,-17.578,-19.043,-26.367
1683632314.797,30.762,-15.625,-11.230,35.645
1683632314.801,-6.348,-29.785,-37.598,-7.324
1683632314.804,-107.910,-49.805,-63.477,-101.562
1683632314.808,-147.949,-67.871,-54.688,-111.816
1683632314.812,-62.988,-53.223,-25.879,-18.555
1683632314.816,21.973,-27.344,-13.184,55.664
1683632314.820,-3.906,-49.805,-34.668,15.137
1683632314.822,-103.516,-79.590,-62.988,-99.121
1683632314.826,-141.113,-76.172,-60.059,-125.000
1683632314.830,-63.965,-36.621,-23.926,-33.691
1683632314.834,30.762,-10.742,-9.277,47.363
1683632314.838,15.137,-23.926,-33.691,8.301
1683632314.842,-88.379,-38.086,-65.918,-96.680
1683632314.846,-147.461,-45.410,-76.172,-141.602
1683632314.849,-89.355,-45.898,-47.852,-88.867
1683632314.853,14.160,-22.949,-23.926,-4.883
1683632314.857,20.020,-25.391,-42.480,-20.020
1683632314.861,-86.426,-57.129,-76.660,-125.488
1683632314.865,-149.414,-52.734,-74.219,-171.875
1683632314.867,-93.750,-31.250,-41.992,-96.680
1683632314.871,6.836,-19.043,-13.184,13.184
1683632314.875,30.762,-19.043,-15.625,25.391
1683632314.879,-56.152,-41.016,-48.340,-65.918
1683632314.883,-131.836,-46.875,-56.641,-126.465
1683632314.887,-91.797,-32.227,-30.762,-65.918
1683632314.891,3.418,-23.926,-5.859,42.480
1683632314.894,24.414,-37.598,-10.254,53.223
1683632314.898,-63.965,-66.406,-41.016,-47.363
1683632314.902,-156.738,-78.613,-58.594,-120.117
1683632314.906,-135.742,-56.641,-36.621,-79.590
1683632314.910,-26.367,-35.156,-8.301,30.273
1683632314.912,25.391,-38.574,-10.742,62.012
1683632314.916,-41.504,-58.594,-44.434,-32.227
1683632314.920,-132.324,-81.543,-74.707,-120.117
1683632314.924,-131.348,-59.082,-58.105,-101.562
1683632314.928,-33.203,-28.320,-29.785,-3.418
1683632314.932,39.062,-21.484,-31.250,41.504
1683632314.936,-10.254,-41.504,-62.012,-31.738
1683632314.939,-117.676,-75.684,-89.355,-134.277
1683632314.943,-135.254,-71.289,-78.125,-139.648
1683632314.947,-41.504,-40.039,-42.480,-41.016
1683632314.951,29.785,-29.785,-34.180,14.648
1683632314.955,-13.184,-47.852,-59.570,-54.688
1683632314.957,-112.305,-65.430,-86.426,-152.832
1683632314.961,-136.230,-60.059,-73.242,-148.926
1683632314.965,-44.434,-32.715,-37.598,-47.363
1683632314.969,38.086,-20.508,-27.832,28.809
1683632314.973,4.395,-42.480,-54.199,-16.602
1683632314.977,-94.727,-54.199,-81.543,-118.164
1683632314.981,-137.207,-63.477,-75.684,-135.254
1683632314.984,-71.289,-73.730,-49.805,-46.875
1683632314.988,18.555,-47.852,-28.809,45.898
1683632314.992,7.324,-45.410,-39.062,18.066
1683632314.996,-90.820,-60.059,-62.500,-81.055
1683632315.000,-167.480,-80.566,-72.266,-127.930
1683632315.002,-113.770,-67.383,-49.316,-57.129
1683632315.006,0.488,-41.504,-30.273,36.133
1683632315.010,-3.418,-54.688,-48.828,5.371
1683632315.014,-105.469,-70.312,-82.520,-106.934
1683632315.018,-168.457,-71.777,-90.332,-151.367
1683632315.022,-119.141,-59.082,-64.941,-82.031
1683632315.026,-7.812,-27.344,-40.039,15.137
1683632315.029,20.996,-47.852,-55.664,19.531
1683632315.033,-61.523,-70.312,-81.055,-77.148
1683632315.037,-130.371,-53.711,-85.938,-142.090
1683632315.041,-90.820,-41.504,-64.941,-96.191
1683632315.045,25.391,-16.602,-31.738,0.000
1683632315.047,65.430,-10.742,-34.668,8.301
1683632315.051,-25.391,-49.805,-71.289,-94.238
1683632315.055,-113.281,-63.477,-77.637,-161.621
1683632315.059,-90.332,-43.457,-49.805,-115.723
1683632315.063,10.254,-20.020,-25.391,-9.277
1683632315.067,61.035,-15.625,-14.160,24.414
1683632315.071,-10.254,-41.992,-38.086,-51.758
1683632315.074,-110.840,-77.148,-68.359,-134.766
1683632315.078,-104.492,-71.777,-53.223,-105.957
1683632315.082,-0.977,-40.527,-17.578,8.301
1683632315.086,56.152,-29.785,-15.625,55.664
1683632315.090,-8.301,-57.617,-47.852,-19.531
1683632315.107,-102.051,-76.660,-66.406,-107.422
1683632315.111,-119.141,-76.660,-55.664,-95.703
1683632315.115,-27.832,-48.828,-23.438,8.301
1683632315.119,47.852,-34.668,-18.555,71.777
1683632315.123,-5.859,-65.430,-52.734,5.371
1683632315.127,-110.352,-73.730,-76.172,-92.285
1683632315.131,-131.348,-66.406,-65.918,-101.074
1683632315.134,-44.922,-62.500,-47.363,-12.695
1683632315.138,38.086,-45.898,-37.109,49.805
1683632315.142,7.324,-53.711,-54.688,-7.324
1683632315.146,-94.238,-69.824,-80.078,-110.352
1683632315.150,-137.207,-67.871,-78.125,-142.090
1683632315.152,-59.570,-51.270,-43.945,-59.082
1683632315.156,33.691,-31.738,-28.320,22.461
1683632315.160,17.578,-38.086,-47.852,-20.508
1683632315.164,-84.473,-62.988,-69.824,-125.000
1683632315.168,-137.695,-69.824,-62.500,-154.785
1683632315.172,-65.430,-54.199,-35.645,-70.801
1683632315.176,30.273,-34.668,-20.508,23.438
1683632315.179,25.879,-53.223,-31.738,9.766
1683632315.183,-70.312,-81.055,-66.406,-83.984
1683632315.187,-132.812,-85.449,-64.453,-121.582
1683632315.191,-75.195,-53.711,-29.785,-48.828
1683632315.195,32.227,-28.320,-10.254,53.223
1683632315.197,50.293,-38.574,-19.531,59.570
1683632315.201,-43.945,-61.035,-49.805,-46.387
1683632315.205,-115.723,-60.547,-58.105,-106.934
1683632315.209,-80.078,-41.504,-34.668,-42.969
1683632315.213,22.949,-10.742,-10.254,55.176
1683632315.217,68.848,-1.953,-9.766,67.383
1683632315.221,-8.789,-33.691,-40.039,-27.344
1683632315.224,-95.215,-54.199,-52.734,-103.027
1683632315.228,-70.312,-43.457,-29.297,-61.523
1683632315.232,26.367,-22.949,-3.418,32.715
1683632315.236,73.242,-13.184,-4.395,54.688
1683632315.240,2.441,-27.832,-33.203,-31.250
1683632315.242,-98.633,-51.270,-54.688,-127.441
1683632315.246,-97.656,-45.410,-39.551,-111.816
1683632315.250,-3.906,-15.137,-6.836,-5.859
1683632315.254,48.340,-4.883,-8.789,34.180
1683632315.258,-21.484,-42.969,-35.645,-44.434
1683632315.262,-118.652,-62.012,-47.363,-127.441
1683632315.266,-129.395,-60.059,-38.574,-117.676
1683632315.269,-39.551,-58.105,-14.160,-27.832
1683632315.273,33.203,-48.340,-16.602,29.785
1683632315.277,-12.695,-61.035,-46.387,-30.273
1683632315.281,-113.770,-69.824,-64.453,-125.000
1683632315.285,-141.602,-65.918,-61.035,-114.746
1683632315.287,-63.965,-54.199,-39.062,-22.949
1683632315.291,9.277,-46.387,-36.133,31.738
1683632315.295,-26.855,-62.012,-55.664,-20.508
1683632315.299,-130.371,-87.402,-81.543,-119.141
1683632315.303,-169.434,-93.750,-91.309,-140.625
1683632315.307,-89.844,-56.641,-60.059,-55.176
1683632315.311,7.812,-30.273,-34.668,26.367
1683632315.314,-4.395,-48.340,-50.781,0.977
1683632315.318,-103.516,-64.941,-74.707,-95.703
1683632315.322,-148.926,-62.988,-68.359,-131.348
1683632315.326,-71.289,-37.598,-33.203,-42.480
1683632315.330,32.227,-10.742,-5.371,59.082
1683632315.332,35.156,-13.672,-13.672,42.480
1683632315.336,-65.918,-49.316,-42.480,-65.430
1683632315.340,-130.371,-45.410,-40.039,-114.746
1683632315.344,-70.312,-17.090,-5.859,-42.480
1683632315.348,42.480,-1.465,13.672,59.082
1683632315.352,63.965,8.301,9.277,54.199
1683632315.356,-33.203,-6.348,-17.578,-49.316
1683632315.359,-104.492,-26.855,-32.715,-106.934
1683632315.363,-62.988,-9.766,-10.254,-45.898
1683632315.367,41.504,10.254,19.531,53.711
1683632315.371,82.520,20.508,19.531,70.312
1683632315.375,-3.418,-13.184,-16.602,-21.973
1683632315.377,-87.891,-30.762,-30.273,-91.797
1683632315.381,-55.664,-7.324,-1.953,-41.992
1683632315.385,42.969,20.996,24.902,56.641
1683632315.389,75.684,7.812,23.926,81.543
1683632315.393,3.418,-22.949,-5.371,1.953
1683632315.397,-84.473,-29.297,-21.973,-79.590
1683632315.401,-75.195,-17.578,-3.418,-47.363
1683632315.404,33.691,9.766,20.996,66.406
1683632315.408,89.355,15.137,22.949,107.422
1683632315.412,15.137,-26.855,-6.836,21.973
1683632315.416,-83.496,-42.969,-29.785,-76.660
1683632315.420,-87.891,-29.297,-20.020,-67.383
1683632315.422,7.324,-7.324,12.695,39.551
1683632315.426,77.637,0.000,18.066,91.797
1683632315.430,30.273,-19.531,-12.207,19.531
1683632315.434,-77.148,-34.668,-34.180,-86.426
1683632315.438,-104.980,-29.785,-22.949,-86.426
1683632315.442,-17.578,-13.672,1.465,12.207
1683632315.446,60.059,-8.301,9.766,70.312
1683632315.449,24.902,-25.391,-2.441,19.043
1683632315.453,-73.730,-33.203,-32.715,-70.312
1683632315.457,-108.398,-33.203,-32.715,-86.914
1683632315.461,-29.785,-2.930,6.836,1.465
1683632315.465,59.082,2.441,18.066,74.219
1683632315.482,39.551,-21.484,-4.883,39.062
1683632315.486,-68.848,-43.945,-43.457,-69.336
1683632315.490,-113.281,-45.410,-42.480,-107.422
1683632315.494,-39.062,-14.160,-6.348,-18.066
1683632315.498,50.781,2.930,10.254,62.988
1683632315.502,50.781,1.953,-8.301,41.504
1683632315.506,-48.828,-29.297,-36.621,-62.500
1683632315.509,-118.652,-37.598,-38.086,-109.375
1683632315.513,-55.664,-15.137,-10.742,-37.109
1683632315.517,43.945,-6.348,8.789,53.711
1683632315.521,44.434,-19.043,-6.348,43.457
1683632315.525,-54.688,-52.246,-43.945,-61.035
1683632315.527,-120.117,-56.152,-43.457,-118.652
1683632315.531,-77.148,-35.156,-16.113,-61.523
1683632315.535,22.461,-12.207,2.441,42.480
1683632315.539,44.922,-13.184,-9.277,46.387
1683632315.543,-46.387,-41.992,-45.898,-57.129
1683632315.547,-130.859,-49.805,-52.734,-129.883
1683632315.551,-102.539,-34.668,-24.902,-83.984
1683632315.554,5.371,-19.531,1.953,27.344
1683632315.558,55.664,-18.066,3.418,64.453
1683632315.562,-19.531,-35.645,-28.320,-23.438
1683632315.566,-111.328,-40.527,-47.363,-107.422
1683632315.570,-110.352,-54.688,-32.715,-79.102
1683632315.572,-20.020,-41.504,-7.324,18.066
1683632315.576,41.992,-26.367,-6.348,56.641
1683632315.580,-23.438,-48.340,-34.668,-26.367
1683632315.584,-123.047,-55.176,-50.781,-115.234
1683632315.588,-116.699,-35.156,-32.227,-88.867
1683632315.592,-20.508,-14.160,-4.395,12.207
1683632315.596,41.016,-17.578,-2.441,58.594
1683632315.599,-12.695,-47.363,-35.156,-11.230
1683632315.603,-112.305,-66.895,-58.594,-111.328
1683632315.607,-125.977,-52.246,-42.969,-106.445
1683632315.611,-33.691,-23.926,-13.184,-7.812
1683632315.615,41.992,-11.719,-7.324,52.246
1683632315.617,10.254,-32.715,-32.227,-2.930
1683632315.621,-96.191,-60.059,-52.246,-108.887
1683632315.625,-132.812,-41.992,-37.109,-125.000
1683632315.629,-37.109,-8.789,-13.184,-23.926
1683632315.633,57.129,-7.812,-0.488,57.617
1683632315.637,21.973,-34.180,-21.484,10.742
1683632315.641,-83.984,-48.340,-49.805,-89.355
1683632315.644,-131.348,-58.594,-46.875,-120.605
1683632315.648,-66.406,-51.270,-14.648,-41.504
1683632315.652,27.344,-17.578,6.348,44.922
1683632315.656,24.902,-16.602,-12.695,22.461
1683632315.660,-74.707,-59.570,-43.945,-80.078
1683632315.662,-137.207,-69.824,-45.410,-124.512
1683632315.666,-74.707,-38.574,-19.043,-49.805
1683632315.670,35.156,-6.836,5.859,50.781
1683632315.674,53.223,-19.043,-3.906,41.992
1683632315.678,-43.945,-51.758,-40.039,-67.871
1683632315.682,-121.582,-54.688,-50.781,-129.395
1683632315.686,-75.195,-25.879,-19.043,-63.477
1683632315.689,31.250,-8.789,-0.977,36.621
1683632315.693,53.711,-17.090,-12.695,35.156
1683632315.697,-34.180,-38.574,-35.645,-57.129
1683632315.701,-112.793,-45.410,-43.457,-114.258
1683632315.705,-91.797,-30.762,-24.902,-67.871
1683632315.707,5.859,-16.113,-7.324,30.762
1683632315.711,45.410,-22.949,-9.277,45.898
1683632315.715,-28.320,-42.969,-34.668,-39.062
1683632315.719,-117.188,-53.711,-56.152,-112.793
1683632315.723,-105.469,-39.551,-38.574,-78.613
1683632315.727,-1.953,-5.371,-4.883,30.273
1683632315.731,51.270,-5.371,-9.277,65.430
1683632315.734,-13.672,-48.828,-43.945,-13.184
1683632315.738,-107.910,-69.336,-63.965,-100.586
1683632315.742,-98.145,-46.875,-44.434,-71.777
1683632315.746,20.508,9.766,5.371,52.734
1683632315.750,81.543,17.578,7.324,93.262
1683632315.752,11.230,-27.832,-38.086,4.395
1683632315.756,-105.469,-62.500,-64.453,-103.516
1683632315.760,-127.441,-63.965,-53.223,-106.445
1683632315.764,-33.203,-34.180,-16.113,0.000
1683632315.768,50.293,-15.137,3.418,72.266
1683632315.772,27.832,-1.465,-5.859,26.855
1683632315.776,-70.312,-16.113,-21.973,-69.824
1683632315.779,-109.863,-40.039,-28.809,-94.238
1683632315.783,-38.574,-38.574,-23.438,-16.602
1683632315.787,52.246,-23.926,-4.395,55.176
1683632315.791,29.785,-24.902,-18.555,13.184
1683632315.795,-89.355,-55.176,-56.152,-91.309
1683632315.797,-134.766,-46.875,-48.828,-114.746
1683632315.801,-53.711,-23.926,-17.578,-35.156
1683632315.805,44.434,1.953,0.000,44.922
1683632315.809,54.688,15.625,-1.953,31.738
1683632315.813,-42.480,-22.949,-28.809,-68.848
1683632315.817,-129.883,-30.762,-44.434,-126.953
1683632315.821,-69.824,-12.695,-24.902,-47.363
1683632315.824,38.574,-22.949,-5.371,50.293
1683632315.828,46.387,-31.250,-14.648,37.598
1683632315.832,-42.480,-27.344,-38.574,-57.129
1683632315.836,-116.211,-39.062,-45.898,-104.492
1683632315.840,-69.824,-31.738,-8.789,-27.344
1683632315.857,40.527,4.395,21.973,70.801
1683632315.861,47.852,1.953,-6.348,55.664
1683632315.865,-53.223,-43.945,-48.340,-55.176
1683632315.869,-125.488,-60.547,-50.293,-120.117
1683632315.873,-80.566,-30.273,-22.461,-64.941
1683632315.877,29.785,2.930,4.395,39.551
1683632315.881,65.918,-10.742,-5.859,58.105
1683632315.884,-5.859,-46.875,-30.273,-23.438
1683632315.888,-92.773,-49.316,-38.574,-102.539
1683632315.892,-99.121,-45.898,-31.738,-85.938
1683632315.896,-12.695,-32.227,-12.207,8.789
1683632315.900,59.570,-9.766,1.953,56.152
1683632315.902,4.883,-16.113,-16.113,-14.648
1683632315.906,-112.305,-58.105,-54.688,-117.676
1683632315.910,-105.957,-44.434,-34.180,-93.750
1683632315.914,-1.465,-13.184,7.324,12.207
1683632315.918,64.941,-20.508,-0.488,54.199
1683632315.922,22.461,-27.832,-28.809,-4.883
1683632315.926,-82.031,-46.387,-43.457,-102.539
1683632315.929,-106.934,-47.363,-34.180,-98.633
1683632315.933,-14.160,-25.879,-6.348,1.465
1683632315.937,72.754,-24.414,4.395,52.246
1683632315.941,38.086,-25.391,-19.043,6.348
1683632315.945,-79.590,-46.387,-46.875,-81.055
1683632315.947,-113.770,-49.805,-41.992,-100.098
1683632315.951,-23.438,-24.414,-8.301,-15.625
1683632315.955,60.059,-4.883,8.301,59.082
1683632315.959,33.203,-20.996,-24.414,15.625
1683632315.963,-75.195,-49.805,-53.223,-97.168
1683632315.967,-117.188,-40.039,-46.875,-125.488
1683632315.971,-32.715,-21.973,-20.996,-31.250
1683632315.974,60.059,-21.484,-2.930,57.617
1683632315.978,37.598,-38.574,-20.020,20.020
1683632315.982,-73.730,-59.082,-49.805,-87.891
1683632315.986,-123.535,-54.688,-56.152,-112.793
1683632315.990,-55.664,-21.973,-25.391,-32.227
1683632315.992,48.340,-2.930,2.441,57.617
1683632315.996,58.594,-26.367,-16.602,48.828
1683632316.000,-42.480,-55.176,-52.734,-57.129
1683632316.004,-108.398,-45.898,-49.805,-113.770
1683632316.008,-61.523,-24.902,-29.785,-49.805
1683632316.012,46.387,-8.301,-6.836,54.688
1683632316.016,72.266,-9.766,-9.766,57.617
1683632316.019,-28.320,-44.922,-52.246,-49.316
1683632316.023,-112.305,-56.641,-61.523,-118.164
1683632316.027,-79.590,-41.992,-38.574,-70.312
1683632316.031,23.926,-12.695,-6.836,33.691
1683632316.035,58.594,-17.090,-10.742,49.805
1683632316.037,-30.762,-53.223,-48.828,-50.781
1683632316.041,-125.000,-60.547,-65.430,-131.836
1683632316.045,-103.516,-42.969,-46.387,-96.680
1683632316.049,-4.883,-19.531,-17.090,5.859
1683632316.053,43.457,-11.719,-15.137,44.922
1683632316.057,-24.414,-26.855,-41.992,-35.156
1683632316.061,-117.676,-39.551,-54.199,-121.582
1683632316.064,-113.770,-38.086,-44.922,-97.168
1683632316.068,-15.137,-25.879,-24.902,1.465
1683632316.072,59.082,-26.367,-9.766,53.223
1683632316.076,6.348,-37.598,-34.180,-20.508
1683632316.080,-97.656,-52.246,-66.895,-118.652
1683632316.082,-106.934,-42.969,-47.852,-101.074
1683632316.086,-15.137,-17.090,-13.184,-0.488
1683632316.090,60.059,-13.672,-4.395,57.617
1683632316.094,16.113,-36.621,-30.762,0.488
1683632316.098,-89.355,-51.270,-56.152,-95.215
1683632316.102,-111.328,-26.367,-40.039,-98.145
1683632316.106,-36.621,-11.230,-10.742,-17.090
1683632316.109,41.992,-18.555,-8.789,44.434
1683632316.113,12.695,-36.133,-31.250,1.953
1683632316.117,-87.402,-42.969,-48.340,-96.191
1683632316.121,-123.047,-33.203,-34.180,-115.723
1683632316.125,-40.039,-26.367,-13.184,-24.414
1683632316.127,55.664,-20.996,-4.883,54.688
1683632316.131,38.086,-43.457,-19.043,16.113
1683632316.135,-54.688,-64.941,-49.805,-78.125
1683632316.139,-115.723,-59.570,-52.246,-115.723
1683632316.143,-54.199,-20.996,-12.207,-36.621
1683632316.147,42.480,-3.418,12.207,60.547
1683632316.151,37.598,-28.320,-16.602,37.598
1683632316.154,-61.523,-56.152,-52.734,-70.801
1683632316.158,-135.254,-62.988,-56.641,-125.977
1683632316.162,-90.332,-41.992,-32.227,-63.477
1683632316.166,11.230,-19.043,-4.395,43.457
1683632316.170,29.785,-17.090,-13.184,43.457
1683632316.172,-64.941,-41.016,-49.805,-66.895
1683632316.176,-151.367,-63.965,-56.641,-127.930
1683632316.180,-117.188,-42.480,-35.645,-69.824
1683632316.184,-13.184,-22.461,-11.719,23.438
1683632316.188,20.508,-27.832,-15.137,40.039
1683632316.192,-38.574,-28.320,-31.738,-34.668
1683632316.196,-120.117,-40.527,-50.293,-111.328
1683632316.199,-109.863,-46.875,-37.109,-84.961
1683632316.203,-11.230,-19.043,-3.906,15.625
1683632316.207,40.039,1.465,-6.836,56.152
1683632316.211,-24.414,-22.461,-39.062,-27.832
1683632316.215,-134.277,-63.965,-67.383,-123.047
1683632316.232,-132.324,-54.688,-47.363,-95.703
1683632316.236,-26.367,-21.484,-12.695,12.207
1683632316.240,51.270,6.348,-4.395,69.824
1683632316.244,0.488,-27.344,-31.738,-9.766
1683632316.248,-105.957,-55.664,-61.035,-114.746
1683632316.252,-117.188,-28.320,-48.340,-98.633
1683632316.256,-25.879,-11.719,-16.113,1.465
1683632316.259,46.875,-20.020,-5.859,53.223
1683632316.263,7.324,-38.086,-33.691,-12.207
1683632316.267,-92.773,-54.688,-59.082,-107.910
1683632316.271,-117.188,-48.828,-50.293,-120.117
1683632316.275,-32.715,-22.949,-21.973,-23.926
1683632316.277,41.992,-7.324,-12.695,41.504
1683632316.281,11.719,-37.598,-33.691,-5.859
1683632316.285,-96.191,-63.477,-60.059,-108.398
1683632316.289,-141.602,-51.270,-53.223,-132.324
1683632316.293,-65.430,-18.555,-19.043,-41.504
1683632316.297,37.109,-6.836,-2.441,45.410
1683632316.301,24.414,-24.414,-20.020,11.719
1683632316.304,-89.355,-54.688,-54.199,-90.332
1683632316.308,-145.996,-62.988,-55.176,-125.977
1683632316.312,-78.613,-37.598,-24.902,-53.711
1683632316.316,27.344,-8.301,-4.883,40.527
1683632316.320,33.203,-20.508,-26.367,23.926
1683632316.322,-62.012,-54.199,-55.176,-76.660
1683632316.326,-129.883,-58.105,-52.246,-130.371
1683632316.330,-82.520,-34.668,-24.414,-68.848
1683632316.334,18.066,-14.648,-5.859,22.949
1683632316.338,45.898,-23.926,-16.113,23.438
1683632316.342,-45.410,-52.246,-42.480,-72.754
1683632316.346,-129.395,-49.805,-50.293,-128.418
1683632316.349,-89.844,-30.273,-34.668,-73.242
1683632316.353,9.277,-30.273,-12.207,23.438
1683632316.357,43.945,-37.109,-15.625,40.039
1683632316.361,-37.598,-44.434,-44.434,-52.734
1683632316.365,-116.699,-48.828,-52.246,-126.465
1683632316.367,-86.914,-34.668,-31.250,-79.590
1683632316.371,6.836,-13.672,-6.836,24.902
1683632316.375,45.410,-13.184,-10.742,46.875
1683632316.379,-28.320,-38.086,-43.457,-39.551
1683632316.383,-120.605,-49.805,-57.617,-127.930
1683632316.387,-115.723,-31.738,-34.668,-101.562
1683632316.391,-11.230,-12.695,-6.348,5.859
1683632316.394,44.922,-21.973,-4.883,42.480
1683632316.398,-21.484,-43.457,-30.273,-26.855
1683632316.402,-113.770,-44.922,-44.922,-107.910
1683632316.406,-118.652,-42.480,-34.668,-99.609
1683632316.410,-28.809,-48.340,-13.184,-8.301
1683632316.412,50.293,-19.043,0.488,49.316
1683632316.416,2.441,-26.855,-20.020,-10.742
1683632316.420,-99.121,-51.758,-50.293,-101.562
1683632316.424,-110.352,-34.180,-38.574,-96.191
1683632316.428,-27.344,-15.137,-5.859,-4.395
1683632316.432,54.688,2.441,3.906,62.012
1683632316.436,27.832,-19.043,-20.508,19.531
1683632316.439,-78.613,-57.617,-49.805,-80.078
1683632316.443,-115.234,-52.246,-45.410,-107.910
1683632316.447,-38.574,-35.645,-18.066,-27.344
1683632316.451,57.129,-16.113,2.441,55.176
1683632316.455,39.551,-22.461,-19.043,23.926
1683632316.457,-72.266,-44.434,-48.340,-82.031
1683632316.461,-125.000,-54.688,-47.852,-120.117
1683632316.465,-63.477,-44.434,-26.367,-44.434
1683632316.469,35.156,-15.137,-4.395,55.664
1683632316.473,37.109,-24.414,-18.555,36.133
1683632316.477,-195.801,-176.270,-176.270,-202.148
1683632316.481,-391.113,-304.688,-299.805,-376.465
1683632316.484,-331.543,-292.480,-273.438,-306.641
1683632316.488,-213.379,-258.301,-235.352,-194.824
1683632316.492,-187.988,-244.629,-231.934,-180.176
1683632316.496,-262.207,-243.164,-249.512,-256.836
1683632316.500,-328.125,-249.512,-249.023,-312.012
1683632316.502,-282.227,-231.445,-216.797,-254.395
1683632316.506,-173.340,-201.660,-189.453,-150.391
1683632316.510,-132.812,-184.082,-187.500,-137.207
1683632316.514,-185.547,-201.660,-201.172,-220.215
1683632316.518,-254.395,-208.008,-199.219,-279.785
1683632316.522,-228.027,-161.621,-164.551,-224.121
1683632316.526,-115.234,-130.371,-124.512,-104.492
1683632316.529,-62.988,-140.137,-115.723,-70.312
1683632316.533,-124.512,-155.273,-132.812,-139.648
1683632316.537,-209.961,-155.273,-137.207,-207.031
1683632316.541,-194.336,-125.000,-102.051,-171.387
1683632316.545,-85.449,-84.961,-61.035,-52.734
1683632316.547,-19.043,-79.102,-55.664,-3.418
1683632316.551,-71.289,-98.145,-78.613,-70.801
1683632316.555,-169.434,-98.145,-89.355,-152.832
1683632316.559,-167.480,-83.496,-68.359,-134.277
1683632316.563,-64.453,-59.082,-41.504,-26.367
1683632316.567,20.996,-39.551,-26.367,43.457
1683632316.571,-20.508,-68.359,-47.363,-18.555
1683632316.574,-125.977,-93.750,-71.777,-121.094
1683632316.578,-146.973,-78.125,-59.570,-122.559
1683632316.582,-58.105,-44.434,-33.691,-23.926
1683632316.586,30.762,-26.367,-20.996,39.551
1683632316.590,-1.465,-58.105,-47.852,-19.531
1683632316.607,-102.051,-77.148,-79.590,-119.629
1683632316.611,-135.254,-62.012,-67.871,-130.859
1683632316.615,-55.664,-33.691,-29.297,-34.668
1683632316.619,41.016,-22.461,-6.836,51.270
1683632316.623,27.832,-35.645,-23.438,15.137
1683632316.627,-76.660,-45.410,-57.617,-93.262
1683632316.631,-133.789,-42.480,-59.570,-125.977
1683632316.634,-73.730,-29.785,-26.855,-48.340
1683632316.638,29.297,-21.484,-7.812,38.574
1683632316.642,28.809,-28.320,-26.367,19.043
1683632316.646,-75.195,-47.363,-53.711,-81.055
1683632316.650,-142.090,-57.617,-58.594,-127.930
1683632316.652,-81.543,-33.691,-31.738,-59.570
1683632316.656,27.832,-7.812,-1.953,47.852
1683632316.660,41.992,-8.789,-11.719,51.270
1683632316.664,-48.828,-35.645,-47.363,-47.363
1683632316.668,-122.559,-49.316,-54.199,-107.422
1683632316.672,-81.055,-28.809,-27.344,-48.340
1683632316.676,25.879,-2.930,1.953,55.176
1683632316.679,52.734,-18.066,-7.812,62.988
1683632316.683,-33.691,-53.223,-48.828,-37.598
1683632316.687,-120.605,-58.105,-57.617,-114.258
1683632316.691,-97.656,-36.133,-30.762,-65.918
1683632316.695,15.625,-12.207,-3.418,38.086
1683632316.697,65.918,-14.160,-6.348,59.570
1683632316.701,-12.207,-43.457,-36.133,-32.227
1683632316.705,-112.305,-50.293,-55.664,-120.117
1683632316.709,-111.328,-34.180,-39.062,-86.914
1683632316.713,-10.742,-20.508,-6.348,14.648
1683632316.717,54.688,-15.625,-4.395,50.781
1683632316.721,-10.254,-44.434,-41.992,-28.320
1683632316.724,-114.746,-67.871,-60.547,-125.977
1683632316.728,-124.023,-60.547,-41.016,-117.188
1683632316.732,-30.273,-36.133,-14.160,-17.090
1683632316.736,45.898,-22.461,-0.488,40.039
1683632316.740,3.418,-36.621,-20.996,-15.625
1683632316.742,-94.727,-47.363,-42.969,-104.492
1683632316.746,-120.117,-55.176,-40.039,-107.422
1683632316.750,-33.203,-39.551,-12.695,-16.602
1683632316.754,54.688,-18.555,4.883,50.293
1683632316.758,31.738,-31.250,-17.090,2.930
1683632316.762,-62.500,-39.551,-43.945,-98.145
1683632316.766,-95.215,-38.574,-41.016,-109.375
1683632316.769,-12.207,-23.926,-4.395,-13.184
1683632316.773,79.102,-9.277,10.742,65.430
1683632316.777,58.594,-26.855,-17.578,28.809
1683632316.781,-48.340,-37.598,-38.086,-74.707
1683632316.785,-104.004,-41.992,-34.668,-110.352
1683632316.787,-30.273,-22.949,-5.859,-25.879
1683632316.791,67.871,-7.324,8.789,57.129
1683632316.795,61.523,-6.348,-5.371,37.109
1683632316.799,-41.504,-27.344,-32.227,-63.965
1683632316.803,-109.863,-51.758,-42.969,-120.117
1683632316.807,-54.199,-13.184,-12.695,-45.410
1683632316.811,46.875,12.695,14.648,61.523
1683632316.814,64.941,-5.859,1.953,50.781
1683632316.818,-31.250,-34.180,-30.273,-60.059
1683632316.822,-115.723,-55.176,-41.504,-119.141
1683632316.826,-67.383,-38.574,-14.648,-59.082
1683632316.830,36.621,-13.184,18.066,41.504
1683632316.832,52.734,-20.020,1.953,50.293
1683632316.836,-33.203,-43.945,-39.062,-44.434
1683632316.840,-112.793,-55.176,-50.293,-116.211
1683632316.844,-84.961,-43.945,-28.809,-71.289
1683632316.848,9.277,-18.555,-1.953,41.016
1683632316.852,48.828,-17.090,-4.883,70.312
1683632316.856,-26.367,-40.527,-40.527,-19.043
1683632316.859,-118.652,-62.988,-59.570,-105.957
1683632316.863,-101.074,-62.012,-38.086,-76.172
1683632316.867,-3.906,-37.109,-8.789,24.414
1683632316.871,60.547,-5.859,-0.977,71.777
1683632316.875,-2.930,-32.715,-33.691,-7.324
1683632316.877,-108.398,-72.266,-63.477,-105.469
1683632316.881,-118.164,-59.570,-47.363,-92.773
1683632316.885,-21.484,-23.438,-15.137,4.395
1683632316.889,53.223,-12.207,-14.160,57.617
1683632316.893,7.324,-35.645,-34.180,-8.789
1683632316.897,-94.727,-48.340,-53.711,-108.887
1683632316.901,-127.930,-38.574,-56.152,-120.117
1683632316.904,-41.016,-24.414,-29.297,-23.438
1683632316.908,44.434,-19.043,-14.648,47.363
1683632316.912,5.859,-33.691,-39.062,-2.930
1683632316.916,-95.215,-51.758,-63.477,-103.516
1683632316.920,-118.164,-48.340,-52.246,-113.770
1683632316.922,-36.621,-25.391,-21.973,-15.137
1683632316.926,53.223,-14.160,-8.301,62.988
1683632316.930,34.668,-25.391,-24.902,21.484
1683632316.934,-76.660,-42.480,-51.758,-85.449
1683632316.938,-127.441,-44.922,-55.176,-111.328
1683632316.942,-52.734,-22.461,-28.320,-23.926
1683632316.946,55.176,0.488,-11.719,62.500
1683632316.949,46.387,-25.391,-28.320,34.668
1683632316.953,-60.547,-53.711,-55.664,-69.824
1683632316.957,-122.559,-45.410,-57.617,-109.863
1683632316.961,-65.430,-25.879,-28.809,-41.016
1683632316.965,35.645,-22.949,-3.418,50.781
1683632316.982,43.457,-30.762,-16.113,43.457
1683632316.986,-50.293,-38.574,-52.734,-56.641
1683632316.990,-125.000,-48.828,-59.082,-114.746
1683632316.994,-87.402,-37.598,-30.762,-58.105
1683632316.998,22.461,-8.789,-2.441,35.156
1683632317.002,56.152,-2.441,-6.348,43.457
1683632317.006,-33.203,-30.762,-37.109,-47.852
1683632317.009,-126.465,-58.105,-53.711,-122.070
1683632317.013,-98.145,-44.434,-30.762,-83.984
1683632317.017,12.695,-15.137,-7.324,14.648
1683632317.021,61.523,-8.301,-15.137,34.180
1683632317.025,-14.648,-33.203,-46.387,-61.523
1683632317.027,-107.422,-39.062,-57.129,-138.184
1683632317.031,-92.285,-43.945,-37.598,-101.074
1683632317.035,10.254,-25.879,-8.301,5.371
1683632317.039,78.613,-1.465,1.465,57.617
1683632317.043,10.742,-25.391,-23.438,-15.137
1683632317.047,-96.191,-50.293,-49.316,-101.562
1683632317.051,-96.191,-38.574,-35.156,-75.684
1683632317.054,-8.301,-18.555,-3.418,25.879
1683632317.058,50.781,-15.137,-3.906,73.730
1683632317.062,3.906,-34.668,-33.691,5.371
1683632317.066,-97.656,-54.199,-52.734,-90.332
1683632317.070,-117.676,-53.223,-41.992,-88.867
1683632317.072,-27.832,-25.391,-12.695,1.465
1683632317.076,53.711,-15.625,-9.766,58.594
1683632317.080,32.227,-27.344,-32.715,8.789
1683632317.084,-83.496,-56.152,-58.105,-99.609
1683632317.088,-125.977,-58.105,-48.828,-121.094
1683632317.092,-36.621,-20.996,-13.184,-29.785
1683632317.096,52.246,-5.371,-4.883,43.945
1683632317.099,24.414,-26.367,-29.785,3.418
1683632317.103,-83.008,-60.059,-56.641,-102.051
1683632317.107,-127.441,-57.617,-57.129,-129.883
1683632317.111,-53.223,-26.367,-26.367,-42.969
1683632317.115,42.480,-20.996,-3.906,43.457
1683632317.117,41.016,-30.762,-16.602,27.344
1683632317.121,-69.336,-53.711,-49.805,-78.613
1683632317.125,-138.672,-59.082,-48.340,-118.164
1683632317.129,-76.172,-30.273,-17.578,-36.621
1683632317.133,37.109,-8.301,0.977,55.176
1683632317.137,35.645,-23.438,-18.066,41.992
1683632317.141,-53.711,-44.922,-51.758,-58.105
1683632317.144,-110.840,-55.176,-61.035,-109.863
1683632317.148,-80.566,-48.828,-39.062,-61.523
1683632317.152,25.879,-23.926,-6.836,34.180
1683632317.156,53.223,-12.695,-15.625,48.828
1683632317.160,-40.039,-43.457,-51.758,-49.805
1683632317.162,-114.746,-66.895,-57.617,-116.699
1683632317.166,-86.426,-45.898,-34.668,-70.312
1683632317.170,16.113,-10.254,-11.230,27.832
1683632317.174,70.801,-8.789,-11.230,49.805
1683632317.178,-19.043,-39.551,-36.621,-38.086
1683632317.182,-111.328,-47.363,-57.129,-115.723
1683632317.186,-69.336,-22.461,-35.156,-76.172
1683632317.189,29.785,-5.859,-4.395,31.250
1683632317.193,70.312,-15.625,-1.465,71.289
1683632317.197,-6.348,-40.527,-30.273,-12.207
1683632317.201,-105.957,-64.941,-53.223,-109.863
1683632317.205,-104.492,-49.316,-27.832,-87.402
1683632317.207,-32.227,-15.137,-1.953,18.555
1683632317.211,33.203,-19.531,-1.953,63.965
1683632317.215,-16.113,-36.133,-20.508,-8.301
1683632317.219,-113.770,-48.828,-48.828,-96.680
1683632317.223,-124.512,-53.223,-42.480,-93.262
1683632317.227,-38.086,-28.320,-13.184,-3.906
1683632317.231,41.992,-7.324,-6.836,63.477
1683632317.234,-1.465,-35.156,-33.203,8.789
1683632317.238,-114.746,-66.895,-57.129,-98.145
1683632317.242,-145.996,-59.082,-45.410,-107.422
1683632317.246,-61.523,-16.113,-10.254,-10.254
1683632317.250,19.531,-19.531,-2.441,64.453
1683632317.252,-16.602,-53.223,-28.809,15.625
1683632317.256,-127.930,-69.824,-54.199,-93.750
1683632317.260,-168.457,-54.688,-41.992,-118.164
1683632317.264,-92.285,-22.949,-15.137,-29.785
1683632317.268,3.906,-18.066,0.977,55.176
1683632317.272,-3.418,-26.367,-18.555,28.809
1683632317.276,-105.469,-44.434,-55.664,-69.336
1683632317.279,-162.598,-59.570,-63.477,-110.840
1683632317.283,-92.773,-42.969,-36.621,-47.363
1683632317.287,11.719,-33.203,-12.207,40.527
1683632317.291,14.648,-40.039,-30.273,20.508
1683632317.295,-81.543,-59.082,-62.988,-80.566
1683632317.297,-155.273,-58.105,-64.941,-128.906
1683632317.301,-119.141,-55.176,-39.062,-69.824
1683632317.305,-11.719,-37.598,-9.277,32.227
1683632317.309,23.926,-28.320,-12.207,46.875
1683632317.313,-71.777,-48.340,-44.922,-43.457
1683632317.317,-151.367,-37.598,-61.035,-106.934
1683632317.321,-107.422,-33.203,-35.156,-59.082
1683632317.324,-9.766,-37.598,0.000,37.109
1683632317.328,24.414,-22.461,-5.859,56.152
1683632317.332,-46.875,-35.645,-44.434,-33.203
1683632317.336,-134.766,-53.223,-55.176,-112.305
1683632317.340,-115.723,-46.387,-31.250,-80.566
1683632317.357,-12.695,-20.508,-3.418,21.973
1683632317.361,41.992,-7.812,-2.441,59.082
1683632317.365,-21.484,-16.602,-37.598,-20.020
1683632317.369,-125.977,-49.805,-66.895,-119.629
1683632317.373,-132.324,-50.781,-47.363,-104.004
1683632317.377,-21.484,-3.906,-7.812,5.371
1683632317.381,41.504,0.000,-7.812,54.688
1683632317.384,-25.879,-36.133,-40.527,-14.648
1683632317.388,-120.117,-50.293,-62.500,-109.375
1683632317.392,-133.301,-45.898,-49.805,-102.051
1683632317.396,-43.945,-12.695,-15.625,0.977
1683632317.400,41.504,3.906,-2.441,62.500
1683632317.402,5.859,-19.531,-25.879,9.277
1683632317.406,-86.426,-27.832,-37.109,-74.219
1683632317.410,-110.840,-17.578,-25.879,-82.031
1683632317.414,-35.645,-15.137,-5.859,-5.859
1683632317.418,31.738,-16.602,-8.301,44.922
1683632317.422,-20.996,-47.852,-52.246,-18.066
1683632317.426,-140.625,-83.008,-100.098,-137.695
1683632317.429,-192.383,-98.145,-105.469,-173.828
1683632317.433,-131.836,-95.215,-87.891,-98.145
1683632317.437,-48.340,-97.656,-88.867,-30.273
1683632317.441,-68.359,-116.211,-111.328,-71.289
1683632317.445,-176.758,-141.602,-146.973,-183.594
1683632317.447,-237.793,-159.180,-159.180,-226.562
1683632317.451,-186.523,-154.785,-138.184,-157.715
1683632317.455,-96.680,-130.859,-128.418,-77.148
1683632317.459,-99.121,-151.855,-153.320,-105.469
1683632317.463,-225.098,-210.938,-203.125,-228.516
1683632317.467,-314.453,-229.980,-231.445,-304.199
1683632317.471,-283.691,-233.887,-225.586,-262.695
1683632317.474,-212.402,-257.812,-237.793,-197.754
1683632317.478,-217.285,-308.105,-284.180,-234.375
1683632317.482,-347.656,-371.582,-348.145,-372.070
1683632317.486,-475.098,-420.898,-400.391,-478.027
1683632317.490,-478.516,-436.523,-421.387,-466.797
1683632317.492,-415.527,-455.078,-434.082,-410.156
1683632317.496,-416.504,-494.141,-469.238,-429.688
1683632317.500,-522.461,-534.668,-525.391,-541.504
1683632317.504,-617.188,-569.336,-552.734,-636.230
1683632317.508,-583.984,-559.082,-524.414,-595.703
1683632317.512,-450.684,-501.953,-483.398,-468.750
1683632317.516,-369.141,-469.727,-465.332,-411.621
1683632317.519,-409.180,-479.980,-462.402,-458.496
1683632317.523,-469.238,-463.379,-445.312,-508.789
1683632317.527,-422.852,-406.250,-392.090,-444.824
1683632317.531,-271.973,-323.730,-319.824,-296.875
1683632317.535,-169.922,-289.062,-279.297,-212.402
1683632317.537,-180.664,-277.832,-271.973,-244.141
1683632317.541,-233.887,-249.023,-253.906,-303.223
1683632317.545,-212.891,-208.496,-204.590,-266.113
1683632317.549,-102.051,-153.320,-142.090,-131.836
1683632317.553,2.930,-125.977,-106.934,-37.598
1683632317.557,5.859,-122.070,-103.516,-64.941
1683632317.561,-78.613,-105.469,-100.098,-143.066
1683632317.564,-85.938,-90.820,-74.219,-136.230
1683632317.568,23.438,-51.270,-29.785,-21.973
1683632317.572,110.840,-23.926,-1.465,64.941
1683632317.576,107.910,-18.555,-7.324,26.855
1683632317.580,18.066,-20.020,-22.949,-67.871
1683632317.582,-60.059,-4.883,-7.812,-79.102
1683632317.586,41.992,13.672,28.320,15.625
1683632317.590,172.852,34.668,53.711,104.004
1683632317.594,155.762,46.875,45.898,88.867
1683632317.598,41.504,18.066,23.438,-14.648
1683632317.602,-25.879,23.926,24.414,-52.734
1683632317.606,48.340,63.477,56.641,28.809
1683632317.609,145.996,63.477,75.195,115.723
1683632317.613,137.695,46.875,61.523,104.004
1683632317.617,48.340,37.109,36.133,6.348
1683632317.621,-22.949,38.574,35.156,-41.504
1683632317.625,40.527,63.965,58.105,27.344
1683632317.627,145.508,88.379,79.102,122.559
1683632317.631,143.066,75.195,71.777,119.141
1683632317.635,53.711,52.246,47.363,25.879
1683632317.639,-36.133,39.551,32.227,-37.109
1683632317.643,-14.160,55.664,46.387,7.324
1683632317.647,91.797,87.402,78.613,105.957
1683632317.651,126.953,75.195,69.824,122.070
1683632317.654,32.227,30.273,30.273,28.320
1683632317.658,-69.824,20.020,21.973,-46.875
1683632317.662,-55.176,34.668,43.945,-3.418
1683632317.666,41.992,62.012,69.824,96.680
1683632317.670,94.727,70.801,74.219,128.906
1683632317.672,23.926,41.504,46.387,52.734
1683632317.676,-83.984,22.461,12.695,-37.109
1683632317.680,-91.309,31.738,24.902,-17.578
1683632317.684,17.090,52.734,59.570,88.379
1683632317.688,80.078,57.617,65.430,132.812
1683632317.692,19.043,39.062,37.598,56.152
1683632317.696,-93.750,15.137,11.719,-36.621
1683632317.699,-110.352,20.996,21.484,-25.391
1683632317.703,-11.719,43.945,55.664,70.801
1683632317.707,53.223,45.898,63.477,127.441
1683632317.711,-1.465,36.133,34.668,64.941
1683632317.715,-117.188,2.441,1.953,-40.527
1683632317.732,-154.785,-9.766,10.742,-49.316
1683632317.736,-79.102,22.461,41.504,39.062
1683632317.740,-1.953,31.738,45.898,106.445
1683632317.744,-46.875,16.113,19.043,60.059
1683632317.748,-154.785,3.418,-4.883,-44.434
1683632317.752,-185.547,11.719,7.812,-57.617
1683632317.756,-118.164,20.508,29.785,32.715
1683632317.759,-33.203,22.949,41.504,104.004
1683632317.763,-49.805,6.836,20.020,60.059
1683632317.767,-148.438,-17.578,-9.766,-48.340
1683632317.771,-201.172,-2.441,-2.930,-75.684
1683632317.775,-144.043,19.043,26.367,10.254
1683632317.777,-46.875,37.109,41.504,102.051
1683632317.781,-42.480,21.973,25.879,83.984
1683632317.785,-142.578,-4.883,-2.930,-27.832
1683632317.789,-225.098,-10.254,-4.883,-76.172
1683632317.793,-157.227,-1.953,8.301,-4.395
1683632317.797,-138.184,-6.348,-6.348,-13.672
1683632317.801,-229.492,-1.465,-16.602,-83.496
1683632317.804,-201.172,3.418,4.883,-32.227
1683632317.808,-97.168,16.602,30.273,64.453
1683632317.812,-59.082,9.766,20.996,74.707
1683632317.816,-152.344,-27.832,-17.578,-24.414
1683632317.820,-246.094,-41.504,-42.969,-105.469
1683632317.822,-220.215,-15.625,-23.438,-61.523
1683632317.826,-116.699,11.230,15.625,49.316
1683632317.830,-64.453,5.371,17.578,78.125
1683632317.834,-142.578,-22.461,-20.508,-4.883
1683632317.838,-241.211,-34.180,-40.039,-90.820
1683632317.842,-227.051,-10.742,-15.625,-61.523
1683632317.846,-125.000,18.066,9.766,47.363
1683632317.849,-63.477,1.465,11.719,82.520
1683632317.853,-125.977,-16.602,-9.766,4.395
1683632317.857,-228.516,-18.555,-29.297,-88.379
1683632317.861,-232.910,-10.254,-16.113,-73.242
1683632317.865,-144.531,-0.488,7.324,24.902
1683632317.867,-77.148,3.906,15.625,76.172
1683632317.871,-116.699,-11.719,-12.695,12.207
1683632317.875,-221.191,-27.832,-41.016,-85.938
1683632317.879,-244.629,-24.902,-25.879,-89.844
1683632317.883,-156.250,0.977,4.395,5.371
1683632317.887,-70.801,19.043,10.742,71.289
1683632317.891,-103.027,-10.254,-18.066,14.648
1683632317.894,-215.820,-53.223,-46.387,-95.215
1683632317.898,-255.859,-42.969,-42.969,-113.281
1683632317.902,-173.340,-14.160,-8.301,-21.973
1683632317.906,-71.777,-1.465,10.254,62.988
1683632317.910,-86.426,-6.348,-10.742,37.598
1683632317.927,-193.359,-21.484,-38.086,-66.406
1683632317.931,-247.070,-24.902,-36.133,-97.168
