timestamps,TP9,AF7,AF8,TP10
1683641582.192,-51.270,-34.668,-15.625,-44.434
1683641582.196,-41.992,-29.297,-3.906,-34.668
1683641582.200,-27.832,-15.625,-8.301,-25.879
1683641582.204,-22.461,-20.020,-28.809,-27.344
1683641582.208,-28.809,-28.809,-40.039,-38.086
1683641582.212,-26.855,-26.855,-39.551,-33.691
1683641582.216,-29.785,-11.230,-35.156,-22.461
1683641582.219,-37.109,-18.555,-18.066,-23.438
1683641582.223,-43.945,-37.598,-1.953,-23.926
1683641582.227,-52.734,-45.410,-31.250,-24.414
1683641582.231,-43.945,-38.086,-30.762,-22.949
1683641582.235,-34.180,-33.203,-2.441,-20.996
1683641582.237,-27.344,-30.273,-11.719,-17.578
1683641582.241,-26.367,-22.461,-25.391,-15.137
1683641582.245,-36.133,-31.250,-35.156,-23.926
1683641582.249,-44.434,-40.039,-31.738,-31.738
1683641582.253,-33.691,-29.785,-35.156,-21.973
1683641582.257,-15.137,-11.230,-35.645,-14.648
1683641582.261,-19.531,-7.812,-29.297,-20.508
1683641582.264,-34.180,-24.414,-22.949,-29.785
1683641582.268,-32.227,-32.227,-23.438,-37.598
1683641582.272,-27.832,-25.879,-31.738,-30.762
1683641582.276,-29.785,-30.762,-23.926,-22.949
1683641582.280,-28.809,-35.156,-33.203,-26.855
1683641582.282,-28.320,-26.855,-41.992,-34.180
1683641582.286,-45.410,-32.715,-21.973,-36.621
1683641582.290,-49.805,-29.297,-19.531,-33.691
1683641582.294,-34.668,-20.020,-20.508,-27.832
1683641582.298,-20.508,-16.602,-13.184,-18.066
1683641582.302,-16.113,-12.695,-20.508,-25.879
1683641582.306,-29.297,-23.438,-39.062,-41.992
1683641582.309,-34.668,-33.691,-43.945,-37.598
1683641582.313,-29.785,-29.785,-26.367,-29.785
1683641582.317,-27.344,-34.180,-12.695,-30.273
1683641582.321,-32.227,-35.645,-16.602,-28.809
1683641582.325,-36.133,-26.367,-22.949,-31.250
1683641582.327,-31.250,-18.066,-26.855,-31.250
1683641582.331,-22.461,-16.113,-28.320,-23.438
1683641582.335,-11.719,-11.719,-22.949,-14.648
1683641582.339,-8.789,-11.230,-36.133,-17.578
1683641582.343,-20.996,-22.461,-41.504,-31.250
1683641582.347,-31.738,-21.973,-16.113,-35.645
1683641582.351,-31.250,-20.996,2.930,-34.180
1683641582.354,-25.879,-18.066,-0.977,-27.344
1683641582.358,-26.855,-24.414,-31.250,-30.273
1683641582.362,-36.621,-39.062,-57.129,-38.574
1683641582.366,-41.016,-28.320,-43.945,-39.062
1683641582.370,-39.062,-23.438,-25.879,-36.621
1683641582.372,-40.039,-24.902,-31.250,-32.715
1683641582.376,-50.781,-24.902,-43.945,-35.645
1683641582.380,-62.988,-35.645,-46.387,-47.852
1683641582.384,-72.754,-36.133,-30.273,-49.805
1683641582.388,-68.848,-23.926,-18.066,-36.133
1683641582.392,-59.082,-20.020,-21.973,-30.273
1683641582.396,-66.406,-25.391,-25.879,-36.133
1683641582.399,-72.266,-35.645,-44.434,-42.969
1683641582.403,-73.730,-35.645,-62.012,-47.852
1683641582.407,-72.754,-30.762,-50.781,-48.828
1683641582.411,-68.359,-38.574,-39.551,-47.363
1683641582.415,-73.730,-35.645,-33.691,-44.922
1683641582.417,-70.801,-31.738,-47.852,-49.316
1683641582.421,-74.219,-37.109,-62.500,-55.176
1683641582.425,-83.984,-36.133,-40.527,-51.758
1683641582.429,-71.289,-37.598,-27.344,-41.992
1683641582.433,-60.059,-39.062,-33.203,-35.645
1683641582.437,-59.082,-25.879,-37.109,-36.621
1683641582.441,-62.012,-29.785,-49.316,-41.992
1683641582.444,-66.406,-38.086,-53.223,-48.828
1683641582.448,-62.012,-27.832,-27.832,-50.293
1683641582.452,-63.965,-33.691,-17.090,-51.270
1683641582.456,-71.289,-40.039,-38.086,-57.617
1683641582.460,-71.777,-42.969,-42.969,-59.570
1683641582.477,-65.918,-40.527,-27.344,-55.176
1683641582.481,-58.105,-36.133,-23.438,-44.922
1683641582.485,-46.875,-31.250,-49.316,-36.621
1683641582.489,-53.223,-26.367,-70.312,-41.016
1683641582.493,-73.242,-48.828,-52.246,-53.711
1683641582.497,-69.336,-48.828,-21.484,-55.176
1683641582.501,-55.176,-30.273,-5.859,-40.527
1683641582.504,-51.758,-33.203,-16.602,-41.504
1683641582.508,-56.641,-34.668,-38.086,-49.805
1683641582.512,-62.500,-43.457,-37.598,-43.457
1683641582.516,-59.570,-42.480,-32.715,-41.016
1683641582.520,-53.711,-40.039,-34.180,-41.016
1683641582.522,-52.734,-46.875,-27.344,-32.715
1683641582.526,-47.852,-49.805,-28.809,-35.156
1683641582.530,-59.570,-51.758,-42.969,-43.945
1683641582.534,-62.012,-43.457,-30.762,-40.527
1683641582.538,-51.270,-39.551,-16.602,-37.109
1683641582.542,-52.246,-43.457,-19.043,-36.133
1683641582.546,-55.176,-42.969,-37.598,-36.621
1683641582.549,-49.805,-41.016,-54.199,-41.016
1683641582.553,-50.293,-42.480,-34.668,-43.945
1683641582.557,-45.898,-45.410,-19.531,-37.598
1683641582.561,-35.156,-37.109,-8.789,-25.879
1683641582.565,-28.809,-29.297,-16.602,-24.902
1683641582.567,-30.762,-34.668,-46.387,-36.133
1683641582.571,-37.109,-35.645,-35.156,-45.410
1683641582.575,-25.391,-28.320,-11.230,-37.598
1683641582.579,-17.578,-23.926,-19.531,-30.762
1683641582.583,-37.598,-29.785,-39.551,-35.645
1683641582.587,-53.223,-39.062,-34.668,-40.527
1683641582.591,-50.293,-42.480,-39.062,-42.969
1683641582.594,-41.016,-33.691,-39.551,-44.922
1683641582.598,-33.203,-23.926,-6.348,-41.992
1683641582.602,-31.738,-30.762,-10.254,-36.621
1683641582.606,-32.227,-31.250,-41.016,-31.738
1683641582.610,-42.480,-32.227,-58.594,-40.039
1683641582.612,-39.062,-41.992,-40.527,-43.945
1683641582.616,-23.926,-31.250,-11.230,-31.738
1683641582.620,-17.578,-18.066,-17.090,-20.508
1683641582.624,-19.043,-21.973,-45.898,-25.391
1683641582.628,-32.715,-34.180,-56.152,-36.621
1683641582.632,-29.785,-29.785,-38.086,-36.621
1683641582.636,-30.762,-32.715,-20.508,-33.203
1683641582.639,-32.715,-48.828,-18.066,-32.227
1683641582.643,-32.715,-46.875,-27.344,-38.086
1683641582.647,-38.086,-38.086,-39.062,-42.969
1683641582.651,-35.645,-31.250,-26.367,-44.434
1683641582.655,-25.391,-21.484,-19.043,-34.180
1683641582.657,-19.043,-19.043,-33.691,-20.508
1683641582.661,-24.414,-24.414,-46.387,-22.461
1683641582.665,-38.574,-33.203,-39.551,-36.133
1683641582.669,-38.086,-36.621,-19.043,-40.039
1683641582.673,-30.762,-32.227,-24.414,-33.203
1683641582.677,-25.391,-27.344,-40.039,-30.273
1683641582.681,-25.391,-16.602,-38.574,-30.762
1683641582.684,-39.551,-26.367,-29.785,-34.180
1683641582.688,-42.969,-46.387,-31.250,-41.504
1683641582.692,-38.086,-42.969,-21.973,-46.387
1683641582.696,-34.180,-35.645,-17.090,-39.551
1683641582.700,-31.738,-31.738,-36.133,-28.809
1683641582.702,-39.551,-35.645,-52.246,-35.645
1683641582.706,-41.016,-24.902,-46.387,-41.992
1683641582.710,-35.156,-24.414,-23.926,-42.480
1683641582.714,-35.156,-34.180,-19.043,-47.363
1683641582.718,-27.832,-30.273,-38.086,-40.039
1683641582.722,-35.156,-44.922,-49.316,-41.016
1683641582.726,-38.086,-44.922,-37.598,-46.387
1683641582.729,-26.855,-37.598,-37.598,-42.480
1683641582.733,-30.273,-34.668,-33.203,-35.156
1683641582.737,-34.180,-43.457,-18.555,-35.156
1683641582.741,-31.738,-50.781,-19.043,-44.922
1683641582.745,-39.551,-41.016,-26.855,-44.434
1683641582.747,-38.574,-36.621,-29.785,-39.062
1683641582.751,-27.832,-27.344,-19.043,-35.645
1683641582.755,-27.832,-22.461,-19.531,-26.855
1683641582.759,-33.203,-40.039,-41.504,-31.738
1683641582.763,-30.762,-44.434,-50.293,-37.109
1683641582.767,-31.738,-41.016,-31.250,-37.598
1683641582.771,-28.320,-30.273,-14.648,-25.391
1683641582.774,-21.484,-19.531,-16.113,-18.555
1683641582.778,-27.832,-29.785,-34.668,-32.715
1683641582.782,-37.109,-33.203,-36.133,-41.504
1683641582.786,-47.852,-32.227,-15.625,-45.898
1683641582.790,-44.434,-41.992,-8.301,-47.852
1683641582.792,-36.621,-41.992,-26.367,-42.480
1683641582.796,-44.434,-41.504,-37.598,-41.016
1683641582.800,-51.758,-45.898,-42.480,-43.457
1683641582.804,-51.758,-51.270,-48.828,-45.410
1683641582.808,-41.016,-39.551,-28.809,-34.668
1683641582.812,-34.668,-30.762,-14.160,-25.391
1683641582.816,-31.738,-32.227,-25.879,-23.438
1683641582.819,-33.203,-36.133,-37.598,-29.297
1683641582.823,-35.156,-32.715,-23.438,-31.738
1683641582.827,-32.715,-34.668,-11.719,-27.344
1683641582.831,-29.785,-41.016,-17.578,-29.785
1683641582.835,-26.855,-38.574,-32.715,-33.691
1683641582.792,-36.621,-41.992,-26.367,-42.480
1683641582.796,-44.434,-41.504,-37.598,-41.016
1683641582.800,-51.758,-45.898,-42.480,-43.457
1683641582.804,-51.758,-51.270,-48.828,-45.410
1683641582.808,-41.016,-39.551,-28.809,-34.668
1683641582.812,-34.668,-30.762,-14.160,-25.391
1683641582.816,-31.738,-32.227,-25.879,-23.438
1683641582.819,-33.203,-36.133,-37.598,-29.297
1683641582.823,-35.156,-32.715,-23.438,-31.738
1683641582.827,-32.715,-34.668,-11.719,-27.344
1683641582.831,-29.785,-41.016,-17.578,-29.785
1683641582.835,-26.855,-38.574,-32.715,-33.691
1683641582.852,-24.902,-38.574,-44.922,-30.762
1683641582.856,-22.949,-42.969,-40.039,-31.250
1683641582.860,-18.066,-40.527,-18.066,-27.344
1683641582.864,-10.254,-32.715,-31.738,-21.973
1683641582.868,-8.789,-40.039,-56.641,-25.391
1683641582.872,-22.461,-40.527,-38.574,-37.109
1683641582.876,-31.738,-43.457,-20.508,-41.016
1683641582.879,-32.715,-54.688,-25.391,-35.645
1683641582.883,-23.926,-48.340,-26.367,-33.203
1683641582.887,-20.996,-43.945,-21.484,-34.180
1683641582.891,-30.273,-48.828,-36.133,-38.086
1683641582.895,-38.574,-49.316,-37.109,-45.898
1683641582.852,-24.902,-38.574,-44.922,-30.762
1683641582.856,-22.949,-42.969,-40.039,-31.250
1683641582.860,-18.066,-40.527,-18.066,-27.344
1683641582.864,-10.254,-32.715,-31.738,-21.973
1683641582.868,-8.789,-40.039,-56.641,-25.391
1683641582.872,-22.461,-40.527,-38.574,-37.109
1683641582.876,-31.738,-43.457,-20.508,-41.016
1683641582.879,-32.715,-54.688,-25.391,-35.645
1683641582.883,-23.926,-48.340,-26.367,-33.203
1683641582.887,-20.996,-43.945,-21.484,-34.180
1683641582.891,-30.273,-48.828,-36.133,-38.086
1683641582.895,-38.574,-49.316,-37.109,-45.898
1683641582.897,-31.738,-43.457,-23.926,-38.574
1683641582.901,-20.996,-33.691,-22.949,-30.273
1683641582.905,-22.461,-25.391,-39.551,-29.297
1683641582.909,-30.762,-42.969,-62.012,-32.227
1683641582.913,-40.039,-52.246,-57.617,-43.945
1683641582.917,-40.527,-41.992,-18.066,-47.852
1683641582.921,-20.020,-36.133,4.883,-38.574
1683641582.924,-12.695,-30.762,-17.578,-32.227
1683641582.928,-20.020,-36.621,-29.297,-37.109
1683641582.932,-9.766,-33.691,-23.926,-41.016
1683641582.936,0.488,-22.461,-30.273,-36.133
1683641582.940,-1.953,-29.297,-31.738,-26.367
1683641582.897,-31.738,-43.457,-23.926,-38.574
1683641582.901,-20.996,-33.691,-22.949,-30.273
1683641582.905,-22.461,-25.391,-39.551,-29.297
1683641582.909,-30.762,-42.969,-62.012,-32.227
1683641582.913,-40.039,-52.246,-57.617,-43.945
1683641582.917,-40.527,-41.992,-18.066,-47.852
1683641582.921,-20.020,-36.133,4.883,-38.574
1683641582.924,-12.695,-30.762,-17.578,-32.227
1683641582.928,-20.020,-36.621,-29.297,-37.109
1683641582.932,-9.766,-33.691,-23.926,-41.016
1683641582.936,0.488,-22.461,-30.273,-36.133
1683641582.940,-1.953,-29.297,-31.738,-26.367
1683641582.942,-5.371,-32.715,-25.391,-20.508
1683641582.946,-9.277,-20.508,-22.949,-15.625
1683641582.950,-18.066,-14.160,-24.414,-20.508
1683641582.954,-32.715,-33.203,-26.855,-28.809
1683641582.958,-31.738,-34.668,-26.855,-27.344
1683641582.962,-21.484,-29.297,-18.555,-26.367
1683641582.966,-36.133,-35.156,-31.250,-32.227
1683641582.969,-34.668,-34.180,-45.410,-33.691
1683641582.973,-22.949,-22.949,-21.484,-31.738
1683641582.977,-25.879,-20.996,-2.441,-30.762
1683641582.981,-23.438,-37.109,-8.301,-30.273
1683641582.985,-22.949,-38.086,-25.879,-32.715
1683641582.987,-34.180,-36.133,-42.969,-32.715
1683641582.991,-34.180,-33.203,-42.480,-38.086
1683641582.995,-31.250,-31.250,-26.855,-45.410
1683641582.999,-25.391,-26.855,-13.184,-38.086
1683641583.003,-21.484,-36.133,-20.020,-29.785
1683641583.007,-29.297,-41.504,-37.109,-31.250
1683641583.011,-34.180,-37.109,-33.203,-29.297
1683641583.014,-28.809,-32.715,-18.555,-22.461
1683641583.018,-18.066,-24.902,-16.113,-23.926
1683641583.022,-17.578,-30.273,-21.973,-20.020
1683641583.026,-20.508,-20.508,-26.367,-20.996
1683641583.030,-24.414,-20.996,-29.785,-24.414
1683641583.032,-24.902,-38.574,-14.648,-26.367
1683641583.036,-20.996,-28.809,-11.230,-23.926
1683641583.040,-17.090,-24.414,-26.367,-25.391
1683641583.044,-19.043,-39.062,-34.668,-28.809
1683641583.048,-23.438,-47.852,-22.461,-29.297
1683641583.052,-21.484,-34.180,-8.301,-25.391
1683641583.056,-18.555,-21.973,-21.484,-17.578
1683641583.059,-14.160,-37.598,-33.691,-20.508
1683641583.063,-18.555,-41.504,-36.133,-25.391
1683641583.067,-26.855,-28.809,-27.344,-25.879
1683641583.071,-23.926,-15.625,-8.301,-19.043
1683641583.075,-14.160,-15.625,-12.695,-10.742
1683641583.077,-11.719,-21.973,-35.156,-10.254
1683641583.081,-8.789,-23.438,-46.875,-12.695
1683641583.085,-20.508,-25.879,-34.668,-24.902
1683641583.089,-31.250,-27.832,-21.973,-30.273
1683641583.093,-24.414,-34.668,-15.625,-23.926
1683641583.097,-19.043,-22.461,-5.859,-13.184
1683641583.101,-25.879,-17.578,-22.949,-16.113
1683641583.104,-39.062,-31.250,-43.945,-29.297
1683641583.108,-47.363,-32.715,-39.551,-28.809
1683641583.112,-45.410,-18.066,-17.578,-29.297
1683641583.116,-37.109,-12.695,-10.742,-25.391
1683641583.120,-47.852,-23.926,-36.133,-26.367
1683641583.122,-60.059,-34.180,-42.969,-37.109
1683641583.126,-53.223,-29.297,-25.879,-38.086
1683641583.130,-45.898,-19.531,-20.508,-29.785
1683641583.134,-43.457,-20.508,-19.531,-22.949
1683641583.138,-47.852,-29.785,-23.926,-31.738
1683641583.142,-56.641,-33.203,-25.879,-42.480
1683641583.146,-60.547,-32.227,-20.996,-41.016
1683641583.149,-61.523,-35.156,-19.043,-39.062
1683641583.153,-54.199,-21.973,-23.926,-33.691
1683641583.157,-55.176,-20.020,-36.133,-32.227
1683641583.161,-64.453,-39.551,-42.480,-37.598
1683641583.165,-66.895,-42.480,-46.875,-41.504
1683641583.167,-58.105,-33.203,-32.227,-37.109
1683641583.171,-58.105,-27.832,-20.996,-32.715
1683641583.175,-57.617,-22.461,-31.250,-30.273
1683641583.179,-52.734,-17.090,-32.715,-28.809
1683641583.183,-62.988,-26.855,-26.367,-39.551
1683641583.187,-62.988,-45.410,-27.832,-41.992
1683641583.191,-57.617,-49.805,-34.668,-40.527
1683641583.194,-50.293,-41.504,-38.086,-40.039
1683641583.198,-55.664,-45.410,-48.828,-41.016
1683641583.202,-67.871,-39.062,-52.246,-48.340
1683641583.206,-63.477,-23.926,-47.852,-47.852
1683641583.210,-56.152,-23.926,-37.598,-42.480
1683641583.227,-50.293,-29.297,-31.738,-40.039
1683641583.231,-60.059,-25.391,-47.852,-48.340
1683641583.235,-67.383,-26.367,-44.922,-57.129
1683641583.239,-52.734,-28.320,-21.484,-47.852
1683641583.243,-41.504,-30.762,-17.090,-36.621
1683641583.247,-33.691,-21.484,-16.113,-31.250
1683641583.251,-42.480,-21.973,-46.387,-37.109
1683641583.254,-47.852,-32.715,-70.801,-43.457
1683641583.258,-45.410,-33.203,-45.898,-43.457
1683641583.262,-46.875,-32.715,-31.250,-41.504
1683641583.266,-45.410,-30.273,-32.715,-39.551
1683641583.270,-44.922,-29.785,-33.203,-45.410
1683641583.272,-49.805,-30.762,-32.715,-47.363
1683641583.276,-59.082,-37.598,-35.645,-46.875
1683641583.280,-57.129,-38.574,-30.762,-45.410
1683641583.284,-62.012,-39.062,-34.668,-46.387
1683641583.288,-66.895,-35.645,-51.270,-48.340
1683641583.292,-62.500,-33.203,-59.082,-50.293
1683641583.296,-60.059,-38.574,-43.457,-52.734
1683641583.299,-45.898,-27.344,-29.297,-39.551
1683641583.303,-34.180,-24.902,-46.875,-26.367
1683641583.307,-36.133,-39.551,-61.523,-28.809
1683641583.311,-45.410,-47.852,-48.828,-37.598
1683641583.315,-49.805,-47.852,-31.250,-41.504
1683641583.317,-41.504,-34.180,-22.461,-36.133
1683641583.321,-29.785,-24.902,-23.438,-33.203
1683641583.325,-32.227,-24.902,-23.438,-36.133
1683641583.329,-39.062,-32.715,-27.832,-38.086
1683641583.333,-38.574,-35.156,-35.156,-41.504
1683641583.337,-27.344,-30.273,-24.414,-34.180
1683641583.341,-16.602,-26.367,-21.484,-25.391
1683641583.344,-18.555,-23.926,-36.133,-24.414
1683641583.348,-23.926,-35.645,-48.828,-31.250
1683641583.352,-31.250,-37.598,-39.062,-33.691
1683641583.356,-29.297,-24.902,-21.973,-26.367
1683641583.360,-29.785,-35.645,-17.090,-27.344
1683641583.362,-35.645,-46.387,-24.902,-35.156
1683641583.366,-42.969,-36.133,-49.316,-45.898
1683641583.370,-47.363,-33.203,-49.316,-50.781
1683641583.374,-39.551,-25.391,-38.574,-45.410
1683641583.378,-33.203,-26.855,-41.992,-40.527
1683641583.382,-31.738,-39.062,-33.691,-41.016
1683641583.386,-31.250,-35.156,-26.855,-42.480
1683641583.389,-26.855,-20.020,-27.344,-41.016
1683641583.393,-20.508,-16.602,-20.508,-37.598
1683641583.397,-21.973,-27.344,-27.832,-33.691
1683641583.401,-28.320,-31.738,-49.316,-35.156
1683641583.405,-29.785,-32.227,-51.758,-40.039
1683641583.407,-37.598,-40.039,-46.875,-44.434
1683641583.411,-30.762,-39.551,-39.551,-41.504
1683641583.415,-16.602,-27.344,-29.297,-36.133
1683641583.419,-26.367,-20.508,-29.785,-39.551
1683641583.423,-38.086,-34.668,-44.434,-43.457
1683641583.427,-29.785,-35.645,-39.062,-37.109
1683641583.431,-27.832,-24.902,-28.320,-33.203
1683641583.434,-32.227,-34.180,-34.180,-41.016
1683641583.438,-25.391,-37.109,-37.109,-38.574
1683641583.442,-22.461,-37.109,-45.410,-35.645
1683641583.446,-28.809,-40.527,-48.828,-41.992
1683641583.450,-29.785,-47.363,-47.363,-45.410
1683641583.452,-25.879,-36.621,-38.574,-43.457
1683641583.456,-26.367,-35.156,-26.367,-40.527
1683641583.460,-18.066,-40.039,-27.344,-41.016
1683641583.464,-18.555,-36.621,-29.297,-47.852
1683641583.468,-31.250,-23.438,-25.879,-51.758
1683641583.472,-21.973,-6.836,-11.230,-37.109
1683641583.476,-19.043,-30.273,-23.926,-37.109
1683641583.479,-25.391,-47.852,-52.734,-47.363
1683641583.483,-26.367,-41.992,-51.270,-44.922
1683641583.487,-38.086,-47.852,-46.387,-44.922
1683641583.491,-39.551,-41.992,-45.410,-43.457
1683641583.495,-25.879,-26.367,-34.180,-37.598
1683641583.497,-27.344,-42.480,-40.527,-36.621
1683641583.501,-38.086,-47.852,-40.039,-41.016
1683641583.505,-35.156,-28.809,-18.066,-39.551
1683641583.509,-26.367,-30.273,-7.812,-32.227
1683641583.513,-26.855,-30.762,-20.508,-27.832
1683641583.517,-29.297,-20.508,-33.691,-33.203
1683641583.521,-33.203,-29.297,-47.363,-44.922
1683641583.524,-45.410,-48.340,-47.852,-55.176
1683641583.528,-39.551,-44.434,-26.855,-51.758
1683641583.532,-23.926,-30.273,-24.414,-36.621
1683641583.536,-23.438,-27.832,-41.504,-34.180
1683641583.540,-28.809,-31.250,-56.152,-45.410
1683641583.542,-35.645,-41.504,-43.945,-51.758
1683641583.546,-34.668,-42.969,-21.973,-49.805
1683641583.550,-30.762,-26.855,-5.859,-46.875
1683641583.554,-31.250,-32.715,-18.066,-48.340
1683641583.558,-28.320,-40.527,-26.367,-42.969
1683641583.562,-40.527,-45.898,-32.227,-44.922
1683641583.566,-47.363,-39.551,-42.480,-52.734
1683641583.569,-41.016,-28.320,-28.320,-48.340
1683641583.573,-36.133,-26.367,-35.156,-46.387
1683641583.577,-25.391,-18.066,-37.109,-42.969
1683641583.581,-30.762,-24.902,-26.367,-43.457
1683641583.585,-45.410,-54.688,-27.832,-49.805
1683641583.602,-28.809,-48.828,-24.414,-44.434
1683641583.606,-18.555,-23.438,-36.621,-35.156
1683641583.610,-40.039,-37.598,-42.969,-48.340
1683641583.614,-48.828,-44.434,-31.738,-61.523
1683641583.618,-45.410,-20.508,-21.973,-53.223
1683641583.622,-42.480,-13.672,-9.766,-45.410
1683641583.626,-40.039,-25.879,-17.090,-45.898
1683641583.629,-39.062,-33.203,-34.668,-44.922
1683641583.633,-41.016,-33.691,-24.414,-42.969
1683641583.637,-41.016,-32.227,-16.602,-41.504
1683641583.641,-33.203,-26.855,-12.207,-38.086
1683641583.645,-29.785,-20.996,-10.254,-38.574
1683641583.647,-34.180,-36.621,-47.852,-41.504
1683641583.651,-40.039,-44.434,-52.734,-41.992
1683641583.655,-37.598,-41.016,-21.484,-47.852
1683641583.659,-23.438,-37.109,-7.812,-42.480
1683641583.663,-12.207,-20.020,-3.906,-35.645
1683641583.667,0.488,-7.324,-1.953,-36.621
1683641583.671,-5.859,-15.137,-9.766,-41.016
1683641583.674,-28.809,-38.086,-27.832,-53.223
1683641583.678,-38.574,-42.969,-35.645,-59.570
1683641583.682,-37.109,-30.273,-34.668,-46.387
1683641583.686,-34.180,-35.156,-33.691,-36.133
1683641583.690,-31.250,-25.391,-29.785,-33.691
1683641583.692,-37.109,-24.414,-24.414,-32.715
1683641583.696,-49.316,-37.109,-20.020,-36.133
1683641583.700,-37.598,-26.367,-6.348,-33.203
1683641583.704,-22.461,-15.625,-6.836,-25.391
1683641583.708,-29.785,-23.926,-18.066,-30.762
1683641583.712,-42.969,-25.391,-21.484,-46.387
1683641583.716,-43.945,-33.203,-24.414,-52.734
1683641583.719,-41.016,-34.668,-27.832,-53.223
1683641583.723,-35.156,-27.832,-24.902,-52.734
1683641583.727,-41.016,-26.855,-16.602,-49.805
1683641583.731,-47.363,-17.090,-9.766,-48.828
1683641583.735,-25.879,-3.906,6.836,-37.598
1683641583.737,-11.230,3.418,11.719,-24.414
1683641583.741,-19.043,-21.484,-7.324,-24.902
1683641583.745,-34.180,-54.688,-10.742,-39.551
1683641583.749,-39.551,-46.875,12.207,-49.316
1683641583.753,-24.902,-18.555,42.480,-39.551
1683641583.757,-6.836,4.883,49.805,-36.621
1683641583.761,-0.977,2.441,39.062,-36.133
1683641583.764,-7.812,-21.484,12.695,-42.969
1683641583.768,-13.184,-32.715,2.441,-49.316
1683641583.772,-3.418,-14.648,15.137,-43.457
1683641583.776,8.789,0.000,21.484,-33.203
1683641583.780,14.160,-0.977,40.039,-27.344
1683641583.782,11.719,-17.090,35.645,-29.785
1683641583.786,10.254,-18.555,19.043,-36.621
1683641583.790,14.160,-7.812,41.016,-38.086
1683641583.794,8.789,-21.484,49.805,-38.574
1683641583.798,0.000,-21.484,43.457,-40.527
1683641583.802,-1.465,-12.207,46.875,-38.086
1683641583.806,-3.906,-6.348,43.457,-46.875
1683641583.809,-9.766,-18.066,38.086,-46.875
1683641583.813,-9.277,-35.645,35.156,-35.645
1683641583.817,1.465,-32.227,28.809,-27.832
1683641583.821,9.766,-32.715,22.461,-16.602
1683641583.825,2.441,-14.648,28.320,-16.602
1683641583.827,-11.719,-14.160,33.203,-26.367
1683641583.831,-20.020,-40.039,32.715,-21.973
1683641583.835,-21.484,-39.062,28.809,-18.066
1683641583.839,-21.973,-34.668,29.785,-24.414
1683641583.843,-44.434,-42.480,19.531,-38.086
1683641583.847,-52.734,-40.527,-3.418,-47.363
1683641583.851,-32.715,-26.855,0.488,-27.832
1683641583.854,-27.344,-22.949,26.855,-16.602
1683641583.858,-32.715,-29.297,27.344,-21.484
1683641583.862,-24.902,-17.090,13.184,-18.066
1683641583.866,-33.203,-19.043,7.812,-21.484
1683641583.870,-52.246,-39.551,-3.906,-26.855
1683641583.872,-41.016,-25.391,-5.859,-22.949
1683641583.876,-38.086,-17.090,13.184,-29.297
1683641583.880,-47.363,-18.066,21.973,-33.691
1683641583.884,-46.387,-18.066,16.113,-33.691
1683641583.888,-41.504,-20.996,6.836,-35.156
1683641583.892,-39.551,-20.508,-6.348,-34.668
1683641583.896,-42.969,-4.883,-12.695,-29.785
1683641583.899,-54.688,-5.859,-24.414,-38.574
1683641583.903,-62.500,-16.602,-20.508,-48.340
1683641583.907,-51.758,-10.742,-6.348,-36.621
1683641583.911,-41.504,-3.906,5.859,-20.996
1683641583.915,-40.527,-7.812,3.906,-24.902
1683641583.917,-47.363,-16.602,-16.602,-33.203
1683641583.921,-50.781,-15.625,-14.160,-35.156
1683641583.925,-45.410,-4.883,7.324,-28.320
1683641583.929,-41.992,-11.230,11.230,-24.902
1683641583.933,-42.969,-23.438,-7.324,-28.809
1683641583.937,-53.711,-20.508,-24.902,-36.621
1683641583.941,-60.059,-12.207,-16.113,-39.062
1683641583.944,-60.059,-8.301,-0.977,-39.551
1683641583.948,-57.617,-8.789,-4.395,-38.574
1683641583.952,-46.875,-17.578,-11.230,-38.574
1683641583.956,-54.199,-32.715,-14.648,-43.945
1683641583.960,-53.711,-29.785,-26.855,-45.410
1683641583.977,-39.062,-12.207,-25.879,-37.598
1683641583.981,-36.133,-6.348,-8.301,-32.715
1683641583.985,-38.086,-15.625,6.836,-39.551
1683641583.989,-41.992,-23.926,-1.465,-45.898
1683641583.993,-47.363,-23.438,-22.461,-57.129
1683641583.997,-50.293,-30.762,-22.949,-57.129
1683641584.001,-51.758,-36.621,-19.043,-54.688
1683641584.004,-47.363,-25.879,-18.066,-47.852
1683641584.008,-44.922,-33.691,-12.695,-41.016
1683641584.012,-52.734,-38.574,-20.020,-46.875
1683641584.016,-60.059,-39.551,-34.180,-56.641
1683641584.020,-54.199,-35.156,-27.832,-53.223
1683641584.022,-40.039,-20.996,-17.578,-39.551
1683641584.026,-36.621,-23.438,-20.508,-33.203
1683641584.030,-44.434,-35.156,-20.020,-41.504
1683641584.034,-47.852,-34.668,-3.906,-48.828
1683641584.038,-41.016,-24.902,-5.371,-37.109
1683641584.042,-35.645,-20.508,-8.789,-27.344
1683641584.046,-37.109,-32.715,-3.418,-31.250
1683641584.049,-36.621,-35.156,-6.348,-35.156
1683641584.053,-37.598,-36.621,-9.277,-38.086
1683641584.057,-36.133,-36.133,-12.207,-36.133
1683641584.061,-36.621,-28.809,-16.602,-31.250
1683641584.065,-31.738,-17.090,-6.348,-29.297
1683641584.067,-27.344,-11.719,0.000,-34.668
1683641584.071,-34.668,-29.785,-10.742,-42.969
1683641584.075,-42.969,-41.504,-15.625,-49.805
1683641584.079,-34.180,-41.992,-12.207,-42.480
1683641584.083,-29.785,-37.109,-24.902,-37.598
1683641584.087,-38.086,-28.809,-49.316,-55.664
1683641584.091,-36.133,-12.207,-53.711,-58.105
1683641584.094,-37.109,-28.809,-34.668,-52.246
1683641584.098,-37.598,-45.898,-9.277,-51.758
1683641584.102,-30.273,-29.785,-6.836,-41.992
1683641584.106,-32.715,-29.297,-38.086,-41.992
1683641584.110,-35.645,-38.574,-53.711,-46.875
1683641584.112,-36.621,-34.668,-35.645,-41.992
1683641584.116,-34.180,-25.391,-16.602,-33.203
1683641584.120,-34.180,-27.832,-13.184,-35.156
1683641584.124,-25.391,-14.160,-16.113,-38.574
1683641584.128,-28.320,-12.695,-16.113,-43.945
1683641584.132,-48.340,-42.969,-17.578,-58.594
1683641584.136,-38.574,-31.738,-14.648,-48.340
1683641584.139,-25.879,-27.832,-39.062,-34.180
1683641584.143,-28.809,-39.551,-53.223,-35.156
1683641584.147,-24.902,-28.809,-40.527,-35.645
1683641584.151,-30.273,-30.273,-34.668,-35.156
1683641584.155,-26.367,-26.367,-8.301,-30.762
1683641584.157,-20.020,-22.949,12.207,-25.879
1683641584.161,-23.926,-27.832,-0.488,-24.902
1683641584.165,-26.855,-33.203,-17.090,-31.250
1683641584.169,-34.180,-46.875,-16.602,-32.715
1683641584.173,-31.738,-44.922,-19.531,-25.391
1683641584.177,-20.996,-26.855,-22.949,-22.949
1683641584.181,-22.461,-19.043,-9.766,-30.762
1683641584.184,-28.320,-23.438,-7.324,-34.668
1683641584.188,-29.297,-30.273,-14.648,-37.109
1683641584.192,-36.621,-43.457,-10.742,-40.039
1683641584.196,-31.250,-40.527,7.324,-28.809
1683641584.200,-20.508,-20.508,4.883,-24.902
1683641584.202,-21.973,-17.578,-19.531,-30.762
1683641584.206,-31.250,-28.809,-30.762,-32.227
1683641584.210,-41.992,-47.852,-33.691,-34.180
1683641584.214,-45.410,-45.898,-22.461,-41.016
1683641584.218,-38.086,-34.180,-12.695,-40.039
1683641584.222,-31.738,-29.785,-15.137,-39.062
1683641584.226,-31.738,-27.344,-3.418,-40.039
1683641584.229,-30.273,-18.555,5.859,-38.086
1683641584.233,-28.809,-14.160,12.207,-36.133
1683641584.237,-33.691,-34.180,-3.906,-33.203
1683641584.241,-36.621,-38.574,-17.090,-38.086
1683641584.245,-37.598,-31.738,-5.371,-46.875
1683641584.247,-34.668,-31.738,-2.441,-50.293
1683641584.251,-20.996,-16.602,2.441,-34.180
1683641584.255,-20.508,-19.043,-4.883,-29.297
1683641584.259,-27.344,-40.039,-15.625,-42.969
1683641584.263,-28.809,-39.062,-3.906,-40.527
1683641584.267,-24.414,-24.902,20.508,-34.180
1683641584.271,-15.137,-17.578,31.250,-27.832
1683641584.274,-9.766,-16.602,11.230,-22.949
1683641584.278,-10.742,-17.090,-9.277,-36.621
1683641584.282,-19.043,-37.109,-16.113,-49.805
1683641584.286,-17.090,-41.992,-7.812,-48.340
1683641584.290,-7.812,-24.414,-7.324,-36.621
1683641584.292,-1.953,-5.859,11.230,-26.855
1683641584.296,-10.742,-2.441,17.578,-33.691
1683641584.300,-23.438,-24.902,-3.418,-44.922
1683641584.304,-31.738,-40.039,-6.348,-52.246
1683641584.308,-22.949,-30.762,4.395,-47.363
1683641584.312,-2.441,-16.113,4.883,-32.715
1683641584.316,2.930,-9.277,-2.930,-24.902
1683641584.319,3.418,-6.836,7.812,-24.414
1683641584.323,1.465,-8.301,9.277,-33.203
1683641584.327,1.465,-12.695,9.766,-33.203
1683641584.331,0.488,-28.809,5.859,-38.086
1683641584.335,-3.906,-25.391,-6.348,-42.480
1683641584.352,-1.953,-12.695,-4.883,-33.691
1683641584.356,-13.672,-33.691,-10.742,-40.039
1683641584.360,-14.648,-32.227,-13.184,-41.504
1683641584.364,-0.977,-15.137,3.906,-28.320
1683641584.368,-4.395,-21.973,2.930,-34.180
1683641584.372,-13.184,-26.367,3.906,-41.992
1683641584.376,-16.602,-27.832,4.883,-48.340
1683641584.379,-20.508,-17.090,-3.906,-48.828
1683641584.383,-6.836,3.906,26.855,-31.738
1683641584.387,-8.789,-22.461,35.645,-38.574
1683641584.391,-23.926,-41.016,-19.043,-54.199
1683641584.395,-15.625,-31.738,-43.457,-51.758
1683641584.397,-14.648,-30.273,-7.324,-53.223
1683641584.401,-15.625,-16.602,24.414,-52.246
1683641584.405,0.000,-1.953,24.414,-40.527
1683641584.409,2.930,-9.766,15.137,-37.598
1683641584.413,-2.441,-10.742,22.949,-37.598
1683641584.417,0.488,-7.812,18.066,-36.133
1683641584.421,-7.812,-2.930,0.488,-36.133
1683641584.424,-22.949,-14.648,-12.207,-41.016
1683641584.428,-28.809,-29.297,-26.367,-40.039
1683641584.432,-30.273,-18.555,-31.738,-38.086
1683641584.436,-27.832,-10.254,-21.973,-46.875
1683641584.440,-24.414,-17.090,4.395,-46.387
1683641584.442,-21.484,-14.648,25.391,-41.016
1683641584.446,-28.320,-15.137,8.301,-51.758
1683641584.450,-30.273,-15.625,1.953,-55.176
1683641584.454,-31.250,-15.625,9.277,-57.129
1683641584.458,-35.156,-8.789,0.977,-52.246
1683641584.462,-27.832,-3.418,1.953,-38.574
1683641584.466,-33.691,-20.508,-2.930,-46.387
1683641584.469,-41.504,-25.879,-16.602,-48.340
1683641584.473,-37.109,-24.414,-24.414,-42.969
1683641584.477,-22.461,-15.137,-14.160,-39.551
1683641584.481,-7.324,4.883,-8.301,-26.855
1683641584.485,-10.254,-2.441,-20.020,-26.367
1683641584.487,-19.531,-20.996,-26.855,-43.945
1683641584.491,-20.508,-22.461,-15.625,-45.898
1683641584.495,-15.625,-17.090,-6.348,-33.691
1683641584.499,-18.066,-11.230,-0.977,-31.250
1683641584.503,-17.578,-4.395,-2.930,-29.297
1683641584.507,-19.043,-9.277,-16.602,-33.203
1683641584.511,-23.438,-9.277,-10.742,-38.086
1683641584.514,-27.344,-7.324,-2.441,-27.344
1683641584.518,-36.133,-32.715,-13.184,-28.809
1683641584.522,-37.109,-37.598,-21.484,-34.180
1683641584.526,-39.062,-28.809,-23.438,-36.133
1683641584.530,-43.457,-27.344,-16.113,-38.574
1683641584.532,-44.922,-16.602,3.906,-32.715
1683641584.536,-41.992,-18.066,-9.277,-32.715
1683641584.540,-34.180,-27.344,-20.996,-32.227
1683641584.544,-37.598,-22.461,-19.043,-34.180
1683641584.548,-44.922,-36.621,-28.320,-44.434
1683641584.552,-37.598,-38.574,-20.508,-41.016
1683641584.556,-32.715,-24.902,-22.949,-29.785
1683641584.559,-37.598,-38.086,-39.551,-31.250
1683641584.563,-47.852,-46.875,-37.598,-43.457
1683641584.567,-57.617,-42.969,-22.461,-47.363
1683641584.571,-57.129,-29.297,6.836,-37.109
1683641584.575,-51.270,-19.531,14.648,-32.715
1683641584.577,-44.434,-20.020,-2.441,-23.926
1683641584.581,-47.852,-30.762,-26.367,-25.879
1683641584.585,-58.594,-42.969,-31.738,-40.527
1683641584.589,-56.641,-44.434,-15.625,-37.598
1683641584.593,-45.410,-41.992,-21.973,-27.832
1683641584.597,-45.898,-43.945,-35.645,-29.785
1683641584.601,-50.781,-41.016,-32.227,-36.621
1683641584.604,-50.293,-39.551,-21.484,-42.969
1683641584.608,-52.246,-41.992,-10.254,-39.551
1683641584.612,-48.340,-39.551,-5.371,-30.273
1683641584.616,-45.410,-28.320,-8.789,-27.832
1683641584.620,-42.480,-29.785,-16.113,-37.109
1683641584.622,-45.898,-33.691,-30.273,-43.457
1683641584.626,-50.293,-35.156,-29.785,-40.039
1683641584.630,-40.527,-35.645,-4.395,-34.180
1683641584.634,-36.621,-32.715,-5.859,-27.344
1683641584.638,-41.504,-20.508,-31.250,-30.273
1683641584.642,-52.246,-33.203,-38.574,-44.434
1683641584.646,-54.199,-42.969,-39.551,-41.992
1683641584.649,-43.457,-33.691,-21.973,-33.691
1683641584.653,-48.340,-42.480,-2.441,-43.945
1683641584.657,-56.641,-48.828,-7.812,-49.316
1683641584.661,-62.988,-40.527,-22.461,-46.387
1683641584.665,-69.336,-34.668,-28.320,-46.875
1683641584.667,-65.918,-25.879,-10.254,-36.133
1683641584.671,-61.523,-19.531,-1.953,-31.250
1683641584.675,-59.082,-39.551,-6.348,-39.062
1683641584.679,-66.895,-43.945,-21.484,-48.828
1683641584.683,-75.195,-36.133,-27.344,-52.246
1683641584.687,-73.242,-36.133,-15.137,-42.969
1683641584.691,-71.289,-24.902,-14.160,-41.016
1683641584.694,-68.359,-19.043,-11.230,-42.969
1683641584.698,-76.172,-32.227,-4.883,-42.969
1683641584.702,-83.008,-29.297,3.418,-43.945
1683641584.706,-77.637,-24.414,3.418,-39.062
1683641584.710,-74.219,-26.367,-22.461,-31.738
1683641584.727,-79.102,-34.180,-34.668,-34.668
1683641584.731,-79.102,-34.668,-26.367,-38.574
1683641584.735,-71.777,-14.160,-20.020,-38.086
1683641584.739,-62.012,-16.602,-8.789,-29.785
1683641584.743,-55.664,-25.879,3.906,-22.461
1683641584.747,-75.684,-35.156,0.488,-30.762
1683641584.751,-87.402,-46.875,-13.672,-42.480
1683641584.754,-82.031,-49.316,-14.648,-43.945
1683641584.758,-83.984,-38.574,-6.348,-46.387
1683641584.762,-77.637,-28.320,-12.207,-42.480
1683641584.766,-63.965,-35.645,-17.090,-33.203
1683641584.770,-61.523,-32.227,-13.672,-35.645
1683641584.772,-67.871,-28.809,-18.066,-45.410
1683641584.776,-67.383,-25.391,-11.230,-49.805
1683641584.780,-55.176,-11.719,8.789,-35.645
1683641584.784,-45.898,-1.465,7.812,-28.809
1683641584.788,-59.082,-25.879,-4.883,-40.527
1683641584.792,-65.918,-30.762,-9.766,-43.945
1683641584.796,-63.477,-20.508,-6.348,-40.039
1683641584.799,-70.801,-28.320,-3.418,-51.270
1683641584.803,-73.242,-19.043,-17.090,-58.594
1683641584.807,-73.730,-9.766,-24.414,-59.570
1683641584.811,-83.984,-27.344,-27.344,-66.406
1683641584.815,-93.750,-38.086,-20.508,-75.195
1683641584.817,-79.102,-21.484,15.625,-74.219
1683641584.821,-67.871,-17.578,20.996,-72.754
1683641584.825,-81.055,-35.645,0.977,-82.031
1683641584.829,-97.168,-34.180,-17.578,-95.703
1683641584.833,-112.305,-39.062,-22.461,-111.328
1683641584.837,-110.840,-39.551,-3.906,-110.840
1683641584.841,-103.027,-23.438,6.348,-101.562
1683641584.844,-122.070,-39.062,-1.953,-118.652
1683641584.848,-131.348,-45.898,4.883,-124.512
1683641584.852,-126.465,-37.109,20.996,-121.094
1683641584.856,-134.766,-40.039,15.137,-126.465
1683641584.860,-131.348,-32.715,-14.160,-123.535
1683641584.862,-117.188,-20.508,-20.508,-121.094
1683641584.866,-130.859,-43.945,-8.789,-133.301
1683641584.870,-154.297,-55.176,3.906,-145.020
1683641584.874,-155.762,-42.480,19.531,-141.113
1683641584.878,-149.902,-50.781,23.438,-138.672
1683641584.882,-152.832,-48.340,21.973,-139.160
1683641584.886,-153.320,-35.156,8.301,-138.672
1683641584.889,-139.648,-38.086,-5.371,-128.418
1683641584.893,-144.043,-59.082,-25.391,-125.000
1683641584.897,-141.113,-50.781,-19.531,-121.582
1683641584.901,-110.840,-32.227,4.395,-109.863
1683641584.905,-109.863,-52.246,-1.953,-107.910
1683641584.907,-108.398,-57.129,-19.043,-101.074
1683641584.911,-92.773,-39.551,-15.625,-88.379
1683641584.915,-83.008,-33.691,2.930,-77.637
1683641584.919,-59.570,-22.949,15.137,-57.617
1683641584.923,-38.574,-16.113,-16.113,-41.992
1683641584.927,-39.062,-36.621,-43.945,-48.340
1683641584.931,-40.527,-49.316,-23.438,-48.340
1683641584.934,-28.320,-43.945,-14.648,-36.133
1683641584.938,-12.695,-38.574,-24.414,-21.973
1683641584.942,-3.906,-33.691,-37.109,-15.137
1683641584.946,-11.719,-28.809,-24.902,-20.508
1683641584.950,-10.742,-25.391,-8.301,-15.625
1683641584.952,11.719,-9.277,6.348,3.418
1683641584.956,18.066,-10.254,-6.348,15.625
1683641584.960,8.789,-22.949,-43.945,7.324
1683641584.964,7.324,-21.973,-51.758,-1.465
1683641584.968,5.859,-17.578,-36.621,-3.906
1683641584.972,7.812,-10.254,-14.648,-0.488
1683641584.976,14.160,-9.766,-6.348,9.277
1683641584.979,13.184,-18.555,-25.391,15.625
1683641584.983,11.719,-31.738,-34.180,5.371
1683641584.987,0.488,-34.668,-25.879,-5.371
1683641584.991,4.395,-31.250,-25.879,-0.488
1683641584.995,26.855,-21.484,-32.715,12.695
1683641584.997,22.461,-10.254,-27.344,13.672
1683641585.001,7.324,-13.184,-26.855,4.395
1683641585.005,18.066,-11.230,-44.434,8.301
1683641585.009,15.625,-25.879,-29.785,12.207
1683641585.013,19.043,-24.902,-1.465,23.438
1683641585.017,19.531,-21.973,-22.949,20.508
1683641585.021,-4.395,-30.273,-49.805,2.930
1683641585.024,-9.277,-32.227,-38.086,8.301
1683641585.028,0.488,-32.715,-19.043,20.508
1683641585.032,6.348,-22.949,-19.531,22.949
1683641585.036,8.789,-20.508,-26.367,12.207
1683641585.040,2.441,-18.555,-29.297,-2.930
1683641585.042,-9.277,-22.949,-38.574,-2.930
1683641585.046,-13.672,-33.691,-40.039,-2.930
1683641585.050,-12.695,-32.715,-15.137,-5.371
1683641585.054,1.465,-19.531,-7.324,5.859
1683641585.058,6.348,-17.578,-22.949,5.371
1683641585.062,-2.441,-22.461,-31.250,-5.859
1683641585.066,3.418,-9.277,-33.691,0.000
1683641585.069,9.277,-16.113,-29.785,4.395
1683641585.073,9.277,-29.785,-13.184,5.859
1683641585.077,2.441,-26.855,-20.508,-1.953
1683641585.081,-3.906,-23.926,-40.039,-6.836
1683641585.085,-6.836,-19.043,-37.109,-1.953
1683641585.102,-4.395,-20.020,-40.039,-7.324
1683641585.106,4.395,-17.090,-31.250,-8.301
1683641585.110,-4.883,-17.578,-18.066,-12.207
1683641585.114,-16.113,-22.949,-34.180,-17.578
1683641585.118,-12.207,-26.855,-49.316,-13.672
1683641585.122,-6.348,-39.062,-45.898,-8.301
1683641585.126,2.930,-37.598,-41.016,0.977
1683641585.129,5.859,-26.855,-31.738,3.418
1683641585.133,2.930,-28.320,-20.020,-5.859
1683641585.137,0.977,-24.902,-24.414,-11.719
1683641585.141,-5.371,-27.344,-35.156,-9.766
1683641585.145,0.977,-38.086,-34.668,-4.395
1683641585.147,8.789,-31.250,-35.645,-0.488
1683641585.151,-2.441,-33.203,-37.598,-7.324
1683641585.155,-19.531,-36.621,-35.645,-13.672
1683641585.159,-17.578,-24.414,-23.926,-5.859
1683641585.163,-8.301,-25.391,-18.066,1.465
1683641585.167,-2.441,-22.949,-28.320,0.977
1683641585.171,-10.742,-21.973,-36.133,-8.301
1683641585.174,-20.996,-40.527,-40.039,-24.414
1683641585.178,-18.555,-41.504,-27.832,-25.879
1683641585.182,-4.883,-26.855,-20.020,-21.484
1683641585.186,1.465,-20.508,-36.133,-16.602
1683641585.190,-6.348,-29.297,-45.898,-17.578
1683641585.192,-14.648,-34.180,-29.785,-29.297
1683641585.196,-11.230,-25.879,-20.996,-28.809
1683641585.200,-5.859,-15.137,-23.926,-22.949
1683641585.204,-8.301,-13.672,-15.625,-26.367
1683641585.208,-15.625,-31.738,-20.996,-37.109
1683641585.212,-19.531,-42.969,-36.621,-35.156
1683641585.216,-12.695,-39.551,-36.621,-35.156
1683641585.219,-8.301,-29.297,-23.926,-30.762
1683641585.223,-0.488,-21.973,-44.434,-19.043
1683641585.227,3.418,-23.438,-56.152,-20.020
1683641585.231,-7.812,-30.762,-36.133,-26.367
1683641585.235,-1.465,-33.691,-23.926,-22.949
1683641585.237,8.301,-22.949,-22.949,-13.184
1683641585.241,-0.488,-42.480,-39.551,-15.625
1683641585.245,-10.742,-51.270,-51.758,-18.066
1683641585.249,-17.578,-40.527,-35.645,-19.531
1683641585.253,-13.672,-33.691,-24.414,-23.438
1683641585.257,-9.277,-26.367,-32.715,-19.531
1683641585.261,-14.648,-32.227,-31.738,-24.902
1683641585.264,-19.531,-41.992,-40.527,-34.180
1683641585.268,-26.367,-54.199,-48.828,-41.992
1683641585.272,-29.297,-58.594,-41.992,-48.828
1683641585.276,-25.391,-55.176,-36.133,-48.340
1683641585.280,-21.973,-52.246,-41.016,-44.922
1683641585.282,-22.461,-40.527,-54.688,-36.133
1683641585.286,-32.715,-37.109,-60.059,-41.504
1683641585.290,-34.668,-35.156,-39.551,-48.340
1683641585.294,-29.297,-28.320,-14.160,-43.457
1683641585.298,-29.785,-36.133,-10.254,-41.504
1683641585.302,-26.855,-38.574,-25.879,-43.457
1683641585.306,-33.691,-35.645,-44.434,-54.199
1683641585.309,-44.434,-31.250,-59.082,-54.688
1683641585.313,-28.320,-10.254,-36.621,-34.668
1683641585.317,-28.809,-20.996,-3.418,-29.297
1683641585.321,-51.270,-42.969,-8.789,-33.691
1683641585.325,-56.641,-43.457,-25.391,-30.762
1683641585.327,-61.035,-39.551,-34.668,-29.785
1683641585.331,-63.477,-34.180,-24.414,-24.902
1683641585.335,-52.246,-29.297,-15.625,-16.602
1683641585.339,-48.828,-24.414,-18.555,-16.602
1683641585.343,-57.129,-19.043,-35.156,-23.438
1683641585.347,-62.500,-23.438,-23.438,-28.320
1683641585.351,-74.707,-34.668,-3.906,-40.527
1683641585.354,-70.312,-32.715,-7.812,-36.621
1683641585.358,-63.477,-29.297,-24.902,-30.762
1683641585.362,-68.359,-30.273,-41.016,-46.387
1683641585.366,-71.289,-27.832,-33.691,-42.969
1683641585.370,-65.918,-10.742,-31.250,-29.297
1683641585.372,-61.035,-18.555,-41.504,-28.320
1683641585.376,-71.777,-45.898,-38.086,-34.180
1683641585.380,-74.707,-36.133,-20.020,-36.133
1683641585.384,-76.660,-25.391,-16.602,-31.250
1683641585.388,-71.289,-14.648,-17.090,-26.855
1683641585.392,-62.988,-5.859,-3.418,-26.855
1683641585.396,-62.500,-17.578,-6.348,-27.832
1683641585.399,-70.312,-29.785,-28.809,-33.691
1683641585.403,-75.684,-33.691,-30.273,-36.621
1683641585.407,-74.707,-39.062,-25.391,-35.156
1683641585.411,-68.848,-32.715,-37.109,-34.668
1683641585.415,-58.105,-15.137,-18.066,-31.738
1683641585.417,-61.523,-17.578,-2.930,-36.133
1683641585.421,-76.660,-35.645,-9.766,-41.504
1683641585.425,-68.848,-37.598,0.000,-41.992
1683641585.429,-57.129,-32.227,-0.977,-35.156
1683641585.433,-52.734,-24.414,-16.602,-26.367
1683641585.437,-47.363,-12.207,-22.461,-29.297
1683641585.441,-51.758,-23.438,-38.086,-35.645
1683641585.444,-57.617,-37.598,-42.969,-37.598
1683641585.448,-45.898,-30.273,-29.785,-32.227
1683641585.452,-38.086,-28.320,-25.391,-21.484
1683641585.456,-39.551,-12.695,-10.742,-18.066
1683641585.460,-45.898,-9.277,-17.090,-29.785
1683641585.477,-51.270,-23.438,-28.320,-38.086
1683641585.481,-35.645,-16.113,-3.906,-31.738
1683641585.485,-32.227,-19.043,-5.859,-25.879
1683641585.489,-36.621,-15.137,-31.738,-20.020
1683641585.493,-38.574,-15.625,-25.391,-28.809
1683641585.497,-38.574,-21.973,-15.137,-36.621
1683641585.501,-40.039,-18.066,-25.879,-31.250
1683641585.504,-43.945,-24.902,-28.320,-29.297
1683641585.508,-30.273,-17.090,-18.555,-18.066
1683641585.512,-27.344,-21.484,-29.297,-20.508
1683641585.516,-40.039,-23.926,-25.879,-28.320
1683641585.520,-40.039,-23.926,-7.324,-28.320
1683641585.522,-28.320,-26.367,-14.160,-23.438
1683641585.526,-25.391,-22.461,-30.273,-24.414
1683641585.530,-38.574,-24.902,-24.414,-32.715
1683641585.534,-40.527,-18.066,-11.719,-33.691
1683641585.538,-34.668,-17.578,-8.789,-34.180
1683641585.542,-33.203,-26.367,-16.113,-29.785
1683641585.546,-28.809,-20.508,-26.855,-18.555
1683641585.549,-34.180,-20.996,-38.574,-19.043
1683641585.553,-48.828,-39.062,-43.457,-32.227
1683641585.557,-42.969,-26.367,-22.461,-26.855
1683641585.561,-24.414,-5.859,-3.906,-13.672
1683641585.565,-22.949,-20.020,-4.883,-16.113
1683641585.567,-21.973,-25.879,-19.043,-21.484
1683641585.571,-23.438,-22.949,-30.273,-25.391
1683641585.575,-23.926,-29.297,-35.156,-28.320
1683641585.579,-20.996,-31.250,-33.203,-22.461
1683641585.583,-21.484,-17.090,-18.555,-21.973
1683641585.587,-21.484,-15.137,-23.926,-27.344
1683641585.591,-28.809,-24.414,-46.875,-32.227
1683641585.594,-35.645,-24.902,-37.598,-34.180
1683641585.598,-28.320,-36.621,-23.438,-29.785
1683641585.602,-9.277,-35.156,-15.625,-29.297
1683641585.606,-9.277,-24.902,-20.996,-33.691
1683641585.610,-27.832,-21.484,-29.785,-37.598
1683641585.612,-29.297,-15.137,-17.578,-34.180
1683641585.616,-30.762,-26.855,-19.531,-31.250
1683641585.620,-31.250,-33.691,-34.668,-23.438
1683641585.624,-28.809,-30.273,-45.898,-23.926
1683641585.628,-39.062,-37.598,-36.133,-42.480
1683641585.632,-42.480,-33.691,-13.672,-48.828
1683641585.636,-37.109,-25.879,-5.371,-39.062
1683641585.639,-28.809,-23.926,-6.348,-30.273
1683641585.643,-23.926,-17.578,-18.066,-29.785
1683641585.647,-39.062,-19.043,-37.109,-37.109
1683641585.651,-51.270,-42.480,-30.762,-43.457
1683641585.655,-45.410,-58.594,-22.461,-38.086
1683641585.657,-27.832,-45.410,-32.715,-27.832
1683641585.661,-19.043,-23.926,-40.039,-20.508
1683641585.665,-24.414,-20.508,-37.109,-24.902
1683641585.669,-29.297,-28.809,-17.578,-30.762
1683641585.673,-16.113,-23.438,-8.301,-25.879
1683641585.677,-2.930,-14.648,-17.578,-26.855
1683641585.681,-3.906,-10.254,-21.973,-30.762
1683641585.684,-11.230,-16.602,-38.574,-38.574
1683641585.688,-15.137,-39.551,-48.340,-52.246
1683641585.692,-18.066,-52.246,-54.688,-52.734
1683641585.696,-9.277,-39.062,-51.270,-36.621
1683641585.700,-8.789,-29.297,-30.273,-32.227
1683641585.702,-20.996,-35.645,-21.973,-46.387
1683641585.706,-15.625,-43.945,-17.090,-52.246
1683641585.710,-11.230,-46.387,-19.043,-50.293
1683641585.714,-14.160,-32.715,-21.973,-42.480
1683641585.718,-6.348,-14.160,-29.785,-30.762
1683641585.722,-5.371,-26.855,-48.340,-33.203
1683641585.726,-19.531,-33.691,-56.152,-42.480
1683641585.729,-30.273,-30.273,-36.133,-48.340
1683641585.733,-28.320,-39.551,-6.348,-46.387
1683641585.737,-21.484,-36.621,-15.625,-45.410
1683641585.741,-18.555,-28.809,-35.156,-44.922
1683641585.745,-22.949,-34.180,-28.809,-45.898
1683641585.747,-23.438,-36.133,-17.578,-52.246
1683641585.751,-20.508,-32.227,-14.648,-47.852
1683641585.755,-14.648,-27.344,-17.578,-36.133
1683641585.759,-18.066,-27.832,-41.504,-35.156
1683641585.763,-33.691,-50.293,-61.035,-41.016
1683641585.767,-36.621,-49.805,-46.387,-39.551
1683641585.771,-30.273,-36.133,-37.598,-38.086
1683641585.774,-20.020,-30.762,-38.086,-41.016
1683641585.778,-13.184,-20.508,-27.832,-37.598
1683641585.782,-14.160,-29.785,-26.855,-45.898
1683641585.786,-7.812,-39.062,-25.391,-51.758
1683641585.790,0.977,-40.039,-18.555,-40.527
1683641585.792,11.719,-30.273,-15.137,-28.809
1683641585.796,18.066,-24.414,-20.508,-20.996
1683641585.800,-0.488,-33.691,-28.809,-24.414
1683641585.804,-24.902,-41.504,-41.504,-34.180
1683641585.808,-31.250,-35.645,-54.199,-39.062
1683641585.812,-28.320,-31.250,-42.480,-34.668
1683641585.816,-26.367,-44.922,-24.902,-42.969
1683641585.819,-28.809,-53.223,-25.391,-49.316
1683641585.823,-27.832,-38.574,-27.344,-43.457
1683641585.827,-22.461,-28.809,-19.531,-41.992
1683641585.831,-12.695,-26.367,-4.395,-36.133
1683641585.835,-6.348,-24.414,-8.789,-29.297
1683641585.852,-13.672,-28.320,-32.715,-31.250
1683641585.856,-17.578,-36.133,-40.527,-36.133
1683641585.860,-18.555,-46.875,-40.527,-40.527
1683641585.864,-18.555,-41.504,-23.926,-32.227
1683641585.868,-12.207,-35.645,-14.648,-22.949
1683641585.872,-6.836,-24.414,-30.273,-26.367
1683641585.876,-13.672,-30.762,-35.645,-37.598
1683641585.879,-4.883,-38.574,-22.461,-36.621
1683641585.883,0.000,-32.227,-20.996,-34.668
1683641585.887,-7.324,-27.344,-34.668,-39.062
1683641585.891,-13.184,-36.621,-37.109,-41.016
1683641585.895,-19.531,-39.551,-36.133,-42.969
1683641585.897,-10.742,-32.715,-45.898,-34.668
1683641585.901,-1.953,-22.461,-39.062,-26.367
1683641585.905,-7.324,-26.367,-25.391,-25.391
1683641585.909,-12.695,-35.645,-19.531,-25.879
1683641585.913,-16.602,-38.574,-41.504,-31.250
1683641585.917,-23.438,-44.434,-49.805,-33.203
1683641585.921,-22.949,-40.527,-25.879,-31.250
1683641585.924,-17.578,-36.133,-20.996,-33.203
1683641585.928,-20.996,-43.457,-38.086,-34.668
1683641585.932,-22.461,-51.270,-50.781,-33.691
1683641585.936,-26.855,-50.781,-47.852,-35.156
1683641585.940,-23.438,-41.992,-39.551,-30.273
1683641585.942,-13.672,-30.762,-36.621,-22.461
1683641585.946,-19.043,-34.180,-40.039,-23.926
1683641585.950,-20.508,-34.668,-43.945,-30.762
1683641585.954,-21.973,-35.156,-44.922,-34.668
1683641585.958,-27.832,-44.922,-42.480,-34.668
1683641585.962,-19.531,-38.574,-32.715,-31.250
1683641585.966,-21.973,-33.691,-49.805,-37.598
1683641585.969,-35.645,-51.758,-65.430,-48.828
1683641585.973,-34.180,-45.898,-37.109,-42.480
1683641585.977,-37.598,-33.203,-27.832,-36.133
1683641585.981,-36.621,-34.668,-38.086,-30.762
1683641585.985,-32.715,-35.156,-39.551,-27.344
1683641585.987,-33.691,-35.645,-31.250,-26.855
1683641585.991,-41.016,-39.551,-31.738,-28.320
1683641585.995,-45.410,-46.387,-38.086,-34.180
1683641585.999,-40.527,-34.668,-31.738,-29.785
1683641586.003,-48.340,-33.203,-37.109,-29.297
1683641586.007,-60.059,-36.621,-47.363,-41.016
1683641586.011,-57.129,-26.855,-42.969,-46.387
1683641586.014,-54.688,-33.691,-35.645,-35.645
1683641586.018,-54.688,-37.598,-41.016,-28.320
1683641586.022,-49.805,-33.203,-39.062,-32.227
1683641586.026,-47.363,-36.133,-44.922,-30.273
1683641586.030,-49.805,-29.785,-44.922,-31.738
1683641586.032,-56.641,-23.438,-26.367,-38.086
1683641586.036,-58.105,-33.203,-32.715,-34.668
1683641586.040,-52.246,-29.297,-30.273,-28.320
1683641586.044,-60.547,-27.832,-26.855,-39.062
1683641586.048,-73.242,-42.480,-42.969,-49.805
1683641586.052,-68.359,-37.598,-30.762,-45.410
1683641586.056,-54.688,-22.461,-16.602,-37.109
1683641586.059,-45.410,-20.020,-21.484,-26.855
1683641586.063,-45.410,-24.902,-25.391,-21.973
1683641586.067,-58.594,-40.039,-37.109,-32.227
1683641586.071,-61.523,-44.922,-41.016,-40.527
1683641586.075,-54.199,-38.086,-26.855,-29.297
1683641586.077,-48.340,-30.273,-26.855,-15.625
1683641586.081,-55.176,-22.949,-37.109,-24.902
1683641586.085,-69.824,-32.227,-39.551,-42.969
1683641586.089,-63.965,-39.062,-37.598,-45.898
1683641586.093,-57.617,-41.992,-27.832,-46.387
1683641586.097,-61.035,-33.203,-26.855,-41.016
1683641586.101,-62.012,-23.926,-47.852,-34.180
1683641586.104,-66.895,-33.203,-59.082,-41.016
1683641586.108,-75.195,-44.922,-30.762,-49.805
1683641586.112,-76.172,-47.363,-6.348,-50.781
1683641586.116,-65.430,-33.691,0.488,-38.086
1683641586.120,-59.570,-24.414,-8.789,-30.273
1683641586.122,-62.988,-23.438,-27.344,-31.738
1683641586.126,-70.312,-39.062,-36.621,-35.156
1683641586.130,-72.754,-47.852,-37.109,-38.086
1683641586.134,-73.242,-46.875,-26.855,-34.668
1683641586.138,-71.289,-38.574,-35.156,-26.855
1683641586.142,-64.941,-24.414,-45.410,-25.879
1683641586.146,-70.801,-28.809,-37.598,-38.574
1683641586.149,-72.266,-31.738,-22.949,-45.410
1683641586.153,-61.035,-31.738,-9.277,-40.527
1683641586.157,-65.430,-42.480,-13.184,-38.574
1683641586.161,-63.965,-43.457,-32.227,-37.109
1683641586.165,-52.734,-38.086,-55.176,-34.180
1683641586.167,-50.293,-34.180,-41.504,-37.109
1683641586.171,-43.457,-33.691,-15.137,-35.645
1683641586.175,-35.156,-34.668,-16.113,-32.715
1683641586.179,-42.969,-36.133,-19.531,-38.086
1683641586.183,-45.898,-30.273,-25.391,-43.457
1683641586.187,-44.922,-19.531,-25.391,-38.574
1683641586.191,-39.062,-20.020,-19.043,-29.297
1683641586.194,-32.715,-22.949,-22.461,-27.344
1683641586.198,-42.969,-30.762,-32.715,-35.645
1683641586.202,-49.316,-39.551,-48.828,-42.969
1683641586.206,-39.551,-33.691,-41.504,-42.969
1683641586.210,-31.738,-22.949,-11.230,-38.574
1683641586.227,-28.809,-22.949,0.977,-38.086
1683641586.231,-34.180,-36.133,-8.301,-38.086
1683641586.235,-29.785,-41.504,-25.391,-32.715
1683641586.239,-27.832,-41.016,-38.574,-36.133
1683641586.243,-27.344,-38.574,-24.414,-33.203
1683641586.247,-19.043,-24.902,-5.859,-24.902
1683641586.251,-30.273,-20.508,-16.113,-34.180
1683641586.254,-36.621,-29.785,-31.250,-42.480
1683641586.258,-32.227,-37.598,-34.668,-41.992
1683641586.262,-33.203,-45.410,-15.137,-44.922
1683641586.266,-25.879,-41.016,2.441,-38.574
1683641586.270,-27.344,-34.180,-19.531,-37.598
1683641586.272,-29.785,-24.902,-39.062,-35.645
1683641586.276,-35.156,-29.297,-25.391,-35.156
1683641586.280,-30.762,-35.645,-13.184,-32.227
1683641586.284,-25.879,-42.969,-22.949,-33.691
1683641586.288,-32.715,-45.898,-25.391,-43.945
1683641586.292,-38.086,-38.086,-29.297,-45.410
1683641586.296,-46.387,-33.203,-38.574,-43.457
1683641586.299,-39.062,-29.785,-39.551,-39.062
1683641586.303,-26.855,-26.855,-37.109,-32.715
1683641586.307,-24.902,-27.832,-31.738,-31.738
1683641586.311,-25.879,-32.227,-28.320,-35.645
1683641586.315,-34.668,-36.621,-21.973,-40.527
1683641586.317,-39.551,-31.250,-14.648,-32.715
1683641586.321,-35.156,-36.621,-23.926,-34.180
1683641586.325,-28.320,-33.691,-35.156,-33.691
1683641586.329,-31.250,-18.066,-46.387,-29.297
1683641586.333,-37.598,-25.391,-42.480,-40.039
1683641586.337,-33.203,-32.715,-16.113,-42.480
1683641586.341,-39.062,-38.086,-10.254,-36.621
1683641586.344,-41.016,-35.156,-21.484,-34.180
1683641586.348,-33.691,-31.250,-30.273,-34.668
1683641586.352,-35.156,-33.691,-31.250,-46.875
1683641586.356,-27.832,-21.973,-21.484,-41.992
1683641586.360,-21.484,-16.602,-22.461,-29.785
1683641586.362,-25.879,-30.273,-44.434,-36.133
1683641586.366,-31.738,-37.109,-39.551,-38.086
1683641586.370,-27.832,-35.645,-12.695,-38.086
1683641586.374,-25.879,-36.621,-8.789,-39.551
1683641586.378,-23.926,-32.715,-19.043,-35.156
1683641586.382,-16.602,-30.762,-18.555,-29.297
1683641586.386,-18.555,-33.691,-22.461,-24.902
1683641586.389,-18.555,-28.809,-33.203,-32.715
1683641586.393,-15.625,-33.691,-37.109,-40.527
1683641586.397,-14.160,-41.504,-27.344,-28.320
1683641586.401,-8.301,-32.227,-21.973,-18.066
1683641586.405,-19.531,-28.320,-31.250,-18.066
1683641586.407,-30.762,-21.973,-41.504,-20.020
1683641586.411,-24.414,-28.320,-40.039,-25.391
1683641586.415,-16.113,-36.133,-23.926,-20.020
1683641586.419,-10.254,-26.855,-22.461,-11.719
1683641586.423,-3.418,-17.090,-38.574,-11.719
1683641586.427,-11.230,-21.973,-46.875,-16.113
1683641586.431,-25.879,-35.645,-38.574,-27.344
1683641586.434,-25.879,-36.133,-18.555,-27.832
1683641586.438,-15.625,-28.320,-12.207,-16.602
1683641586.442,-8.789,-32.715,-31.738,-13.184
1683641586.446,-17.090,-32.227,-33.203,-24.414
1683641586.450,-32.715,-29.785,-30.762,-31.250
1683641586.452,-28.320,-32.227,-19.043,-24.902
1683641586.456,-14.648,-25.879,-11.230,-20.020
1683641586.460,-12.695,-26.855,-25.879,-18.066
1683641586.464,-18.066,-34.180,-32.715,-23.438
1683641586.468,-18.555,-42.969,-41.016,-34.180
1683641586.472,-8.301,-31.738,-55.176,-28.809
1683641586.476,3.418,-13.672,-44.434,-21.484
1683641586.479,-5.371,-26.367,-22.461,-30.273
1683641586.483,-10.254,-31.250,-17.578,-30.762
1683641586.487,-11.719,-27.832,-33.203,-28.320
1683641586.491,-15.625,-30.762,-37.109,-28.809
1683641586.495,-14.648,-20.508,-24.902,-22.461
1683641586.497,-19.043,-18.066,-20.020,-18.555
1683641586.501,-24.902,-26.855,-35.156,-23.438
1683641586.505,-36.621,-32.227,-47.852,-37.598
1683641586.509,-33.691,-30.762,-40.039,-36.133
1683641586.513,-20.996,-23.926,-38.574,-23.438
1683641586.517,-25.879,-27.344,-23.926,-32.715
1683641586.521,-37.598,-39.062,-23.438,-48.828
1683641586.524,-39.551,-41.016,-36.133,-55.176
1683641586.528,-37.109,-29.785,-32.227,-52.734
1683641586.532,-26.367,-25.879,-24.902,-40.527
1683641586.536,-16.113,-21.973,-21.973,-30.762
1683641586.540,-15.137,-25.879,-30.273,-35.645
1683641586.542,-28.320,-44.434,-42.480,-42.480
1683641586.546,-27.344,-43.945,-55.664,-36.133
1683641586.550,-20.020,-33.691,-42.969,-28.809
1683641586.554,-21.484,-26.855,-19.043,-28.320
1683641586.558,-17.090,-23.926,-22.461,-37.598
1683641586.562,-23.926,-34.668,-25.879,-39.062
1683641586.566,-31.738,-42.480,-17.090,-31.738
1683641586.569,-38.086,-39.062,-19.531,-30.273
1683641586.573,-36.133,-33.691,-35.645,-24.902
1683641586.577,-32.715,-38.086,-38.574,-22.949
1683641586.581,-45.898,-44.922,-46.875,-36.133
1683641586.585,-44.434,-25.391,-53.223,-34.668
1683641586.602,-29.785,-29.297,-18.066,-24.902
1683641586.606,-23.926,-38.574,0.000,-23.438
1683641586.610,-20.508,-25.391,-20.508,-21.484
1683641586.614,-28.320,-28.809,-41.992,-33.203
1683641586.618,-34.180,-41.016,-37.598,-40.527
1683641586.622,-20.508,-18.066,-23.438,-24.414
1683641586.626,-16.113,-20.020,-29.785,-19.043
1683641586.629,-27.344,-57.129,-42.480,-30.273
1683641586.633,-33.203,-54.688,-42.969,-36.621
1683641586.637,-32.227,-39.062,-48.340,-36.621
1683641586.641,-27.344,-27.832,-46.875,-29.785
1683641586.645,-27.832,-34.668,-28.809,-26.855
1683641586.647,-33.691,-48.340,-18.555,-32.715
1683641586.651,-42.969,-41.504,-20.020,-37.109
1683641586.655,-38.574,-39.062,-23.926,-34.180
1683641586.659,-28.320,-42.969,-30.273,-27.344
1683641586.663,-29.785,-30.762,-33.691,-22.461
1683641586.667,-37.598,-31.250,-34.180,-28.809
1683641586.671,-48.340,-34.180,-36.133,-41.992
1683641586.674,-58.105,-36.133,-32.715,-47.363
1683641586.678,-58.105,-42.480,-43.457,-39.551
1683641586.682,-47.363,-32.227,-50.293,-30.762
1683641586.686,-41.992,-22.949,-28.320,-29.297
1683641586.690,-53.223,-29.297,-26.855,-36.621
1683641586.692,-70.312,-42.480,-38.086,-46.875
1683641586.696,-71.777,-34.180,-30.273,-45.898
1683641586.700,-68.848,-21.973,-19.531,-39.551
1683641586.704,-70.801,-24.902,-26.367,-36.621
1683641586.708,-79.102,-29.785,-39.551,-35.156
1683641586.712,-93.750,-36.621,-58.105,-42.969
1683641586.716,-95.703,-38.574,-49.805,-47.363
1683641586.719,-93.750,-32.227,-25.879,-51.758
1683641586.723,-102.539,-39.062,-26.367,-59.570
1683641586.727,-110.840,-44.922,-33.691,-63.477
1683641586.731,-118.652,-42.969,-38.574,-75.195
1683641586.735,-123.535,-36.133,-48.828,-86.914
1683641586.737,-116.699,-17.090,-43.945,-83.984
1683641586.741,-130.371,-21.484,-22.461,-89.355
1683641586.745,-144.043,-37.109,-34.180,-97.168
1683641586.749,-153.809,-27.832,-40.039,-112.305
1683641586.753,-180.176,-34.668,-26.367,-142.578
1683641586.757,-191.406,-39.551,-16.113,-145.020
1683641586.761,-193.848,-19.531,-24.902,-144.043
1683641586.764,-198.242,-13.184,-44.434,-159.180
1683641586.768,-214.355,-27.832,-31.250,-171.387
1683641586.772,-227.539,-39.551,-18.555,-185.059
1683641586.776,-218.262,-28.809,-10.254,-183.594
1683641586.780,-209.473,-9.277,3.906,-178.223
1683641586.782,-210.449,-17.578,-9.277,-183.594
1683641586.786,-214.355,-28.809,-23.926,-182.617
1683641586.790,-220.703,-24.902,-30.762,-187.500
1683641586.794,-217.773,-25.879,-30.762,-193.848
1683641586.798,-202.148,-32.715,-23.438,-183.105
1683641586.802,-193.848,-25.879,-30.762,-173.828
1683641586.806,-203.613,-18.555,-40.527,-181.641
1683641586.809,-203.125,-28.320,-25.391,-181.152
1683641586.813,-187.012,-34.668,-6.836,-168.457
1683641586.817,-180.664,-43.945,-18.066,-154.297
1683641586.821,-179.688,-44.922,-26.855,-152.832
1683641586.825,-159.180,-24.414,-23.438,-145.508
1683641586.827,-147.949,-18.555,-23.438,-135.742
1683641586.831,-150.879,-37.109,-13.184,-132.324
1683641586.835,-136.230,-40.527,-6.348,-115.234
1683641586.839,-114.746,-28.320,-22.949,-100.586
1683641586.843,-102.051,-25.879,-39.062,-86.914
1683641586.847,-101.074,-40.039,-42.480,-83.008
1683641586.851,-96.191,-37.598,-27.832,-78.613
1683641586.854,-76.660,-32.227,-18.555,-58.105
1683641586.858,-60.059,-28.320,-20.508,-37.109
1683641586.862,-60.547,-38.086,-37.109,-33.203
1683641586.866,-53.223,-44.922,-42.480,-31.250
1683641586.870,-44.434,-40.527,-29.297,-30.273
1683641586.872,-41.016,-43.457,-20.508,-31.250
1683641586.876,-27.832,-39.551,-25.879,-23.438
1683641586.880,-24.902,-41.992,-38.574,-20.508
1683641586.884,-27.344,-40.527,-41.504,-22.949
1683641586.888,-17.090,-42.969,-42.480,-14.160
1683641586.892,-0.488,-41.992,-33.691,-0.488
1683641586.896,-0.977,-39.551,-37.109,4.395
1683641586.899,2.930,-35.156,-42.969,9.277
1683641586.903,4.395,-31.250,-43.945,6.836
1683641586.907,-0.488,-31.738,-48.340,6.836
1683641586.911,6.348,-42.480,-52.734,13.672
1683641586.915,11.719,-49.805,-51.270,17.578
1683641586.917,17.090,-36.621,-53.223,20.508
1683641586.921,16.602,-30.762,-43.945,19.531
1683641586.925,14.648,-28.809,-39.551,15.137
1683641586.929,19.531,-35.156,-49.805,19.531
1683641586.933,20.508,-43.457,-32.715,25.879
1683641586.937,15.625,-38.086,-25.391,22.461
1683641586.941,8.789,-33.203,-37.109,15.137
1683641586.944,7.324,-34.180,-41.504,10.254
1683641586.948,5.859,-37.109,-43.457,11.719
1683641586.952,9.277,-24.414,-37.598,20.020
1683641586.956,18.555,-18.555,-34.668,15.625
1683641586.960,15.137,-23.926,-49.316,9.277
1683641586.977,8.789,-29.785,-52.246,8.301
1683641586.981,10.742,-31.250,-40.527,9.766
1683641586.985,20.996,-24.902,-38.086,16.113
1683641586.989,30.762,-20.020,-42.480,21.973
1683641586.993,19.043,-35.156,-45.410,11.230
1683641586.997,8.301,-44.434,-48.828,1.465
1683641587.001,12.695,-32.227,-41.992,9.766
1683641587.004,18.066,-26.367,-31.738,14.160
1683641587.008,20.508,-22.949,-20.020,18.066
1683641587.012,20.996,-26.855,-40.039,12.207
1683641587.016,19.043,-22.461,-67.383,10.254
1683641587.020,10.254,-18.066,-62.012,10.254
1683641587.022,9.766,-26.367,-38.086,8.301
1683641587.026,13.672,-24.902,-22.461,9.766
1683641587.030,5.371,-31.250,-34.668,1.953
1683641587.034,-2.441,-31.250,-45.898,-6.348
1683641587.038,3.906,-18.555,-44.434,-7.812
1683641587.042,8.301,-26.855,-43.457,-3.418
1683641587.046,9.766,-29.785,-33.691,4.395
1683641587.049,14.648,-21.973,-21.484,5.371
1683641587.053,20.020,-24.902,-37.598,2.441
1683641587.057,12.695,-40.527,-49.316,-0.488
1683641587.061,13.184,-37.109,-33.691,3.418
1683641587.065,20.996,-20.020,-35.645,5.859
1683641587.067,13.672,-8.301,-47.363,5.371
1683641587.071,4.395,-17.090,-39.551,6.836
1683641587.075,1.465,-32.227,-25.879,1.953
1683641587.079,12.207,-27.832,-25.391,5.371
1683641587.083,18.066,-22.949,-30.273,7.324
1683641587.087,20.508,-16.602,-28.809,2.930
1683641587.091,16.602,-16.113,-39.551,-4.883
1683641587.094,-2.930,-34.180,-47.363,-20.996
1683641587.098,-3.418,-28.320,-43.457,-21.973
1683641587.102,10.742,-22.949,-38.086,-13.184
1683641587.106,17.090,-26.367,-51.758,-10.742
1683641587.110,7.812,-34.180,-62.988,-20.996
1683641587.112,3.418,-30.762,-52.734,-22.461
1683641587.116,8.301,-27.344,-45.410,-15.137
1683641587.120,14.648,-26.855,-33.203,-10.742
1683641587.124,16.113,-22.461,-31.250,-15.137
1683641587.128,5.371,-26.855,-49.805,-23.438
1683641587.132,0.000,-25.879,-46.387,-24.414
1683641587.136,4.883,-32.227,-15.625,-24.414
1683641587.139,4.883,-34.180,-16.113,-20.996
1683641587.143,5.371,-30.762,-33.691,-19.531
1683641587.147,0.977,-29.785,-51.758,-24.902
1683641587.151,-1.465,-33.691,-45.898,-27.832
1683641587.155,2.930,-35.645,-34.668,-24.414
1683641587.157,5.371,-35.156,-42.480,-24.414
1683641587.161,20.020,-17.578,-42.969,-12.207
1683641587.165,22.461,-14.160,-35.156,-20.508
1683641587.169,8.301,-28.320,-29.785,-41.992
1683641587.173,16.602,-29.785,-28.809,-37.109
1683641587.177,41.992,-18.555,-37.109,-17.090
1683641587.181,39.551,-20.508,-31.738,-6.836
1683641587.184,5.859,-49.805,-42.969,-31.250
1683641587.188,-10.742,-40.039,-52.246,-39.551
1683641587.192,-10.742,-31.250,-34.180,-28.809
1683641587.196,-14.648,-50.293,-24.414,-28.809
1683641587.200,-20.020,-50.293,-26.855,-26.855
1683641587.202,-22.949,-39.551,-35.645,-22.949
1683641587.206,-21.484,-28.809,-41.992,-24.902
1683641587.210,-26.367,-43.457,-35.645,-31.250
1683641587.214,-22.461,-41.016,-8.789,-22.461
1683641587.218,-14.160,-33.203,-3.418,-13.672
1683641587.222,-16.113,-35.645,-18.066,-18.555
1683641587.226,-24.414,-39.062,-40.039,-25.391
1683641587.229,-24.902,-41.992,-57.129,-36.133
1683641587.233,-20.508,-47.363,-40.039,-45.410
1683641587.237,-11.719,-35.156,-36.621,-42.480
1683641587.241,-11.719,-28.809,-62.012,-34.668
1683641587.245,-19.043,-35.645,-55.664,-40.039
1683641587.247,-23.926,-37.598,-31.738,-48.340
1683641587.251,-26.855,-54.688,-26.367,-44.922
1683641587.255,-19.531,-60.059,-29.297,-36.621
1683641587.259,-12.695,-56.641,-56.641,-29.785
1683641587.263,-15.137,-44.434,-62.012,-29.297
1683641587.267,-21.973,-35.645,-35.645,-36.621
1683641587.271,-25.879,-48.340,-27.832,-35.156
1683641587.274,-28.320,-48.828,-33.203,-34.180
1683641587.278,-31.250,-41.016,-39.062,-39.062
1683641587.282,-30.273,-48.340,-52.246,-41.504
1683641587.286,-37.109,-48.828,-52.246,-40.039
1683641587.290,-32.227,-38.086,-41.504,-27.832
1683641587.247,-23.926,-37.598,-31.738,-48.340
1683641587.251,-26.855,-54.688,-26.367,-44.922
1683641587.255,-19.531,-60.059,-29.297,-36.621
1683641587.259,-12.695,-56.641,-56.641,-29.785
1683641587.263,-15.137,-44.434,-62.012,-29.297
1683641587.267,-21.973,-35.645,-35.645,-36.621
1683641587.271,-25.879,-48.340,-27.832,-35.156
1683641587.274,-28.320,-48.828,-33.203,-34.180
1683641587.278,-31.250,-41.016,-39.062,-39.062
1683641587.282,-30.273,-48.340,-52.246,-41.504
1683641587.286,-37.109,-48.828,-52.246,-40.039
1683641587.290,-32.227,-38.086,-41.504,-27.832
1683641587.292,-25.391,-44.434,-40.039,-20.020
1683641587.296,-40.527,-56.641,-41.504,-29.785
1683641587.300,-45.898,-46.387,-48.828,-35.156
1683641587.304,-45.898,-42.969,-64.453,-38.574
1683641587.308,-28.809,-36.621,-37.598,-30.762
1683641587.312,-21.973,-33.691,-24.902,-21.973
1683641587.316,-27.344,-46.875,-54.199,-27.832
1683641587.319,-25.391,-40.527,-58.594,-28.809
1683641587.323,-29.297,-43.457,-43.945,-36.133
1683641587.327,-33.203,-49.316,-36.621,-40.527
1683641587.331,-32.227,-39.551,-36.621,-30.762
1683641587.335,-23.926,-28.809,-41.016,-22.461
1683641587.352,-24.902,-30.273,-52.246,-26.367
1683641587.356,-29.785,-40.039,-57.129,-30.273
1683641587.360,-34.180,-41.504,-47.363,-31.250
1683641587.364,-44.434,-38.574,-22.949,-30.273
1683641587.368,-52.246,-36.133,-18.066,-31.738
1683641587.372,-57.617,-37.598,-32.715,-36.621
1683641587.376,-54.688,-27.344,-39.062,-35.156
1683641587.379,-54.199,-19.531,-38.574,-37.109
1683641587.383,-54.688,-30.273,-38.086,-32.227
1683641587.387,-46.387,-37.109,-42.969,-21.973
1683641587.391,-55.176,-25.391,-45.898,-20.996
1683641587.395,-63.477,-18.555,-57.129,-28.320
1683641587.397,-71.777,-39.551,-54.199,-43.457
1683641587.401,-75.684,-42.480,-29.297,-39.551
1683641587.405,-63.477,-28.320,-13.672,-31.738
1683641587.409,-71.777,-32.227,-24.414,-36.133
1683641587.413,-81.543,-30.273,-47.363,-37.109
1683641587.417,-82.520,-30.762,-50.781,-44.922
1683641587.421,-75.684,-36.621,-33.691,-41.992
1683641587.424,-66.406,-29.297,-30.273,-29.785
1683641587.428,-63.965,-32.227,-48.828,-28.809
1683641587.432,-71.289,-32.715,-62.500,-34.180
1683641587.436,-77.637,-33.691,-50.293,-38.086
1683641587.440,-70.801,-30.762,-23.438,-34.180
1683641587.442,-65.918,-23.438,-15.137,-27.832
1683641587.446,-66.406,-28.809,-32.227,-26.367
1683641587.450,-74.707,-33.203,-45.410,-35.156
1683641587.454,-75.684,-35.156,-42.969,-38.086
1683641587.458,-74.707,-43.457,-40.039,-36.621
1683641587.462,-68.848,-35.156,-35.156,-29.297
1683641587.466,-58.105,-21.973,-34.668,-21.973
1683641587.469,-60.547,-23.926,-38.574,-24.902
1683641587.473,-68.359,-38.574,-57.129,-34.668
1683641587.477,-65.430,-36.621,-40.039,-26.855
1683641587.481,-57.129,-24.902,-11.230,-24.414
1683641587.485,-48.828,-20.508,-20.020,-25.391
1683641587.487,-51.758,-25.879,-30.762,-29.297
1683641587.491,-56.641,-36.133,-33.203,-34.668
1683641587.495,-52.246,-30.762,-23.438,-31.250
1683641587.499,-53.223,-26.367,-19.043,-28.809
1683641587.503,-54.199,-22.949,-22.461,-25.391
1683641587.507,-50.781,-26.367,-31.250,-30.273
1683641587.511,-46.875,-26.855,-41.016,-32.227
1683641587.514,-45.410,-22.461,-42.969,-28.320
1683641587.518,-32.715,-20.020,-28.809,-10.742
1683641587.522,-25.391,-12.695,-15.625,-9.277
1683641587.526,-35.645,-20.020,-27.832,-26.367
1683641587.530,-44.434,-38.086,-36.133,-35.156
1683641587.532,-47.363,-37.598,-24.902,-36.133
1683641587.536,-40.527,-35.645,-24.414,-30.762
1683641587.540,-41.016,-40.039,-36.621,-36.133
1683641587.544,-47.363,-36.621,-44.434,-41.992
1683641587.548,-42.480,-29.785,-50.781,-37.109
1683641587.552,-42.480,-33.691,-42.480,-39.551
1683641587.556,-39.551,-37.598,-14.648,-45.410
1683641587.559,-29.785,-44.434,-7.324,-41.992
1683641587.563,-21.973,-41.504,-26.855,-40.527
1683641587.567,-16.602,-33.203,-53.223,-38.574
1683641587.571,-20.020,-21.484,-52.246,-41.504
1683641587.575,-23.926,-24.414,-27.832,-44.922
1683641587.577,-19.531,-36.621,-27.832,-36.133
1683641587.581,-21.484,-33.203,-39.062,-37.109
1683641587.585,-27.832,-33.691,-49.316,-45.898
1683641587.589,-33.203,-39.062,-49.805,-47.852
1683641587.593,-32.715,-39.062,-35.156,-40.039
1683641587.597,-23.926,-27.832,-21.973,-31.738
1683641587.601,-23.438,-24.414,-32.227,-31.738
1683641587.604,-29.297,-33.203,-47.363,-35.645
1683641587.608,-36.133,-41.504,-49.316,-41.992
1683641587.612,-31.250,-34.668,-43.945,-35.156
1683641587.616,-18.555,-20.996,-22.949,-24.902
1683641587.620,-19.043,-20.996,-17.578,-26.367
1683641587.622,-27.832,-32.227,-41.992,-39.551
1683641587.626,-34.668,-38.086,-50.781,-48.828
1683641587.630,-44.434,-44.434,-32.227,-51.270
1683641587.634,-35.645,-40.527,-19.531,-44.434
1683641587.638,-24.902,-37.109,-22.949,-36.133
1683641587.642,-32.227,-41.992,-40.527,-40.527
1683641587.646,-43.457,-36.133,-48.828,-45.898
1683641587.649,-41.504,-31.250,-32.715,-44.922
1683641587.653,-33.691,-21.973,-35.156,-33.691
1683641587.657,-36.133,-28.809,-41.504,-35.156
1683641587.661,-39.062,-37.109,-36.621,-42.969
1683641587.665,-43.457,-28.320,-39.062,-45.898
1683641587.667,-38.574,-23.438,-33.691,-40.527
1683641587.671,-29.297,-25.391,-21.973,-35.156
1683641587.675,-33.691,-24.902,-19.531,-31.738
1683641587.679,-30.762,-31.250,-45.898,-27.832
1683641587.683,-34.668,-45.898,-56.641,-38.574
1683641587.687,-41.504,-42.969,-44.922,-46.875
1683641587.691,-29.785,-21.973,-52.246,-32.227
1683641587.694,-21.973,-18.555,-43.457,-23.926
1683641587.698,-26.367,-31.738,-45.898,-36.133
1683641587.702,-37.109,-35.156,-60.059,-42.480
1683641587.706,-34.668,-25.391,-46.875,-38.086
1683641587.710,-28.320,-22.461,-52.246,-30.273
1683641587.727,-27.832,-27.832,-60.059,-25.391
1683641587.731,-33.203,-34.180,-41.992,-34.180
1683641587.735,-43.457,-37.109,-41.504,-45.410
1683641587.739,-42.969,-33.203,-45.410,-46.875
1683641587.743,-27.832,-38.574,-35.645,-34.180
1683641587.747,-15.137,-37.598,-48.340,-22.949
1683641587.751,-19.531,-34.668,-47.852,-33.691
1683641587.754,-31.250,-38.574,-25.879,-47.363
1683641587.758,-39.551,-38.086,-27.344,-51.270
1683641587.762,-30.762,-31.250,-48.828,-41.992
1683641587.766,-18.555,-27.344,-35.156,-31.738
1683641587.770,-23.438,-36.621,-21.484,-36.133
1683641587.772,-35.645,-38.574,-33.691,-40.527
1683641587.776,-38.086,-36.133,-31.738,-45.410
1683641587.780,-34.180,-36.133,-23.438,-45.410
1683641587.784,-32.227,-34.180,-40.039,-37.598
1683641587.788,-29.785,-35.156,-50.293,-34.180
1683641587.792,-31.250,-29.785,-32.715,-35.156
1683641587.796,-37.109,-39.062,-37.109,-43.945
1683641587.799,-42.480,-48.340,-34.180,-45.898
1683641587.803,-33.203,-40.527,-33.203,-35.156
1683641587.807,-16.602,-23.926,-38.086,-22.949
1683641587.811,-18.555,-27.344,-27.832,-23.438
1683641587.815,-28.809,-42.480,-22.461,-32.715
1683641587.817,-36.133,-45.410,-22.461,-40.039
1683641587.821,-25.391,-31.250,-19.043,-35.156
1683641587.825,-17.578,-25.879,-26.855,-29.297
1683641587.829,-28.320,-47.363,-52.246,-31.738
1683641587.833,-29.297,-48.828,-66.406,-31.250
1683641587.837,-23.438,-34.668,-47.852,-23.926
1683641587.841,-26.367,-22.461,-28.809,-26.855
1683641587.844,-21.484,-24.414,-26.367,-30.762
1683641587.848,-26.367,-41.992,-44.434,-29.785
1683641587.852,-39.062,-54.688,-62.988,-36.133
1683641587.856,-33.691,-51.758,-54.688,-39.062
1683641587.860,-15.137,-25.879,-39.551,-18.555
1683641587.862,-12.695,-25.879,-32.715,-10.254
1683641587.866,-30.273,-48.340,-48.340,-32.715
1683641587.870,-33.203,-40.039,-45.898,-42.480
1683641587.874,-29.297,-25.879,-31.738,-38.086
1683641587.878,-27.344,-26.855,-26.367,-33.203
1683641587.882,-14.648,-27.832,-34.180,-28.809
1683641587.886,1.953,-17.578,-40.527,-24.414
1683641587.889,-8.301,-24.414,-41.016,-29.785
1683641587.893,-19.531,-35.156,-46.387,-29.785
1683641587.897,-8.301,-31.250,-40.039,-19.043
1683641587.901,-13.672,-31.738,-38.574,-17.090
1683641587.905,-34.180,-39.551,-36.621,-24.902
1683641587.907,-42.969,-42.480,-33.691,-30.273
1683641587.911,-51.270,-43.457,-33.203,-36.621
1683641587.915,-47.852,-41.016,-29.785,-39.062
1683641587.919,-35.156,-26.855,-40.527,-29.297
1683641587.923,-27.344,-20.508,-54.199,-20.020
1683641587.927,-36.133,-27.344,-41.016,-31.250
1683641587.931,-35.156,-21.484,-37.109,-33.691
1683641587.934,-19.043,-24.414,-48.828,-23.438
1683641587.938,-20.996,-39.062,-41.016,-26.855
1683641587.942,-30.273,-37.598,-26.367,-31.250
1683641587.946,-34.180,-27.344,-26.855,-31.738
1683641587.950,-41.992,-24.414,-37.598,-37.598
1683641587.952,-42.969,-31.738,-36.621,-41.504
1683641587.956,-32.227,-32.715,-25.391,-29.297
1683641587.960,-28.809,-35.156,-20.508,-24.414
1683641587.964,-28.320,-31.738,-37.598,-29.785
1683641587.968,-29.297,-32.715,-67.871,-30.273
1683641587.972,-33.691,-36.621,-54.199,-28.320
1683641587.976,-30.762,-25.879,-26.367,-29.297
1683641587.979,-31.738,-23.926,-27.344,-32.227
1683641587.983,-34.180,-33.691,-30.273,-35.645
1683641587.987,-38.574,-41.992,-34.668,-38.086
1683641587.991,-48.828,-38.574,-43.945,-38.574
1683641587.995,-34.180,-23.926,-41.992,-29.297
1683641587.997,-23.438,-22.949,-39.062,-24.902
1683641588.001,-27.832,-28.320,-34.180,-30.762
1683641588.005,-40.039,-34.180,-34.668,-41.016
1683641588.009,-38.574,-46.387,-28.320,-44.922
1683641588.013,-42.480,-41.504,-15.625,-49.316
1683641588.017,-46.387,-23.926,-23.926,-42.969
1683641588.021,-46.387,-25.391,-40.039,-40.039
1683641588.024,-63.477,-30.273,-37.109,-65.430
1683641588.028,-86.426,-35.156,-41.992,-81.543
1683641588.032,-90.332,-36.621,-45.898,-81.055
1683641588.036,-84.961,-29.785,-24.902,-83.984
1683641588.040,-102.539,-34.180,-28.809,-97.168
1683641588.042,-120.117,-38.086,-24.902,-106.934
1683641588.046,-134.766,-34.180,-4.395,-121.094
1683641588.050,-132.812,-20.996,15.625,-121.582
1683641588.054,-145.508,-21.973,-0.977,-129.395
1683641588.058,-164.551,-25.391,-25.391,-147.949
1683641588.062,-176.270,-44.922,-33.691,-159.180
1683641588.066,-190.918,-52.734,-18.555,-170.410
1683641588.069,-191.895,-32.227,0.000,-172.363
1683641588.073,-196.289,-27.344,4.883,-174.316
1683641588.077,-209.961,-40.527,-0.488,-184.082
1683641588.081,-214.355,-36.133,-20.996,-191.406
1683641588.085,-221.191,-32.715,-17.090,-200.195
1683641588.102,-231.934,-32.715,5.859,-205.078
1683641588.106,-230.469,-34.180,19.531,-196.777
1683641588.110,-232.910,-41.992,9.277,-196.777
1683641588.114,-233.398,-37.109,-37.109,-203.125
1683641588.118,-223.145,-26.855,-45.410,-192.871
1683641588.122,-224.609,-32.227,-9.766,-197.266
1683641588.126,-221.191,-30.762,3.906,-190.918
1683641588.129,-205.078,-24.902,-3.906,-170.410
1683641588.133,-203.125,-30.762,-26.367,-176.758
1683641588.137,-200.195,-25.879,-30.762,-179.688
1683641588.141,-204.590,-41.992,-27.832,-178.711
1683641588.145,-207.520,-54.688,-33.691,-173.340
1683641588.147,-193.848,-42.969,-38.086,-160.156
1683641588.151,-186.035,-20.508,-48.828,-157.227
1683641588.155,-201.660,-12.695,-54.688,-170.410
1683641588.159,-213.867,-26.855,-42.480,-173.340
1683641588.163,-196.777,-15.625,-20.996,-152.832
1683641588.167,-192.383,-16.113,-16.113,-154.297
1683641588.171,-197.266,-27.344,-26.367,-157.715
1683641588.174,-197.266,-34.180,-35.645,-152.832
1683641588.178,-191.406,-33.691,-39.551,-145.020
1683641588.182,-182.129,-25.391,-35.156,-130.371
1683641588.186,-180.176,-25.391,-24.414,-128.906
1683641588.190,-171.875,-22.461,-20.508,-129.395
1683641588.192,-164.062,-16.602,-39.551,-131.348
1683641588.196,-164.551,-26.855,-57.129,-143.066
1683641588.200,-169.434,-27.832,-40.527,-136.719
1683641588.204,-170.898,-31.738,-26.367,-131.836
1683641588.208,-157.227,-29.785,-30.273,-129.395
1683641588.212,-153.809,-24.902,-29.785,-123.047
1683641588.216,-176.270,-28.320,-27.832,-133.789
1683641588.219,-167.969,-26.855,-31.738,-127.930
1683641588.223,-144.531,-36.621,-53.223,-115.723
1683641588.227,-137.207,-42.480,-43.945,-121.094
1683641588.231,-131.348,-37.109,-25.879,-118.652
1683641588.235,-142.090,-42.480,-42.480,-126.465
1683641588.237,-136.230,-31.738,-37.598,-122.070
1683641588.241,-122.559,-22.461,-27.344,-106.934
1683641588.245,-120.117,-23.438,-23.926,-101.074
1683641588.249,-125.000,-41.992,-27.344,-101.562
1683641588.253,-132.812,-48.340,-20.996,-104.004
1683641588.257,-111.328,-22.949,-8.301,-87.402
1683641588.261,-86.914,-17.090,-18.066,-66.895
1683641588.264,-83.496,-22.949,-50.293,-63.477
1683641588.268,-78.125,-29.785,-59.082,-55.664
1683641588.272,-62.988,-31.250,-40.039,-41.504
1683641588.276,-50.293,-35.645,-30.273,-33.203
1683641588.280,-27.832,-33.691,-33.691,-14.648
1683641588.282,-8.301,-24.902,-31.738,-1.953
1683641588.286,-8.789,-27.344,-41.016,-5.371
1683641588.290,-4.883,-30.273,-61.035,0.000
1683641588.294,12.207,-29.785,-57.129,10.254
1683641588.298,28.320,-17.578,-30.762,19.531
1683641588.302,34.668,-5.859,-28.809,23.926
1683641588.306,27.832,-39.551,-50.293,15.625
1683641588.309,23.438,-59.082,-72.754,15.625
1683641588.313,30.273,-42.480,-70.312,21.973
1683641588.317,49.316,-23.438,-44.922,29.785
1683641588.321,56.641,-20.508,-42.969,33.203
1683641588.325,58.105,-27.344,-57.617,32.715
1683641588.327,61.035,-30.273,-63.965,36.133
1683641588.331,69.336,-23.438,-67.871,41.016
1683641588.335,73.730,-21.973,-65.918,47.852
1683641588.339,72.754,-35.156,-52.734,51.758
1683641588.343,66.406,-33.691,-44.434,45.410
1683641588.347,51.270,-32.715,-58.105,36.621
1683641588.351,52.734,-28.809,-64.453,38.086
1683641588.354,61.035,-23.926,-41.016,41.992
1683641588.358,57.129,-31.250,-32.715,46.387
1683641588.362,59.082,-38.086,-41.992,47.852
1683641588.366,63.965,-29.297,-49.805,47.852
1683641588.370,61.523,-28.809,-47.852,51.270
1683641588.372,62.988,-38.574,-41.504,51.270
1683641588.376,69.824,-32.715,-49.316,61.035
1683641588.380,70.312,-30.762,-65.918,53.223
1683641588.384,57.129,-36.133,-66.406,32.227
1683641588.388,53.223,-34.180,-56.641,35.156
1683641588.392,59.082,-28.320,-52.734,39.551
1683641588.396,61.523,-23.438,-47.363,40.039
1683641588.399,59.570,-30.273,-35.645,38.574
1683641588.403,52.734,-40.527,-32.715,34.668
1683641588.407,45.898,-45.898,-43.945,29.297
1683641588.411,51.270,-45.410,-48.340,27.344
1683641588.415,61.523,-26.855,-46.387,33.203
1683641588.417,61.523,-36.621,-57.617,36.621
1683641588.421,54.688,-61.035,-61.523,28.320
1683641588.425,44.922,-54.688,-53.711,22.949
1683641588.429,45.898,-48.828,-53.223,27.832
1683641588.433,60.059,-36.621,-39.062,37.598
1683641588.437,60.059,-32.715,-34.180,46.387
1683641588.441,50.781,-36.621,-51.270,40.039
1683641588.444,48.828,-35.156,-55.664,31.250
1683641588.448,45.898,-44.434,-42.480,28.809
1683641588.452,45.898,-38.086,-35.645,30.762
1683641588.456,48.828,-30.273,-24.414,30.762
1683641588.460,48.828,-44.922,-27.344,19.531
1683641588.477,49.805,-49.316,-40.039,17.090
1683641588.481,47.363,-43.945,-39.551,17.090
1683641588.485,49.316,-33.691,-20.508,23.438
1683641588.489,54.199,-21.973,-32.227,30.273
1683641588.493,49.805,-23.926,-48.828,16.602
1683641588.497,38.086,-29.297,-32.715,5.371
1683641588.501,30.762,-33.691,-29.297,1.953
1683641588.504,28.809,-34.668,-33.691,0.488
1683641588.508,37.598,-39.551,-33.691,8.789
1683641588.512,38.574,-45.410,-33.691,9.766
1683641588.516,23.926,-46.387,-43.457,2.930
1683641588.520,23.438,-43.945,-41.504,5.859
1683641588.522,31.250,-34.180,-28.320,10.742
1683641588.526,33.203,-29.785,-26.855,20.996
1683641588.530,29.297,-32.715,-28.809,19.531
1683641588.534,17.578,-40.039,-27.344,4.395
1683641588.538,10.742,-41.992,-19.531,0.000
1683641588.542,17.578,-34.180,-34.668,-0.488
1683641588.546,17.090,-35.645,-46.387,-0.488
1683641588.549,13.184,-38.086,-28.320,0.000
1683641588.553,4.395,-44.434,-28.320,0.488
1683641588.557,2.930,-43.945,-39.551,-1.465
1683641588.561,17.090,-18.066,-23.438,-2.441
1683641588.565,18.555,-19.531,-17.578,1.953
1683641588.567,17.090,-40.039,-32.715,6.348
1683641588.571,16.602,-32.715,-42.969,2.930
1683641588.575,10.742,-28.320,-37.109,0.977
1683641588.579,18.066,-37.598,-32.715,2.441
1683641588.583,21.973,-33.691,-54.199,5.371
1683641588.587,14.160,-22.461,-55.664,2.441
1683641588.591,6.836,-25.391,-28.809,-13.184
1683641588.594,9.766,-29.297,-17.090,-20.020
1683641588.598,11.719,-25.391,-29.297,-15.625
1683641588.602,15.137,-24.414,-35.156,0.977
1683641588.606,17.578,-31.738,-30.273,9.277
1683641588.610,10.742,-27.344,-30.762,2.930
1683641588.612,-1.953,-32.715,-31.250,-8.301
1683641588.616,-3.418,-40.039,-14.648,-5.859
1683641588.620,3.418,-31.250,-18.066,5.859
1683641588.624,4.883,-19.531,-55.664,8.301
1683641588.628,1.465,-18.555,-52.734,1.953
1683641588.632,-4.395,-28.809,-26.855,-15.625
1683641588.636,-10.254,-31.250,-20.020,-25.879
1683641588.639,-4.883,-26.855,-28.809,-23.438
1683641588.643,-3.418,-26.855,-45.898,-14.648
1683641588.647,-10.254,-27.832,-44.922,-11.719
1683641588.651,-14.648,-23.438,-36.133,-19.043
1683641588.655,-17.090,-32.715,-27.832,-20.020
1683641588.657,-13.184,-33.203,-21.973,-16.602
1683641588.661,-11.230,-29.785,-28.320,-12.207
1683641588.665,-19.531,-36.133,-47.363,-12.695
1683641588.669,-26.855,-40.527,-64.941,-13.184
1683641588.673,-20.996,-31.738,-49.316,-6.836
1683641588.677,-15.625,-30.273,-21.484,0.000
1683641588.681,-13.184,-27.832,-13.184,2.441
1683641588.684,-21.973,-33.203,-33.691,-15.625
1683641588.688,-26.855,-41.992,-45.410,-27.344
1683641588.692,-28.809,-41.504,-29.785,-17.578
1683641588.696,-25.391,-31.738,-33.203,-15.625
1683641588.700,-12.695,-23.438,-39.062,-13.672
1683641588.702,-13.672,-32.227,-44.922,-13.672
1683641588.706,-13.672,-35.156,-58.105,-20.020
1683641588.710,-15.625,-35.156,-48.828,-18.066
1683641588.714,-15.625,-35.645,-19.531,-17.090
1683641588.718,-9.766,-32.227,-15.625,-14.160
1683641588.722,-16.113,-21.973,-20.996,-15.625
1683641588.726,-26.367,-19.531,-30.762,-26.855
1683641588.729,-31.250,-43.457,-52.246,-31.250
1683641588.733,-33.203,-50.293,-50.781,-30.273
1683641588.737,-26.855,-41.992,-38.574,-28.809
1683641588.741,-20.508,-39.551,-43.945,-27.344
1683641588.745,-31.738,-38.086,-65.918,-27.832
1683641588.747,-39.062,-29.785,-76.660,-30.762
1683641588.751,-42.969,-41.992,-41.992,-32.715
1683641588.755,-45.898,-46.875,-6.836,-23.926
1683641588.759,-38.574,-34.668,-19.043,-19.531
1683641588.763,-45.410,-34.668,-31.250,-25.391
1683641588.767,-59.082,-32.227,-29.785,-28.809
1683641588.771,-58.105,-36.133,-30.762,-30.273
1683641588.774,-44.922,-36.621,-38.574,-19.043
1683641588.778,-49.316,-33.203,-47.363,-11.719
1683641588.782,-59.570,-29.785,-61.523,-9.277
1683641588.786,-59.570,-35.645,-52.246,-16.602
1683641588.790,-64.453,-49.805,-24.902,-30.762
1683641588.792,-54.199,-41.992,-8.789,-20.508
1683641588.796,-47.852,-38.574,-12.207,-16.113
1683641588.800,-49.805,-33.203,-32.715,-20.996
1683641588.804,-56.641,-27.832,-36.621,-26.367
1683641588.808,-56.152,-33.203,-21.973,-27.344
1683641588.812,-43.457,-31.250,-32.227,-20.996
1683641588.816,-41.504,-28.809,-53.711,-17.090
1683641588.819,-46.875,-37.598,-51.758,-26.855
1683641588.823,-48.828,-35.645,-49.805,-34.180
1683641588.827,-55.664,-35.645,-54.688,-29.297
1683641588.831,-55.176,-38.574,-39.062,-23.926
1683641588.835,-49.805,-22.949,-2.930,-24.414
1683641588.852,-46.387,-30.762,-1.465,-23.926
1683641588.856,-43.457,-47.852,-18.555,-27.832
1683641588.860,-51.758,-41.992,-31.250,-35.645
1683641588.864,-49.805,-35.156,-34.668,-36.133
1683641588.868,-35.156,-28.320,-19.531,-27.344
1683641588.872,-31.250,-25.391,-20.996,-28.320
1683641588.876,-45.898,-35.645,-30.273,-38.086
1683641588.879,-53.223,-39.062,-27.832,-40.039
1683641588.883,-36.621,-30.273,-27.832,-34.180
1683641588.887,-26.855,-25.879,-20.508,-19.531
1683641588.891,-30.273,-24.902,-11.230,-22.949
1683641588.895,-20.996,-27.344,-22.949,-26.855
1683641588.897,-14.160,-23.438,-24.902,-26.855
1683641588.901,-10.254,-10.254,-3.906,-19.043
1683641588.905,-10.254,-20.020,-2.441,-17.578
1683641588.909,-13.672,-26.367,-11.230,-22.461
1683641588.913,-14.160,-17.578,-30.762,-24.902
1683641588.917,-15.137,-15.625,-34.668,-23.926
1683641588.921,-16.113,-19.531,-25.391,-17.090
1683641588.924,-10.254,-18.555,-16.602,-9.277
1683641588.928,-9.277,-13.184,-23.438,-7.324
1683641588.932,-20.020,-11.719,-48.828,-20.508
1683641588.936,-20.508,-27.832,-45.898,-28.809
1683641588.940,-19.043,-33.203,-25.879,-29.297
1683641588.942,-15.625,-29.297,-19.531,-28.320
1683641588.946,-11.230,-26.855,-15.137,-26.855
1683641588.950,-19.043,-27.344,-13.184,-30.762
1683641588.954,-23.926,-32.227,-25.879,-37.109
1683641588.958,-21.973,-33.203,-34.668,-39.062
1683641588.962,-22.949,-28.809,-45.410,-34.180
1683641588.966,-25.391,-18.066,-51.270,-30.273
1683641588.969,-27.344,-29.297,-46.875,-41.504
1683641588.973,-27.832,-49.805,-67.383,-47.363
1683641588.977,-36.621,-51.270,-74.707,-41.992
1683641588.981,-31.738,-35.645,-46.875,-39.551
1683641588.985,-11.230,-25.391,-32.227,-31.738
1683641588.987,-5.859,-31.738,-39.062,-23.438
1683641588.991,-23.926,-44.434,-41.016,-38.086
1683641588.995,-33.691,-41.016,-37.598,-46.875
1683641588.999,-23.926,-34.180,-40.039,-39.062
1683641589.003,-22.949,-37.598,-36.621,-37.109
1683641589.007,-22.949,-35.156,-29.785,-33.203
1683641589.011,-22.461,-33.691,-26.855,-29.785
1683641589.014,-29.297,-41.992,-47.363,-35.645
1683641589.018,-34.180,-41.992,-52.734,-34.180
1683641589.022,-28.320,-37.109,-27.832,-24.902
1683641589.026,-24.414,-32.715,-25.391,-20.508
1683641589.030,-31.250,-37.109,-44.434,-28.809
1683641589.032,-39.551,-41.504,-44.922,-35.645
1683641589.036,-40.527,-38.574,-22.949,-31.250
1683641589.040,-30.762,-34.180,-17.578,-26.855
1683641589.044,-37.109,-34.180,-35.645,-32.715
1683641589.048,-50.293,-35.156,-52.246,-43.945
1683641589.052,-51.270,-35.645,-47.363,-45.898
1683641589.056,-48.828,-40.527,-31.250,-45.898
1683641589.059,-40.527,-45.410,-24.902,-41.504
1683641589.063,-28.809,-47.363,-26.855,-36.133
1683641589.067,-37.598,-46.387,-31.250,-40.527
1683641589.071,-47.363,-44.922,-40.527,-47.852
1683641589.075,-44.434,-41.992,-40.527,-47.852
1683641589.077,-45.410,-37.109,-26.855,-41.992
1683641589.081,-43.457,-36.133,-22.949,-38.086
1683641589.085,-46.875,-35.156,-29.785,-43.457
1683641589.089,-54.199,-30.762,-31.738,-52.246
1683641589.093,-50.293,-32.715,-33.691,-49.316
1683641589.097,-46.875,-39.551,-43.457,-37.109
1683641589.101,-39.062,-40.527,-46.387,-30.762
1683641589.104,-37.109,-45.410,-34.180,-29.785
1683641589.108,-50.293,-52.246,-42.969,-35.645
1683641589.112,-54.199,-47.363,-48.828,-44.922
1683641589.116,-46.387,-34.668,-31.250,-41.016
1683641589.120,-34.180,-28.809,-28.320,-27.832
1683641589.122,-35.645,-34.668,-37.598,-29.297
1683641589.126,-45.898,-45.898,-41.992,-41.504
1683641589.130,-37.598,-31.250,-36.133,-39.551
1683641589.134,-21.484,-15.625,-33.691,-26.855
1683641589.138,-27.344,-39.062,-46.875,-32.715
1683641589.142,-29.785,-41.016,-45.898,-40.527
1683641589.146,-40.527,-36.133,-40.527,-46.387
1683641589.149,-41.992,-42.480,-34.668,-48.828
1683641589.153,-29.297,-30.273,-17.090,-38.574
1683641589.157,-20.508,-23.438,-29.785,-29.297
1683641589.161,-18.555,-28.809,-51.758,-27.832
1683641589.165,-29.785,-41.992,-52.246,-31.738
1683641589.167,-30.273,-45.410,-53.223,-32.227
1683641589.171,-27.344,-38.574,-44.434,-27.832
1683641589.175,-26.855,-31.250,-38.086,-24.414
1683641589.179,-35.645,-32.715,-57.129,-33.691
1683641589.183,-46.387,-41.016,-42.480,-50.781
1683641589.187,-45.898,-44.922,-20.020,-53.223
1683641589.191,-34.180,-37.598,-14.648,-42.480
1683641589.194,-31.738,-34.668,-23.438,-40.039
1683641589.198,-34.180,-38.574,-44.434,-41.504
1683641589.202,-30.762,-29.297,-44.434,-40.527
1683641589.206,-29.785,-34.180,-44.434,-34.180
1683641589.210,-27.832,-45.410,-63.477,-28.809
1683641589.227,-29.297,-42.480,-54.688,-34.668
1683641589.231,-35.645,-46.387,-34.180,-41.992
1683641589.235,-38.574,-41.992,-31.738,-42.480
1683641589.239,-41.992,-32.715,-31.738,-41.504
1683641589.243,-41.016,-35.645,-28.320,-40.039
1683641589.247,-28.809,-32.227,-25.879,-33.691
1683641589.251,-31.250,-32.227,-37.109,-35.156
1683641589.254,-44.434,-37.109,-51.270,-34.180
1683641589.258,-51.270,-34.668,-53.711,-36.621
1683641589.262,-50.293,-44.434,-48.828,-43.457
1683641589.266,-48.828,-45.410,-39.062,-41.992
1683641589.270,-49.805,-40.039,-47.852,-43.945
1683641589.272,-50.781,-41.992,-62.012,-44.434
1683641589.276,-50.781,-45.410,-38.086,-45.898
1683641589.280,-43.945,-43.457,-21.484,-44.922
1683641589.284,-31.250,-31.250,-20.996,-28.809
1683641589.288,-24.902,-30.273,-31.250,-24.902
1683641589.292,-32.227,-37.598,-44.922,-32.715
1683641589.296,-41.016,-43.945,-44.434,-38.574
1683641589.299,-45.410,-44.434,-42.480,-42.969
1683641589.303,-44.434,-44.434,-35.645,-38.086
1683641589.307,-42.969,-46.875,-32.715,-40.527
1683641589.311,-34.180,-30.762,-43.945,-37.598
1683641589.315,-37.598,-29.785,-41.016,-39.062
1683641589.317,-42.480,-43.945,-27.344,-44.922
1683641589.321,-33.691,-34.180,-18.066,-38.574
1683641589.325,-20.996,-19.043,-18.555,-28.320
1683641589.329,-29.785,-35.645,-41.992,-28.809
1683641589.333,-51.758,-57.129,-63.965,-40.039
1683641589.337,-53.711,-48.340,-53.711,-45.898
1683641589.341,-43.945,-28.809,-27.832,-39.062
1683641589.344,-40.039,-24.902,-24.902,-31.250
1683641589.348,-37.109,-35.645,-40.039,-29.785
1683641589.352,-40.039,-39.551,-59.570,-36.621
1683641589.356,-48.828,-43.945,-61.523,-43.457
1683641589.360,-44.922,-37.598,-34.180,-44.434
1683641589.362,-29.297,-18.066,-14.160,-36.621
1683641589.366,-33.691,-30.273,-26.855,-40.527
1683641589.370,-32.715,-40.039,-34.180,-51.270
1683641589.374,-23.926,-31.738,-31.738,-50.293
1683641589.378,-20.020,-29.297,-20.996,-36.133
1683641589.382,-11.719,-31.738,-18.066,-21.973
1683641589.386,-14.160,-26.855,-41.992,-18.555
1683641589.389,-26.367,-23.438,-50.293,-20.508
1683641589.393,-39.551,-34.180,-28.320,-28.320
1683641589.397,-39.551,-39.062,-27.344,-35.645
1683641589.401,-31.738,-35.156,-34.668,-32.715
1683641589.405,-42.480,-37.109,-21.973,-29.785
1683641589.407,-47.852,-42.480,-33.691,-40.039
1683641589.411,-44.434,-36.133,-50.781,-42.480
1683641589.415,-37.598,-20.996,-36.621,-30.762
1683641589.419,-33.691,-22.461,-20.508,-34.180
1683641589.423,-29.297,-32.715,-28.320,-37.109
1683641589.427,-22.461,-26.367,-35.156,-29.297
1683641589.431,-19.043,-20.508,-44.922,-25.879
1683641589.434,-22.949,-32.715,-41.016,-30.273
1683641589.438,-33.691,-39.062,-20.996,-33.203
1683641589.442,-30.762,-30.762,-14.160,-29.785
1683641589.446,-31.250,-24.902,-25.391,-36.621
1683641589.450,-36.621,-33.691,-32.227,-44.434
1683641589.452,-41.992,-39.551,-26.367,-41.016
1683641589.456,-38.574,-31.738,-28.809,-22.461
1683641589.460,-23.438,-22.461,-40.039,-3.906
1683641589.464,-24.902,-31.250,-55.176,-17.090
1683641589.468,-29.297,-37.109,-39.551,-28.320
1683641589.472,-32.715,-26.855,-9.277,-30.762
1683641589.476,-31.738,-17.090,-4.883,-31.738
1683641589.479,-20.508,-2.930,-19.043,-20.508
1683641589.483,-27.344,-22.461,-42.969,-20.508
1683641589.487,-44.922,-51.758,-47.363,-32.227
1683641589.491,-46.387,-42.969,-35.645,-28.809
1683641589.495,-35.645,-29.297,-47.363,-18.066
1683641589.497,-30.273,-30.273,-45.898,-20.996
1683641589.501,-36.133,-30.273,-18.066,-20.508
1683641589.505,-44.434,-24.902,-15.625,-23.926
1683641589.509,-52.734,-42.969,-28.809,-34.668
1683641589.513,-52.246,-46.875,-30.762,-33.691
1683641589.517,-39.551,-21.973,-22.461,-20.508
1683641589.521,-38.086,-19.531,-28.320,-19.531
1683641589.524,-49.316,-33.691,-45.410,-29.297
1683641589.528,-57.617,-41.504,-44.434,-39.062
1683641589.532,-52.246,-41.992,-27.344,-29.297
1683641589.536,-41.016,-25.879,-36.621,-16.602
1683641589.540,-47.363,-35.645,-63.965,-25.391
1683641589.542,-62.988,-54.688,-52.734,-34.180
1683641589.546,-64.453,-47.363,-29.297,-39.062
1683641589.550,-48.828,-35.156,-11.719,-30.273
1683641589.554,-37.109,-32.227,-7.812,-14.648
1683641589.558,-41.504,-35.645,-33.691,-19.531
1683641589.562,-58.105,-48.340,-44.434,-41.504
1683641589.566,-63.965,-45.410,-45.898,-45.410
1683641589.569,-57.129,-39.062,-43.945,-32.715
1683641589.573,-44.922,-33.691,-44.922,-18.066
1683641589.577,-38.574,-22.949,-49.316,-16.113
1683641589.581,-38.574,-32.227,-31.250,-24.902
1683641589.585,-44.922,-39.551,-14.160,-31.738
1683641589.602,-35.156,-24.902,-12.695,-29.785
1683641589.606,-27.344,-22.949,-15.625,-26.855
1683641589.610,-35.156,-36.621,-28.809,-21.973
1683641589.614,-46.875,-42.969,-43.457,-30.273
1683641589.618,-51.758,-41.992,-48.828,-37.598
1683641589.622,-41.992,-35.645,-56.152,-33.203
1683641589.626,-40.527,-32.715,-49.316,-36.621
1683641589.629,-41.504,-35.645,-29.297,-37.598
1683641589.633,-43.457,-33.203,-20.996,-33.203
1683641589.637,-44.922,-23.926,-42.480,-35.156
1683641589.641,-39.551,-28.320,-55.176,-37.109
1683641589.645,-41.504,-33.203,-25.879,-35.645
1683641589.647,-41.992,-37.598,-15.625,-32.227
1683641589.651,-39.551,-40.039,-31.738,-34.668
1683641589.655,-42.969,-39.062,-39.551,-38.086
1683641589.659,-47.852,-46.875,-48.340,-40.039
1683641589.663,-41.504,-42.480,-43.457,-40.527
1683641589.667,-37.598,-29.297,-17.090,-39.062
1683641589.671,-47.363,-25.879,-17.090,-39.551
1683641589.674,-53.223,-39.551,-31.250,-44.922
1683641589.678,-48.340,-51.270,-39.062,-45.410
1683641589.682,-41.504,-42.480,-37.598,-35.156
1683641589.686,-48.828,-29.297,-38.574,-32.715
1683641589.690,-53.711,-30.762,-45.898,-38.574
1683641589.692,-51.758,-35.156,-42.969,-45.898
1683641589.696,-54.199,-43.945,-29.785,-46.875
1683641589.700,-50.293,-39.062,-23.926,-41.992
1683641589.704,-34.668,-30.762,-20.996,-34.668
1683641589.708,-31.738,-32.715,-20.996,-25.879
1683641589.712,-37.598,-27.832,-31.250,-27.344
1683641589.716,-48.340,-31.738,-41.992,-35.156
1683641589.719,-41.504,-28.320,-28.809,-35.156
1683641589.723,-28.320,-20.508,-10.742,-31.250
1683641589.727,-36.621,-30.273,-18.066,-30.273
1683641589.731,-43.945,-33.203,-19.043,-33.203
1683641589.735,-47.363,-26.367,-21.484,-33.203
1683641589.737,-45.898,-26.855,-20.508,-35.645
1683641589.741,-34.668,-29.297,-7.812,-34.668
1683641589.745,-36.621,-39.062,-24.902,-31.738
1683641589.749,-45.410,-48.828,-48.340,-38.086
1683641589.753,-43.457,-44.922,-40.527,-39.062
1683641589.757,-42.480,-40.527,-27.832,-38.574
1683641589.761,-36.133,-31.738,-27.832,-34.180
1683641589.764,-29.297,-26.855,-28.809,-27.832
1683641589.768,-26.367,-35.156,-47.852,-26.367
1683641589.772,-29.297,-28.809,-47.852,-30.273
1683641589.776,-35.645,-27.344,-18.555,-34.180
1683641589.780,-31.738,-23.438,-9.766,-30.273
1683641589.782,-31.250,-22.949,-17.578,-27.832
1683641589.786,-32.715,-27.344,-33.203,-25.879
1683641589.790,-22.949,-20.508,-48.340,-25.391
1683641589.794,-20.020,-27.344,-34.668,-26.855
1683641589.798,-20.508,-30.762,-17.578,-26.855
1683641589.802,-24.414,-32.715,-19.531,-32.715
1683641589.806,-25.879,-32.715,-17.090,-34.180
1683641589.809,-37.598,-45.898,-22.949,-40.527
1683641589.813,-44.922,-52.246,-25.879,-43.945
1683641589.817,-23.926,-31.250,-24.414,-23.438
1683641589.821,-12.207,-17.578,-34.180,-13.672
1683641589.825,-14.160,-20.996,-39.062,-23.438
1683641589.827,-25.391,-35.645,-32.715,-33.691
1683641589.831,-38.574,-45.410,-25.879,-37.598
1683641589.835,-37.598,-39.062,-26.367,-33.203
1683641589.839,-23.926,-17.578,-26.367,-26.855
1683641589.843,-23.926,-20.996,-35.156,-29.297
1683641589.847,-35.156,-35.156,-54.199,-37.109
1683641589.851,-39.551,-33.691,-45.410,-38.574
1683641589.854,-43.457,-44.922,-16.602,-34.668
1683641589.858,-33.203,-52.246,-25.879,-32.715
1683641589.862,-25.879,-41.504,-53.223,-29.297
1683641589.866,-34.668,-35.645,-44.922,-37.598
1683641589.870,-41.504,-38.574,-28.809,-44.434
1683641589.827,-25.391,-35.645,-32.715,-33.691
1683641589.831,-38.574,-45.410,-25.879,-37.598
1683641589.835,-37.598,-39.062,-26.367,-33.203
1683641589.839,-23.926,-17.578,-26.367,-26.855
1683641589.843,-23.926,-20.996,-35.156,-29.297
1683641589.847,-35.156,-35.156,-54.199,-37.109
1683641589.851,-39.551,-33.691,-45.410,-38.574
1683641589.854,-43.457,-44.922,-16.602,-34.668
1683641589.858,-33.203,-52.246,-25.879,-32.715
1683641589.862,-25.879,-41.504,-53.223,-29.297
1683641589.866,-34.668,-35.645,-44.922,-37.598
1683641589.870,-41.504,-38.574,-28.809,-44.434
1683641589.872,-35.645,-38.574,-19.043,-37.598
1683641589.876,-30.762,-35.645,-22.949,-32.227
1683641589.880,-31.250,-38.086,-41.016,-28.809
1683641589.884,-34.180,-47.852,-48.340,-30.762
1683641589.888,-30.273,-44.434,-37.109,-35.645
1683641589.892,-26.367,-33.691,-13.184,-30.762
1683641589.896,-33.691,-36.621,-12.695,-25.879
1683641589.899,-28.809,-38.574,-30.762,-26.367
1683641589.903,-28.320,-33.203,-57.617,-27.832
1683641589.907,-35.645,-41.504,-58.105,-38.086
1683641589.911,-38.574,-43.457,-32.715,-39.551
1683641589.915,-35.645,-24.414,-14.648,-31.250
1683641589.917,-26.367,-12.207,-8.789,-22.949
1683641589.921,-24.414,-30.762,-24.902,-21.973
1683641589.925,-30.273,-48.828,-28.320,-31.250
1683641589.929,-24.902,-39.062,-16.113,-31.738
1683641589.933,-16.113,-23.438,-22.461,-24.414
1683641589.937,-16.602,-17.578,-31.738,-22.949
1683641589.941,-20.508,-20.020,-28.809,-22.461
1683641589.944,-22.949,-17.578,-45.410,-22.461
1683641589.948,-27.832,-19.043,-43.457,-28.809
1683641589.952,-24.902,-33.203,-18.555,-29.297
1683641589.956,-18.555,-29.297,-18.066,-20.996
1683641589.960,-20.020,-25.391,-25.879,-19.043
1683641589.977,-24.414,-35.645,-33.691,-27.344
1683641589.981,-27.832,-29.785,-37.109,-32.227
1683641589.985,-25.879,-12.207,-26.855,-25.391
1683641589.989,-20.020,-10.742,-16.602,-19.531
1683641589.993,-29.297,-33.691,-38.574,-29.785
1683641589.997,-38.574,-42.969,-51.758,-41.504
1683641590.001,-39.062,-32.227,-30.762,-47.852
1683641590.004,-33.203,-33.691,-30.762,-46.387
1683641590.008,-24.902,-24.902,-33.203,-37.109
1683641590.012,-17.578,-15.137,-17.090,-32.227
1683641590.016,-27.344,-37.109,-14.160,-38.086
1683641590.020,-37.109,-39.551,-24.414,-40.527
1683641590.022,-29.297,-39.062,-33.203,-32.227
1683641590.026,-23.438,-42.969,-41.016,-21.973
1683641590.030,-20.020,-29.785,-43.945,-20.996
1683641590.034,-18.555,-18.555,-30.273,-30.273
1683641590.038,-31.738,-25.879,-21.484,-44.922
1683641590.042,-35.156,-27.832,-24.414,-49.316
1683641590.046,-22.949,-23.926,-35.156,-35.645
1683641590.049,-18.555,-26.855,-35.645,-35.156
1683641590.053,-28.320,-32.227,-46.387,-47.363
1683641590.057,-40.039,-31.738,-41.992,-51.270
1683641590.061,-34.180,-28.320,-19.043,-53.711
1683641590.065,-22.949,-37.109,-32.715,-41.992
1683641590.067,-26.367,-41.016,-48.828,-33.691
1683641590.071,-25.391,-39.062,-46.387,-41.016
1683641590.075,-19.043,-31.250,-46.387,-41.992
1683641590.079,-31.250,-38.086,-36.621,-44.434
1683641590.083,-30.762,-48.340,-18.555,-41.992
1683641590.087,-20.020,-40.039,-31.738,-36.133
1683641590.091,-25.391,-28.320,-48.828,-38.574
1683641590.094,-36.621,-30.273,-41.504,-47.363
1683641590.098,-43.945,-47.363,-30.273,-49.805
1683641590.102,-33.691,-42.969,-23.438,-36.621
1683641590.106,-25.879,-27.344,-50.781,-32.227
1683641590.110,-32.227,-32.227,-46.875,-41.992
1683641590.112,-37.109,-40.039,-21.973,-47.363
1683641590.116,-38.086,-36.621,-37.109,-43.457
1683641590.120,-37.109,-39.551,-38.574,-45.410
1683641590.124,-29.785,-40.039,-41.992,-43.457
1683641590.128,-29.785,-35.156,-53.711,-35.645
1683641590.132,-38.086,-35.156,-40.527,-44.434
1683641590.136,-37.109,-27.832,-24.902,-52.246
1683641590.139,-35.156,-37.109,-20.020,-43.945
1683641590.143,-35.156,-41.992,-24.414,-42.480
1683641590.147,-29.785,-35.645,-36.621,-42.480
1683641590.151,-31.738,-38.086,-44.434,-49.805
1683641590.155,-37.109,-47.363,-44.434,-56.641
1683641590.157,-26.367,-48.828,-36.133,-50.293
1683641590.161,-9.766,-28.320,-22.461,-38.086
1683641590.165,-16.602,-21.484,-25.391,-34.180
1683641590.169,-31.250,-33.691,-40.527,-40.527
1683641590.173,-44.434,-38.574,-40.527,-41.992
1683641590.177,-50.293,-26.367,-24.902,-39.062
1683641590.181,-51.270,-19.043,-27.832,-32.227
1683641590.184,-64.941,-36.621,-37.109,-45.410
1683641590.188,-77.148,-41.992,-33.691,-69.824
1683641590.192,-80.078,-37.109,-26.367,-79.102
1683641590.196,-80.078,-38.086,-20.020,-75.684
1683641590.200,-79.590,-27.344,-21.484,-68.359
1683641590.202,-84.473,-22.461,-40.039,-82.520
1683641590.206,-108.887,-36.621,-64.453,-107.910
1683641590.210,-128.418,-42.480,-48.828,-121.094
1683641590.214,-127.930,-38.574,-20.996,-123.047
1683641590.218,-133.301,-34.180,-27.832,-128.418
1683641590.222,-142.090,-21.973,-46.387,-133.301
1683641590.226,-153.320,-20.996,-54.688,-138.672
1683641590.229,-175.781,-34.668,-43.457,-159.180
1683641590.233,-183.594,-27.832,-24.902,-169.922
1683641590.237,-172.363,-27.832,-17.578,-157.715
1683641590.241,-173.340,-33.203,-16.602,-158.203
1683641590.245,-189.453,-38.574,-29.297,-173.828
1683641590.247,-197.266,-40.527,-26.855,-179.688
1683641590.251,-194.336,-36.621,-20.020,-179.199
1683641590.255,-179.688,-34.180,-24.414,-170.410
1683641590.259,-166.016,-28.320,-25.391,-159.668
1683641590.263,-169.922,-36.621,-39.551,-161.133
1683641590.267,-180.176,-37.598,-48.828,-165.527
1683641590.271,-193.359,-41.992,-41.504,-174.316
1683641590.274,-196.289,-57.617,-22.949,-182.129
1683641590.278,-182.617,-48.828,-19.043,-174.316
1683641590.282,-166.992,-26.855,-37.109,-159.180
1683641590.286,-170.898,-34.180,-40.527,-165.039
1683641590.290,-186.035,-59.082,-25.391,-172.852
1683641590.292,-171.875,-53.711,-11.230,-157.227
1683641590.296,-155.273,-41.504,-13.184,-147.949
1683641590.300,-146.973,-40.039,-33.203,-140.137
1683641590.304,-139.648,-40.527,-44.434,-128.906
1683641590.308,-138.184,-41.504,-34.668,-128.418
1683641590.312,-128.906,-37.109,-24.414,-114.746
1683641590.316,-106.445,-33.691,-27.344,-96.191
1683641590.319,-98.145,-36.621,-46.875,-90.332
1683641590.323,-90.820,-39.551,-54.688,-75.684
1683641590.327,-73.242,-38.574,-39.551,-65.430
1683641590.331,-60.547,-34.668,-38.086,-55.176
1683641590.335,-39.551,-23.926,-34.180,-38.086
1683641590.352,-30.762,-26.367,-45.410,-37.109
1683641590.356,-30.273,-46.387,-62.500,-38.086
1683641590.360,-21.484,-44.922,-51.758,-22.461
1683641590.364,-20.508,-44.922,-42.969,-10.254
1683641590.368,-19.043,-50.781,-29.297,-4.883
1683641590.372,-7.324,-44.922,-25.391,6.836
1683641590.376,-6.348,-37.598,-37.109,6.348
1683641590.379,-6.836,-42.969,-43.945,3.906
1683641590.383,8.789,-39.062,-32.227,17.090
1683641590.387,16.113,-29.297,-45.410,26.855
1683641590.391,13.184,-35.645,-67.871,24.902
1683641590.395,10.742,-41.504,-55.176,19.531
1683641590.397,10.742,-53.223,-33.203,12.207
1683641590.401,9.766,-57.617,-20.996,7.812
1683641590.405,13.184,-38.574,-21.484,10.254
1683641590.409,17.090,-39.062,-33.203,15.625
1683641590.413,8.789,-48.828,-40.527,12.695
1683641590.417,-0.977,-49.805,-36.133,0.977
1683641590.421,10.254,-48.340,-47.852,7.812
1683641590.424,32.227,-39.062,-64.453,26.367
1683641590.428,19.043,-51.758,-57.617,17.578
1683641590.432,2.441,-57.129,-43.945,5.859
1683641590.436,4.883,-48.340,-38.086,8.789
1683641590.440,4.395,-42.480,-33.203,12.207
1683641590.442,6.348,-30.762,-31.738,24.902
1683641590.446,15.137,-32.715,-46.387,36.133
1683641590.450,17.090,-43.945,-57.617,28.809
1683641590.454,8.301,-46.875,-45.410,18.555
1683641590.458,3.418,-38.574,-35.645,17.090
1683641590.462,8.301,-31.250,-28.809,16.113
1683641590.466,18.066,-27.832,-26.367,20.508
1683641590.469,16.602,-33.203,-42.969,12.207
1683641590.473,6.836,-42.969,-52.734,1.953
1683641590.477,1.465,-44.434,-42.480,0.488
1683641590.481,10.254,-37.598,-36.133,6.836
1683641590.485,19.043,-34.180,-31.738,17.090
1683641590.442,6.348,-30.762,-31.738,24.902
1683641590.446,15.137,-32.715,-46.387,36.133
1683641590.450,17.090,-43.945,-57.617,28.809
1683641590.454,8.301,-46.875,-45.410,18.555
1683641590.458,3.418,-38.574,-35.645,17.090
1683641590.462,8.301,-31.250,-28.809,16.113
1683641590.466,18.066,-27.832,-26.367,20.508
1683641590.469,16.602,-33.203,-42.969,12.207
1683641590.473,6.836,-42.969,-52.734,1.953
1683641590.477,1.465,-44.434,-42.480,0.488
1683641590.481,10.254,-37.598,-36.133,6.836
1683641590.485,19.043,-34.180,-31.738,17.090
1683641590.487,9.766,-30.762,-30.273,12.207
1683641590.491,-0.488,-31.738,-36.133,-0.977
1683641590.495,-6.836,-38.574,-36.133,-8.301
1683641590.499,-4.883,-41.992,-41.992,-2.441
1683641590.503,0.000,-36.133,-51.758,3.418
1683641590.507,2.441,-24.902,-54.199,2.930
1683641590.511,-0.488,-19.043,-58.105,-5.371
1683641590.514,-8.301,-24.414,-44.434,-10.254
1683641590.518,-5.859,-33.691,-15.137,-4.395
1683641590.522,2.441,-35.156,-18.555,5.859
1683641590.526,5.859,-38.086,-38.574,8.789
1683641590.530,4.395,-36.133,-34.180,-1.465
1683641590.532,4.395,-29.785,-29.785,-1.465
1683641590.536,5.371,-30.273,-31.250,4.883
1683641590.540,5.859,-24.902,-23.926,10.254
1683641590.544,0.000,-23.926,-26.367,7.812
1683641590.548,-1.465,-28.809,-48.828,5.859
1683641590.552,-3.418,-26.367,-59.082,0.977
1683641590.556,-15.625,-29.297,-30.762,-6.348
1683641590.559,-16.113,-45.410,-9.766,-4.395
1683641590.563,-11.230,-52.734,-21.973,-7.812
1683641590.567,-12.695,-47.363,-52.246,-7.324
1683641590.571,-13.184,-35.156,-47.852,-6.836
1683641590.575,-7.812,-32.715,-26.367,-9.766
1683641590.577,-4.395,-30.762,-20.508,-1.953
1683641590.581,-6.348,-35.156,-23.438,2.930
1683641590.585,-10.254,-33.691,-33.691,-2.441
1683641590.589,-19.531,-30.273,-44.434,-7.812
1683641590.593,-16.113,-38.574,-44.922,-6.836
1683641590.597,-4.883,-39.551,-20.996,1.953
1683641590.601,-3.418,-38.574,-8.301,3.906
1683641590.604,-10.742,-35.645,-29.785,-7.324
1683641590.608,-15.625,-32.715,-41.016,-8.789
1683641590.612,-21.484,-37.598,-33.203,-4.883
1683641590.616,-17.090,-32.715,-36.621,-4.883
1683641590.620,-13.184,-20.996,-33.203,-1.953
1683641590.622,-21.484,-37.109,-25.879,-5.371
1683641590.626,-26.367,-47.852,-46.387,-18.066
1683641590.630,-34.668,-39.062,-54.199,-19.531
1683641590.634,-25.879,-30.273,-21.973,-12.695
1683641590.638,-9.277,-23.438,-6.348,-8.301
1683641590.642,-8.789,-22.949,-15.137,-6.836
1683641590.646,-18.066,-28.320,-21.973,-6.836
1683641590.649,-24.902,-30.273,-21.484,-10.742
1683641590.653,-20.020,-18.066,-17.578,-9.277
1683641590.657,-18.066,-22.949,-18.066,-13.672
1683641590.661,-26.855,-34.180,-35.156,-19.531
1683641590.665,-34.180,-37.109,-45.898,-27.832
1683641590.667,-34.180,-39.062,-50.781,-37.598
1683641590.671,-33.203,-34.180,-43.457,-29.785
1683641590.675,-27.832,-22.949,-16.602,-25.879
1683641590.679,-23.438,-22.461,-19.043,-29.785
1683641590.683,-29.297,-38.086,-41.992,-32.715
1683641590.687,-23.926,-25.391,-37.109,-28.320
1683641590.691,-30.762,-23.926,-18.066,-29.297
1683641590.694,-38.086,-41.016,-17.090,-31.250
1683641590.698,-27.344,-32.715,-22.461,-29.297
1683641590.702,-29.785,-20.996,-23.926,-33.203
1683641590.706,-32.227,-20.508,-32.227,-30.273
1683641590.710,-28.320,-23.438,-27.832,-21.973
1683641590.667,-34.180,-39.062,-50.781,-37.598
1683641590.671,-33.203,-34.180,-43.457,-29.785
1683641590.675,-27.832,-22.949,-16.602,-25.879
1683641590.679,-23.438,-22.461,-19.043,-29.785
1683641590.683,-29.297,-38.086,-41.992,-32.715
1683641590.687,-23.926,-25.391,-37.109,-28.320
1683641590.691,-30.762,-23.926,-18.066,-29.297
1683641590.694,-38.086,-41.016,-17.090,-31.250
1683641590.698,-27.344,-32.715,-22.461,-29.297
1683641590.702,-29.785,-20.996,-23.926,-33.203
1683641590.706,-32.227,-20.508,-32.227,-30.273
1683641590.710,-28.320,-23.438,-27.832,-21.973
1683641590.727,-18.066,-16.113,-25.879,-17.578
1683641590.731,-4.883,-12.695,-40.039,-15.625
1683641590.735,-10.254,-23.438,-36.133,-25.879
1683641590.739,-29.297,-29.785,-20.020,-36.621
1683641590.743,-34.668,-24.902,-25.391,-40.039
1683641590.747,-24.414,-21.973,-27.832,-33.691
1683641590.751,-12.207,-12.695,-15.625,-17.578
1683641590.754,-15.137,-13.672,-20.508,-17.090
1683641590.758,-26.367,-21.973,-38.574,-26.367
1683641590.762,-29.297,-21.973,-46.875,-24.902
1683641590.766,-23.438,-13.672,-32.715,-20.020
1683641590.770,-15.137,-12.695,-12.695,-20.508
1683641590.772,-18.066,-26.855,-19.043,-32.715
1683641590.776,-26.855,-33.691,-28.809,-42.969
1683641590.780,-32.227,-30.762,-28.320,-40.039
1683641590.784,-28.809,-28.809,-27.832,-29.785
1683641590.788,-22.949,-14.648,-27.344,-21.973
1683641590.792,-22.949,-16.113,-36.621,-26.367
1683641590.796,-35.156,-39.062,-53.223,-33.203
1683641590.799,-40.039,-36.621,-53.711,-38.574
1683641590.803,-33.691,-33.691,-43.945,-36.621
1683641590.807,-26.855,-31.250,-31.250,-26.855
1683641590.811,-26.855,-24.414,-26.855,-28.320
1683641590.815,-29.785,-36.621,-34.668,-31.738
1683641590.817,-29.297,-41.504,-25.391,-35.156
1683641590.821,-24.902,-36.133,-12.207,-33.203
1683641590.825,-19.043,-29.297,-26.855,-26.367
1683641590.829,-25.391,-27.344,-38.574,-32.227
1683641590.833,-35.645,-33.203,-40.527,-42.480
1683641590.837,-38.086,-33.691,-41.992,-41.504
1683641590.841,-41.504,-35.156,-38.086,-40.039
1683641590.844,-32.227,-23.926,-32.715,-36.621
1683641590.848,-28.320,-29.785,-39.551,-30.273
1683641590.852,-30.273,-35.645,-52.246,-34.180
1683641590.856,-35.156,-27.344,-39.062,-43.457
1683641590.860,-41.016,-32.715,-25.879,-46.387
1683641590.862,-36.133,-27.344,-23.926,-37.598
1683641590.866,-37.109,-31.738,-32.227,-38.086
1683641590.870,-40.527,-38.086,-41.992,-39.062
1683641590.874,-50.781,-41.016,-48.828,-46.387
1683641590.878,-49.805,-47.363,-41.992,-43.945
1683641590.882,-31.738,-39.551,-24.902,-31.738
1683641590.886,-30.273,-29.785,-44.922,-32.227
1683641590.889,-37.598,-42.480,-64.941,-32.715
1683641590.893,-41.504,-54.688,-51.758,-40.039
1683641590.897,-41.504,-45.410,-39.062,-48.828
1683641590.901,-21.973,-30.762,-19.043,-38.086
1683641590.905,-8.301,-26.367,-21.973,-28.809
1683641590.907,-16.113,-32.227,-38.574,-32.227
1683641590.911,-30.762,-47.852,-46.875,-39.062
1683641590.915,-37.109,-51.270,-46.875,-35.645
1683641590.919,-39.551,-52.246,-40.527,-34.180
1683641590.923,-43.945,-50.781,-43.945,-33.203
1683641590.927,-50.293,-40.527,-44.434,-29.785
1683641590.931,-59.082,-37.109,-48.828,-39.062
1683641590.934,-52.734,-43.945,-34.180,-36.621
1683641590.938,-40.039,-50.781,-43.945,-29.785
1683641590.942,-43.945,-53.711,-71.289,-37.598
1683641590.946,-50.293,-44.922,-42.969,-39.551
1683641590.950,-51.758,-34.180,-26.367,-41.016
1683641590.952,-54.199,-38.086,-30.762,-50.293
1683641590.956,-52.734,-46.387,-35.156,-46.387
1683641590.960,-48.828,-39.062,-48.340,-40.039
1683641590.964,-47.363,-41.016,-55.664,-39.551
1683641590.968,-55.664,-50.293,-57.617,-44.434
1683641590.972,-63.965,-38.574,-56.641,-51.270
1683641590.976,-51.758,-28.809,-28.809,-43.457
1683641590.979,-42.969,-26.855,-4.395,-29.297
1683641590.983,-38.574,-25.391,-24.902,-25.391
1683641590.987,-37.109,-36.133,-53.711,-31.250
1683641590.991,-40.039,-39.551,-38.086,-26.855
1683641590.995,-36.133,-29.297,-30.762,-21.484
1683641590.997,-30.762,-26.855,-47.363,-24.902
1683641591.001,-29.785,-28.320,-51.270,-27.344
1683641591.005,-41.504,-36.133,-47.852,-35.645
1683641591.009,-48.828,-39.062,-33.203,-41.504
1683641591.013,-42.480,-33.691,-23.926,-40.527
1683641591.017,-46.875,-38.086,-21.484,-43.457
1683641591.021,-53.711,-41.504,-24.414,-48.828
1683641591.024,-51.758,-44.922,-42.480,-50.781
1683641591.028,-55.176,-43.945,-58.594,-53.223
1683641591.032,-55.664,-36.621,-50.781,-51.270
1683641591.036,-48.340,-24.902,-30.762,-41.992
1683641591.040,-48.340,-22.461,-45.410,-38.574
1683641591.042,-52.734,-36.621,-65.918,-50.293
1683641591.046,-52.734,-41.016,-43.945,-55.664
1683641591.050,-53.711,-34.180,-22.949,-52.246
1683641591.054,-44.434,-29.785,-25.391,-45.410
1683641591.058,-36.621,-40.527,-25.879,-35.645
1683641591.062,-43.945,-50.293,-30.762,-41.016
1683641591.066,-56.641,-46.387,-39.062,-45.410
1683641591.069,-48.828,-36.133,-38.574,-38.086
1683641591.073,-36.133,-38.086,-36.133,-31.250
1683641591.077,-34.180,-32.227,-31.738,-26.367
1683641591.081,-34.180,-24.902,-34.668,-29.785
1683641591.085,-46.387,-37.109,-46.875,-40.039
1683641591.102,-50.781,-40.039,-65.918,-35.156
1683641591.106,-40.527,-37.109,-48.828,-28.809
1683641591.110,-32.227,-27.832,-21.484,-25.391
1683641591.114,-36.621,-27.344,-28.320,-26.855
1683641591.118,-42.969,-30.273,-28.809,-35.645
1683641591.122,-42.480,-15.625,-10.254,-34.668
1683641591.126,-41.016,-20.020,-12.695,-32.715
1683641591.129,-35.645,-33.691,-21.484,-33.691
1683641591.133,-43.945,-34.668,-33.203,-35.645
1683641591.137,-50.781,-35.645,-39.551,-40.039
1683641591.141,-43.457,-31.738,-37.109,-43.945
1683641591.145,-43.457,-28.809,-33.691,-36.621
1683641591.147,-42.969,-26.855,-31.738,-28.809
1683641591.151,-42.480,-31.738,-40.527,-34.668
1683641591.155,-47.363,-38.574,-42.969,-39.551
1683641591.159,-45.410,-35.156,-38.574,-41.504
1683641591.163,-42.480,-33.691,-32.715,-37.109
1683641591.167,-35.645,-36.133,-25.391,-27.344
1683641591.171,-31.738,-31.250,-27.832,-24.414
1683641591.174,-40.039,-30.762,-39.062,-29.297
1683641591.178,-33.691,-37.598,-35.645,-30.273
1683641591.182,-22.461,-37.109,-14.648,-26.855
1683641591.186,-16.602,-16.113,-3.418,-17.578
1683641591.190,-15.137,-9.766,-2.930,-13.672
1683641591.192,-27.832,-37.598,-23.926,-24.902
1683641591.196,-37.598,-46.387,-39.062,-27.344
1683641591.200,-34.668,-31.250,-33.691,-21.973
1683641591.204,-36.621,-21.973,-38.086,-23.438
1683641591.208,-44.434,-32.715,-39.551,-30.762
1683641591.212,-47.363,-41.992,-43.945,-37.598
1683641591.216,-45.898,-41.016,-47.852,-34.180
1683641591.219,-37.598,-35.156,-34.180,-26.367
1683641591.223,-31.738,-36.621,-23.926,-24.902
1683641591.227,-25.879,-45.898,-37.109,-24.414
1683641591.231,-30.273,-59.082,-49.316,-27.832
1683641591.235,-40.527,-61.523,-45.410,-33.691
1683641591.192,-27.832,-37.598,-23.926,-24.902
1683641591.196,-37.598,-46.387,-39.062,-27.344
1683641591.200,-34.668,-31.250,-33.691,-21.973
1683641591.204,-36.621,-21.973,-38.086,-23.438
1683641591.208,-44.434,-32.715,-39.551,-30.762
1683641591.212,-47.363,-41.992,-43.945,-37.598
1683641591.216,-45.898,-41.016,-47.852,-34.180
1683641591.219,-37.598,-35.156,-34.180,-26.367
1683641591.223,-31.738,-36.621,-23.926,-24.902
1683641591.227,-25.879,-45.898,-37.109,-24.414
1683641591.231,-30.273,-59.082,-49.316,-27.832
1683641591.235,-40.527,-61.523,-45.410,-33.691
1683641591.237,-38.086,-49.805,-42.969,-35.645
1683641591.241,-30.273,-40.527,-47.363,-37.109
1683641591.245,-29.785,-26.367,-34.668,-32.227
1683641591.249,-35.156,-38.086,-24.414,-31.250
1683641591.253,-45.898,-55.176,-43.457,-38.086
1683641591.257,-51.270,-46.387,-55.176,-43.457
1683641591.261,-43.945,-37.109,-38.086,-36.621
1683641591.264,-26.855,-27.344,-25.879,-26.367
1683641591.268,-18.066,-20.996,-23.438,-19.531
1683641591.272,-25.391,-29.297,-41.016,-28.320
1683641591.276,-35.645,-40.039,-61.035,-35.156
1683641591.280,-29.297,-35.645,-61.523,-26.367
1683641591.282,-25.391,-36.621,-52.734,-26.367
1683641591.286,-23.926,-42.969,-47.363,-29.297
1683641591.290,-31.738,-42.480,-39.551,-35.645
1683641591.294,-41.992,-32.227,-31.738,-36.621
1683641591.298,-27.344,-21.973,-18.066,-30.273
1683641591.302,-12.695,-21.484,-33.691,-18.066
1683641591.306,-18.555,-23.926,-61.035,-21.484
1683641591.309,-30.273,-34.180,-39.062,-39.062
1683641591.313,-40.527,-40.527,-23.438,-47.363
1683641591.317,-38.086,-34.668,-29.297,-41.992
1683641591.321,-17.090,-15.625,-36.133,-30.273
1683641591.325,-15.137,-11.719,-37.109,-31.250
1683641591.327,-24.902,-27.344,-34.180,-41.016
1683641591.331,-30.273,-37.598,-40.039,-43.945
1683641591.335,-35.156,-41.504,-40.527,-47.363
1683641591.339,-33.203,-36.621,-38.574,-41.016
1683641591.343,-33.691,-37.109,-44.922,-31.250
1683641591.347,-42.969,-43.945,-60.547,-35.645
1683641591.351,-45.410,-36.621,-50.293,-36.133
1683641591.354,-45.898,-31.738,-37.598,-43.457
1683641591.358,-42.969,-36.621,-41.504,-52.734
1683641591.362,-32.227,-31.250,-46.875,-41.016
1683641591.366,-33.203,-32.715,-51.270,-37.598
1683641591.370,-43.457,-41.992,-34.668,-44.434
1683641591.372,-41.504,-39.062,-19.531,-38.574
1683641591.376,-34.668,-33.203,-16.113,-32.227
1683641591.380,-33.203,-33.691,-17.578,-33.203
1683641591.384,-33.691,-31.738,-35.645,-36.621
1683641591.388,-42.480,-38.086,-40.039,-41.504
1683641591.392,-49.316,-40.527,-30.762,-38.086
1683641591.396,-38.574,-25.391,-29.785,-30.762
1683641591.399,-28.809,-21.484,-27.832,-28.809
1683641591.403,-30.273,-30.273,-41.504,-35.156
1683641591.407,-41.504,-41.016,-54.199,-41.016
1683641591.411,-49.316,-40.039,-51.758,-47.852
1683641591.415,-40.527,-22.949,-41.016,-48.828
1683641591.417,-33.203,-23.926,-28.809,-44.922
1683641591.421,-39.062,-31.738,-28.320,-44.922
1683641591.425,-46.875,-40.527,-33.691,-46.875
1683641591.429,-42.969,-44.434,-44.922,-48.828
1683641591.433,-40.527,-41.992,-55.664,-47.852
1683641591.437,-40.039,-41.016,-45.410,-40.527
1683641591.441,-37.598,-31.738,-39.062,-40.527
1683641591.444,-38.574,-33.203,-48.828,-51.758
1683641591.448,-38.574,-37.109,-44.922,-47.852
1683641591.452,-36.621,-35.156,-26.367,-40.039
1683641591.456,-26.367,-28.809,-27.344,-33.691
1683641591.460,-17.090,-28.320,-41.992,-30.762
1683641591.477,-28.320,-41.992,-48.340,-39.062
1683641591.481,-32.227,-43.945,-40.039,-43.945
1683641591.485,-29.297,-30.273,-25.391,-38.574
1683641591.489,-27.832,-25.391,-20.508,-26.855
1683641591.493,-31.250,-42.480,-40.039,-35.156
1683641591.497,-37.598,-50.293,-61.523,-42.480
1683641591.501,-31.738,-41.504,-51.758,-33.203
1683641591.504,-33.691,-42.480,-35.645,-32.715
1683641591.508,-37.598,-35.156,-22.949,-30.762
1683641591.512,-35.645,-29.297,-24.902,-35.645
1683641591.516,-34.668,-37.109,-43.945,-45.898
1683641591.520,-35.645,-41.992,-56.641,-47.852
1683641591.522,-39.062,-46.387,-52.734,-45.410
1683641591.526,-35.156,-38.086,-32.715,-36.621
1683641591.530,-31.250,-25.879,-32.715,-29.785
1683641591.534,-38.086,-28.320,-55.664,-38.086
1683641591.538,-40.039,-40.527,-49.805,-50.781
1683641591.542,-40.039,-50.293,-36.133,-47.363
1683641591.546,-34.180,-38.574,-26.855,-35.156
1683641591.549,-29.785,-33.691,-13.672,-31.738
1683641591.553,-34.180,-45.410,-32.715,-34.668
1683641591.557,-43.457,-50.781,-62.012,-36.133
1683641591.561,-40.039,-45.898,-41.016,-31.738
1683641591.565,-28.809,-40.039,-7.812,-24.414
1683641591.522,-39.062,-46.387,-52.734,-45.410
1683641591.526,-35.156,-38.086,-32.715,-36.621
1683641591.530,-31.250,-25.879,-32.715,-29.785
1683641591.534,-38.086,-28.320,-55.664,-38.086
1683641591.538,-40.039,-40.527,-49.805,-50.781
1683641591.542,-40.039,-50.293,-36.133,-47.363
1683641591.546,-34.180,-38.574,-26.855,-35.156
1683641591.549,-29.785,-33.691,-13.672,-31.738
1683641591.553,-34.180,-45.410,-32.715,-34.668
1683641591.557,-43.457,-50.781,-62.012,-36.133
1683641591.561,-40.039,-45.898,-41.016,-31.738
1683641591.565,-28.809,-40.039,-7.812,-24.414
1683641591.567,-16.602,-24.414,-13.672,-21.484
1683641591.571,-15.625,-29.297,-28.320,-25.879
1683641591.575,-34.180,-62.012,-49.316,-40.527
1683641591.579,-34.668,-59.082,-59.082,-37.598
1683641591.583,-23.926,-37.598,-40.039,-25.391
1683641591.587,-25.391,-31.738,-33.691,-24.902
1683641591.591,-26.855,-25.391,-41.992,-25.391
1683641591.594,-25.879,-23.926,-42.480,-33.203
1683641591.598,-33.203,-38.574,-39.551,-43.457
1683641591.602,-37.598,-42.480,-19.043,-40.039
1683641591.606,-34.180,-30.273,-6.836,-31.738
1683641591.610,-31.250,-28.809,-19.531,-29.297
1683641591.612,-42.969,-35.645,-37.109,-38.086
1683641591.616,-51.270,-40.039,-36.621,-40.527
1683641591.620,-46.875,-39.551,-42.480,-33.203
1683641591.624,-35.645,-35.645,-37.109,-32.227
1683641591.628,-35.156,-32.715,-24.414,-36.133
1683641591.632,-43.457,-35.645,-32.227,-41.504
1683641591.636,-53.711,-40.039,-44.434,-43.457
1683641591.639,-55.664,-43.945,-41.504,-43.457
1683641591.643,-44.434,-41.016,-19.531,-33.691
1683641591.647,-49.805,-44.434,-42.969,-33.691
1683641591.651,-53.711,-43.945,-57.617,-35.645
1683641591.655,-49.805,-31.738,-38.574,-37.598
1683641591.612,-42.969,-35.645,-37.109,-38.086
1683641591.616,-51.270,-40.039,-36.621,-40.527
1683641591.620,-46.875,-39.551,-42.480,-33.203
1683641591.624,-35.645,-35.645,-37.109,-32.227
1683641591.628,-35.156,-32.715,-24.414,-36.133
1683641591.632,-43.457,-35.645,-32.227,-41.504
1683641591.636,-53.711,-40.039,-44.434,-43.457
1683641591.639,-55.664,-43.945,-41.504,-43.457
1683641591.643,-44.434,-41.016,-19.531,-33.691
1683641591.647,-49.805,-44.434,-42.969,-33.691
1683641591.651,-53.711,-43.945,-57.617,-35.645
1683641591.655,-49.805,-31.738,-38.574,-37.598
1683641591.657,-40.527,-38.086,-29.785,-38.574
1683641591.661,-27.344,-40.039,-27.344,-29.785
1683641591.665,-20.020,-27.832,-25.391,-20.020
1683641591.669,-23.926,-27.832,-35.156,-24.414
1683641591.673,-28.320,-27.832,-34.180,-32.715
1683641591.677,-28.809,-21.484,-19.043,-32.227
1683641591.681,-30.273,-20.508,-20.996,-33.691
1683641591.684,-24.414,-33.203,-19.531,-36.621
1683641591.688,-32.227,-44.922,-35.645,-44.922
1683641591.692,-41.504,-39.062,-56.641,-52.734
1683641591.696,-33.203,-35.645,-46.387,-46.875
1683641591.700,-31.738,-34.668,-30.273,-42.969
1683641591.702,-31.250,-34.668,-22.949,-46.875
1683641591.706,-30.762,-30.273,-34.668,-45.898
1683641591.710,-35.645,-35.645,-46.875,-45.410
1683641591.714,-37.598,-42.969,-47.852,-41.992
1683641591.718,-36.621,-29.297,-34.180,-29.785
1683641591.722,-35.156,-29.785,-21.973,-25.391
1683641591.726,-32.227,-35.645,-23.438,-28.809
1683641591.729,-33.203,-35.156,-33.203,-37.109
1683641591.733,-33.203,-48.340,-44.922,-41.504
1683641591.737,-30.273,-41.504,-33.691,-38.086
1683641591.741,-29.297,-20.996,-21.973,-34.180
1683641591.745,-36.133,-29.785,-28.320,-40.039
1683641591.747,-46.387,-45.410,-39.062,-48.340
1683641591.751,-51.270,-42.480,-41.504,-45.898
1683641591.755,-47.363,-42.969,-29.297,-39.062
1683641591.759,-32.227,-33.203,-28.809,-29.297
1683641591.763,-34.180,-32.227,-44.922,-29.297
