timestamps,TP9,AF7,AF8,TP10
1683641384.881,-35.645,-21.973,-33.691,-36.621
1683641384.885,-43.457,-35.156,-40.039,-42.969
1683641384.889,-47.363,-33.203,-32.227,-41.992
1683641384.893,-38.574,-21.484,-19.531,-28.809
1683641384.897,-18.555,-19.043,-13.672,-22.461
1683641384.901,-22.461,-22.949,-22.949,-32.715
1683641384.905,-42.969,-25.879,-27.832,-44.434
1683641384.908,-47.363,-31.250,-15.137,-47.852
1683641384.912,-41.992,-31.738,-14.160,-41.992
1683641384.916,-36.621,-26.855,-20.020,-36.133
1683641384.920,-33.691,-24.414,-29.297,-37.109
1683641384.924,-34.180,-31.738,-36.621,-41.504
1683641384.926,-30.273,-35.156,-31.250,-38.574
1683641384.930,-20.508,-31.250,-16.602,-31.250
1683641384.934,-14.160,-20.508,-6.348,-24.902
1683641384.938,-14.648,-16.113,-16.113,-16.602
1683641384.942,-26.367,-26.855,-33.203,-24.902
1683641384.946,-35.645,-32.715,-31.738,-40.527
1683641384.950,-30.762,-28.809,-9.766,-35.645
1683641384.953,-13.672,-26.367,-3.418,-22.949
1683641384.957,-19.531,-26.855,-25.879,-20.996
1683641384.961,-32.715,-29.785,-39.062,-35.156
1683641384.965,-34.668,-32.715,-37.109,-43.945
1683641384.969,-27.344,-28.809,-24.902,-37.598
1683641384.971,-26.855,-26.367,-18.555,-27.344
1683641384.975,-30.273,-22.949,-26.855,-25.391
1683641384.979,-25.879,-25.879,-36.133,-36.133
1683641384.983,-38.086,-33.203,-33.203,-46.875
1683641384.987,-41.504,-35.645,-23.438,-49.805
1683641384.991,-28.320,-27.344,-13.184,-38.574
1683641384.995,-23.438,-23.438,-8.789,-33.691
1683641384.998,-33.203,-26.855,-23.926,-41.992
1683641385.002,-41.504,-43.457,-45.410,-57.129
1683641385.006,-35.645,-53.223,-36.621,-55.664
1683641385.010,-24.902,-40.039,-13.184,-41.992
1683641385.014,-21.973,-34.180,-15.137,-38.086
1683641385.016,-29.785,-36.133,-29.297,-36.621
1683641385.020,-44.434,-42.480,-40.527,-41.016
1683641385.024,-52.734,-47.852,-31.250,-41.016
1683641385.028,-42.480,-37.109,-18.555,-27.832
1683641385.032,-29.297,-31.250,-21.973,-24.414
1683641385.036,-33.203,-32.715,-29.297,-30.762
1683641385.040,-35.156,-30.762,-31.738,-40.527
1683641385.043,-37.598,-28.809,-28.809,-40.527
1683641385.047,-40.039,-26.367,-17.578,-31.250
1683641385.051,-20.020,-27.832,-18.555,-30.273
1683641385.055,-15.625,-26.367,-35.156,-27.832
1683641385.059,-29.785,-30.762,-42.480,-33.203
1683641385.076,-22.461,-28.320,-32.227,-34.668
1683641385.080,-19.043,-24.902,-18.555,-23.438
1683641385.084,-28.320,-27.344,-16.113,-22.949
1683641385.088,-35.156,-31.738,-30.273,-29.297
1683641385.092,-46.387,-34.180,-40.039,-31.738
1683641385.096,-51.270,-36.621,-28.809,-39.062
1683641385.100,-44.922,-31.738,-15.625,-41.016
1683641385.103,-40.527,-26.855,-23.438,-33.203
1683641385.107,-43.457,-36.133,-29.297,-40.527
1683641385.111,-55.664,-47.852,-28.320,-57.617
1683641385.115,-55.664,-50.293,-44.434,-62.500
1683641385.119,-52.734,-51.758,-34.668,-54.199
1683641385.121,-44.434,-39.551,-17.090,-36.133
1683641385.125,-39.062,-27.832,-22.949,-27.344
1683641385.129,-53.223,-36.621,-36.133,-41.504
1683641385.133,-59.082,-43.457,-41.504,-52.246
1683641385.137,-59.570,-41.992,-29.785,-43.945
1683641385.141,-44.922,-34.668,-14.648,-27.832
1683641385.145,-32.227,-22.461,-18.555,-20.508
1683641385.148,-37.109,-28.320,-41.016,-30.273
1683641385.152,-42.480,-47.363,-11.719,-41.504
1683641385.156,-44.922,-50.293,9.766,-41.016
1683641385.160,-35.156,-37.598,-20.996,-29.785
1683641385.164,-25.879,-24.902,-20.508,-20.996
1683641385.166,-36.621,-25.391,-38.574,-27.832
1683641385.170,-52.246,-41.504,-57.129,-45.410
1683641385.174,-48.340,-44.922,-42.969,-45.410
1683641385.178,-27.344,-28.809,-29.297,-27.344
1683641385.182,-26.367,-19.531,-33.691,-20.996
1683641385.186,-40.039,-26.367,-41.992,-29.785
1683641385.190,-34.668,-30.273,-47.363,-41.992
1683641385.193,-34.668,-33.203,-35.156,-48.340
1683641385.197,-27.344,-30.273,-14.160,-37.109
1683641385.201,-14.648,-23.926,-22.461,-27.344
1683641385.205,-31.738,-26.367,-43.945,-34.180
1683641385.209,-38.574,-33.691,-51.758,-37.598
1683641385.211,-33.203,-32.715,-41.992,-44.434
1683641385.215,-33.691,-28.320,-30.762,-39.551
1683641385.219,-35.645,-26.855,-29.297,-23.926
1683641385.223,-32.227,-26.367,-39.062,-27.832
1683641385.227,-47.363,-37.109,-48.340,-40.039
1683641385.231,-57.129,-35.645,-39.062,-44.922
1683641385.235,-43.457,-23.438,-29.297,-34.668
1683641385.238,-36.621,-25.391,-26.367,-25.391
1683641385.242,-27.832,-31.250,-40.527,-36.133
1683641385.246,-26.367,-35.645,-60.547,-48.828
1683641385.250,-48.828,-35.156,-48.828,-52.734
1683641385.254,-52.734,-32.715,-30.273,-47.363
1683641385.256,-37.598,-32.715,-31.738,-39.062
1683641385.260,-35.156,-31.250,-41.016,-37.109
1683641385.264,-48.828,-30.762,-49.805,-45.898
1683641385.268,-55.176,-36.621,-43.945,-49.805
1683641385.272,-49.316,-39.551,-27.344,-42.969
1683641385.276,-48.340,-41.016,-28.320,-40.039
1683641385.280,-51.270,-40.039,-38.086,-36.133
1683641385.283,-48.828,-44.434,-38.086,-43.457
1683641385.287,-53.711,-55.176,-53.223,-56.641
1683641385.291,-50.293,-52.246,-46.387,-50.293
1683641385.295,-36.133,-35.156,-34.668,-38.086
1683641385.299,-38.086,-35.645,-46.387,-37.109
1683641385.301,-47.852,-44.434,-54.199,-42.969
1683641385.305,-47.363,-39.062,-47.363,-38.574
1683641385.309,-48.340,-32.227,-31.738,-35.156
1683641385.313,-50.781,-21.484,-26.367,-35.645
1683641385.317,-48.828,-23.926,-34.668,-36.133
1683641385.321,-55.176,-28.320,-43.945,-43.457
1683641385.325,-58.105,-26.367,-39.062,-50.781
1683641385.328,-58.105,-32.715,-30.273,-53.711
1683641385.332,-58.594,-28.809,-26.855,-42.480
1683641385.336,-60.547,-30.762,-30.762,-29.785
1683641385.340,-59.082,-35.645,-41.992,-40.039
1683641385.344,-60.059,-32.715,-44.922,-49.805
1683641385.346,-60.059,-31.250,-34.180,-43.457
1683641385.350,-46.387,-32.715,-24.414,-35.156
1683641385.354,-43.945,-31.738,-26.367,-30.273
1683641385.358,-50.781,-30.762,-39.062,-41.504
1683641385.362,-63.965,-36.621,-52.246,-59.082
1683641385.366,-62.500,-37.598,-40.527,-55.664
1683641385.370,-52.734,-27.832,-5.371,-40.039
1683641385.373,-53.711,-22.949,-15.625,-35.156
1683641385.377,-59.570,-29.785,-47.363,-40.527
1683641385.381,-64.941,-36.133,-48.828,-49.316
1683641385.385,-66.406,-37.109,-43.457,-54.199
1683641385.389,-62.012,-34.180,-42.480,-46.875
1683641385.406,-47.363,-31.738,-31.250,-31.738
1683641385.410,-52.734,-32.715,-31.250,-34.668
1683641385.414,-65.430,-33.203,-40.527,-50.293
1683641385.418,-68.848,-37.598,-48.340,-66.406
1683641385.422,-59.082,-40.527,-47.363,-62.012
1683641385.426,-43.457,-31.738,-32.227,-38.574
1683641385.430,-37.598,-31.250,-34.180,-34.180
1683641385.433,-45.410,-36.621,-50.293,-43.945
1683641385.437,-54.199,-45.898,-57.617,-59.082
1683641385.441,-52.246,-42.969,-30.273,-62.500
1683641385.445,-48.340,-27.344,-18.555,-48.340
1683641385.449,-48.340,-31.250,-42.969,-46.875
1683641385.451,-52.734,-35.156,-52.734,-55.664
1683641385.455,-58.594,-33.203,-49.316,-55.176
1683641385.459,-60.059,-34.180,-40.039,-50.293
1683641385.463,-45.898,-30.762,-31.250,-39.551
1683641385.467,-41.016,-32.715,-29.297,-36.133
1683641385.471,-56.152,-39.551,-40.527,-46.387
1683641385.475,-60.059,-41.504,-48.828,-55.664
1683641385.478,-51.270,-34.180,-43.457,-52.246
1683641385.482,-45.410,-26.855,-26.855,-36.621
1683641385.486,-32.227,-26.367,-14.648,-28.809
1683641385.490,-36.621,-28.320,-29.785,-34.180
1683641385.494,-50.781,-31.738,-43.945,-42.480
1683641385.496,-50.781,-34.180,-35.645,-41.504
1683641385.500,-40.527,-30.762,-24.902,-27.832
1683641385.504,-26.855,-23.926,-26.367,-17.578
1683641385.508,-24.902,-22.461,-41.504,-23.926
1683641385.512,-44.922,-32.715,-50.781,-39.551
1683641385.516,-54.199,-32.227,-41.016,-44.922
1683641385.520,-42.969,-27.832,-30.762,-39.551
1683641385.523,-36.621,-29.785,-38.086,-33.203
1683641385.527,-30.273,-31.738,-19.531,-36.621
1683641385.531,-38.086,-40.527,-19.531,-44.434
1683641385.535,-40.039,-39.062,-45.898,-39.551
1683641385.539,-25.879,-27.344,-29.297,-25.879
1683641385.541,-29.785,-22.949,-25.879,-19.531
1683641385.545,-33.691,-27.832,-41.504,-26.855
1683641385.549,-30.762,-27.344,-48.340,-37.109
1683641385.553,-36.621,-28.809,-35.156,-39.062
1683641385.557,-30.273,-27.344,-21.484,-28.809
1683641385.561,-15.137,-18.066,-23.926,-18.555
1683641385.565,-17.578,-17.578,-34.668,-21.484
1683641385.568,-32.227,-29.785,-40.527,-32.227
1683641385.572,-35.645,-43.457,-26.367,-38.086
1683641385.576,-34.180,-39.551,-24.902,-33.203
1683641385.580,-25.879,-29.297,-29.297,-28.809
1683641385.584,-20.996,-23.438,-28.320,-27.344
1683641385.541,-29.785,-22.949,-25.879,-19.531
1683641385.545,-33.691,-27.832,-41.504,-26.855
1683641385.549,-30.762,-27.344,-48.340,-37.109
1683641385.553,-36.621,-28.809,-35.156,-39.062
1683641385.557,-30.273,-27.344,-21.484,-28.809
1683641385.561,-15.137,-18.066,-23.926,-18.555
1683641385.565,-17.578,-17.578,-34.668,-21.484
1683641385.568,-32.227,-29.785,-40.527,-32.227
1683641385.572,-35.645,-43.457,-26.367,-38.086
1683641385.576,-34.180,-39.551,-24.902,-33.203
1683641385.580,-25.879,-29.297,-29.297,-28.809
1683641385.584,-20.996,-23.438,-28.320,-27.344
1683641385.586,-35.156,-27.344,-40.039,-34.180
1683641385.590,-44.922,-32.227,-48.340,-41.992
1683641385.594,-38.086,-29.297,-39.551,-39.062
1683641385.598,-23.926,-27.832,-30.273,-27.832
1683641385.602,-26.855,-24.902,-40.039,-28.320
1683641385.606,-42.969,-28.320,-48.340,-38.086
1683641385.610,-39.551,-29.785,-41.016,-39.062
1683641385.613,-26.855,-32.227,-25.391,-32.715
1683641385.617,-18.555,-37.598,-21.484,-21.973
1683641385.621,-15.625,-31.738,-37.598,-16.113
1683641385.625,-25.391,-35.156,-49.316,-31.738
1683641385.629,-33.691,-41.016,-51.758,-43.945
1683641385.631,-28.809,-38.574,-37.109,-32.715
1683641385.635,-17.090,-26.855,-21.484,-15.625
1683641385.639,-12.695,-20.996,-26.855,-10.254
1683641385.643,-19.531,-27.344,-39.551,-21.484
1683641385.647,-25.879,-27.344,-43.945,-36.621
1683641385.651,-34.180,-25.879,-33.203,-36.621
1683641385.655,-33.203,-20.508,-23.926,-29.785
1683641385.658,-23.438,-24.902,-34.668,-26.367
1683641385.662,-27.832,-37.109,-46.387,-37.598
1683641385.666,-44.922,-41.504,-46.875,-50.293
1683641385.670,-42.480,-35.645,-39.551,-41.992
1683641385.674,-25.391,-33.691,-29.297,-30.273
1683641385.676,-22.461,-33.203,-32.227,-29.297
1683641385.680,-41.992,-34.668,-51.270,-45.898
1683641385.684,-46.387,-36.621,-56.152,-55.176
1683641385.688,-35.156,-37.598,-43.457,-44.922
1683641385.692,-29.785,-35.645,-30.273,-30.273
1683641385.696,-26.855,-26.367,-27.344,-23.926
1683641385.700,-27.832,-29.297,-32.715,-32.227
1683641385.703,-43.457,-41.016,-45.410,-44.922
1683641385.707,-53.711,-45.410,-49.805,-48.828
1683641385.711,-41.016,-43.945,-38.574,-38.574
1683641385.715,-35.645,-36.133,-36.621,-35.645
1683641385.719,-41.992,-32.715,-45.898,-34.180
1683641385.676,-22.461,-33.203,-32.227,-29.297
1683641385.680,-41.992,-34.668,-51.270,-45.898
1683641385.684,-46.387,-36.621,-56.152,-55.176
1683641385.688,-35.156,-37.598,-43.457,-44.922
1683641385.692,-29.785,-35.645,-30.273,-30.273
1683641385.696,-26.855,-26.367,-27.344,-23.926
1683641385.700,-27.832,-29.297,-32.715,-32.227
1683641385.703,-43.457,-41.016,-45.410,-44.922
1683641385.707,-53.711,-45.410,-49.805,-48.828
1683641385.711,-41.016,-43.945,-38.574,-38.574
1683641385.715,-35.645,-36.133,-36.621,-35.645
1683641385.719,-41.992,-32.715,-45.898,-34.180
1683641385.721,-35.645,-34.180,-52.734,-31.738
1683641385.725,-30.273,-33.691,-41.504,-36.133
1683641385.729,-27.344,-34.668,-29.297,-30.762
1683641385.733,-16.113,-30.273,-27.344,-15.137
1683641385.737,-25.391,-32.715,-45.898,-16.602
1683641385.741,-37.598,-41.016,-56.152,-30.273
1683641385.745,-44.922,-36.621,-32.227,-35.156
1683641385.748,-44.434,-36.621,-30.273,-30.273
1683641385.752,-25.391,-33.691,-39.062,-23.438
1683641385.756,-23.926,-28.320,-46.875,-29.297
1683641385.760,-41.992,-36.621,-56.152,-38.574
1683641385.764,-50.293,-42.969,-53.223,-45.410
1683641385.781,-41.504,-42.480,-43.457,-46.875
1683641385.785,-28.809,-39.062,-39.551,-34.668
1683641385.789,-27.344,-32.715,-43.457,-33.203
1683641385.793,-35.156,-31.738,-53.223,-47.363
1683641385.797,-32.227,-35.156,-57.617,-50.293
1683641385.801,-27.832,-33.203,-10.742,-38.574
1683641385.805,-20.996,-23.438,-0.977,-26.367
1683641385.808,-23.438,-23.438,-38.574,-25.391
1683641385.812,-44.922,-39.062,-50.781,-42.480
1683641385.816,-51.270,-45.898,-41.504,-46.875
1683641385.820,-42.480,-44.434,-32.227,-36.621
1683641385.824,-33.691,-37.598,-38.574,-30.273
1683641385.826,-27.832,-31.738,-39.551,-25.391
1683641385.830,-28.809,-38.086,-52.246,-33.203
1683641385.834,-42.480,-40.527,-59.570,-44.434
1683641385.838,-40.527,-33.691,-49.316,-42.480
1683641385.842,-27.832,-26.855,-33.691,-33.691
1683641385.846,-20.996,-21.484,-33.691,-32.227
1683641385.850,-20.996,-18.066,-44.922,-35.156
1683641385.853,-33.691,-20.020,-48.828,-38.574
1683641385.857,-41.992,-35.156,-46.387,-42.480
1683641385.861,-40.527,-39.551,-40.039,-31.250
1683641385.865,-25.391,-24.414,-28.320,-13.672
1683641385.869,-26.367,-25.879,-34.668,-17.578
1683641385.826,-27.832,-31.738,-39.551,-25.391
1683641385.830,-28.809,-38.086,-52.246,-33.203
1683641385.834,-42.480,-40.527,-59.570,-44.434
1683641385.838,-40.527,-33.691,-49.316,-42.480
1683641385.842,-27.832,-26.855,-33.691,-33.691
1683641385.846,-20.996,-21.484,-33.691,-32.227
1683641385.850,-20.996,-18.066,-44.922,-35.156
1683641385.853,-33.691,-20.020,-48.828,-38.574
1683641385.857,-41.992,-35.156,-46.387,-42.480
1683641385.861,-40.527,-39.551,-40.039,-31.250
1683641385.865,-25.391,-24.414,-28.320,-13.672
1683641385.869,-26.367,-25.879,-34.668,-17.578
1683641385.871,-38.086,-33.203,-45.410,-28.809
1683641385.875,-39.551,-38.574,-44.922,-37.109
1683641385.879,-38.574,-40.527,-39.062,-34.668
1683641385.883,-24.902,-34.668,-36.621,-26.855
1683641385.887,-21.973,-32.715,-53.223,-30.762
1683641385.891,-40.527,-37.109,-72.266,-43.457
1683641385.895,-47.363,-42.480,-77.637,-47.852
1683641385.898,-27.832,-34.180,-73.730,-38.574
1683641385.902,-10.742,-28.320,-57.617,-28.809
1683641385.906,-13.184,-30.762,-63.477,-34.668
1683641385.910,-22.949,-34.668,-90.820,-51.270
1683641385.914,-31.250,-41.992,-86.914,-60.547
1683641385.916,-30.762,-32.715,-69.824,-48.828
1683641385.920,-29.297,-26.855,-67.871,-30.762
1683641385.924,-28.320,-29.785,-70.312,-28.320
1683641385.928,-32.715,-31.250,-71.777,-37.598
1683641385.932,-45.410,-34.180,-68.359,-44.434
1683641385.936,-49.316,-33.691,-58.105,-42.969
1683641385.940,-37.598,-26.367,-55.176,-37.598
1683641385.943,-38.574,-28.809,-61.523,-38.574
1683641385.947,-51.270,-44.922,-66.895,-43.945
1683641385.951,-57.617,-51.758,-64.941,-51.270
1683641385.955,-48.340,-42.969,-56.641,-43.945
1683641385.959,-32.715,-31.738,-31.250,-26.367
1683641385.961,-40.527,-30.273,-22.461,-31.738
1683641385.965,-56.152,-32.227,-53.711,-50.293
1683641385.969,-61.035,-36.133,-61.523,-58.105
1683641385.973,-48.340,-34.180,-47.852,-54.688
1683641385.977,-31.250,-28.320,-37.109,-40.039
1683641385.981,-27.344,-26.367,-38.086,-28.809
1683641385.985,-40.039,-27.344,-58.594,-37.598
1683641385.988,-49.805,-38.574,-44.434,-52.246
1683641385.992,-52.246,-45.898,-23.926,-51.758
1683641385.996,-48.340,-36.621,-38.574,-39.062
1683641386.000,-39.062,-26.367,-43.945,-29.785
1683641386.004,-45.898,-29.785,-55.176,-33.691
1683641386.006,-70.312,-38.086,-64.941,-55.176
1683641386.010,-65.918,-41.992,-60.059,-54.199
1683641386.014,-44.922,-33.203,-44.922,-33.691
1683641386.018,-36.621,-24.902,-41.504,-29.785
1683641386.022,-40.527,-34.180,-55.664,-41.016
1683641386.026,-51.270,-39.062,-68.359,-52.734
1683641386.030,-51.270,-28.320,-48.340,-52.734
1683641386.033,-46.875,-28.320,-6.836,-41.016
1683641386.037,-43.457,-33.691,-20.996,-35.156
1683641386.041,-43.457,-27.344,-51.270,-46.875
1683641386.045,-54.199,-24.902,-56.152,-62.500
1683641386.049,-55.664,-23.926,-57.129,-66.406
1683641386.051,-41.016,-30.762,-46.387,-56.641
1683641386.055,-42.969,-34.668,-38.574,-49.805
1683641386.059,-49.805,-24.414,-42.969,-48.340
1683641386.063,-46.875,-26.367,-52.734,-53.711
1683641386.067,-48.340,-30.273,-49.805,-61.523
1683641386.071,-45.898,-24.902,-34.180,-53.711
1683641386.075,-43.457,-22.949,-15.137,-44.434
1683641386.078,-50.781,-27.832,-20.508,-55.176
1683641386.082,-55.176,-36.133,-47.363,-64.453
1683641386.086,-50.781,-33.691,-42.969,-55.664
1683641386.090,-47.852,-30.762,-29.297,-50.781
1683641386.094,-50.293,-27.832,-23.926,-45.410
1683641386.096,-44.922,-25.879,-30.762,-42.480
1683641386.100,-54.688,-37.109,-37.598,-54.199
1683641386.104,-73.242,-42.969,-34.180,-62.988
1683641386.108,-67.871,-40.039,-31.738,-62.500
1683641386.112,-61.523,-37.109,-29.785,-57.617
1683641386.116,-52.734,-32.227,-26.855,-53.223
1683641386.120,-53.223,-30.273,-27.832,-55.176
1683641386.123,-65.918,-36.133,-29.297,-63.477
1683641386.127,-66.406,-41.016,-20.020,-64.453
1683641386.131,-57.129,-38.574,-10.742,-54.688
1683641386.135,-48.828,-30.762,-18.555,-48.340
1683641386.139,-58.105,-28.320,-30.273,-50.293
1683641386.141,-74.219,-38.574,-33.691,-58.105
1683641386.145,-64.941,-45.898,-25.391,-58.105
1683641386.149,-49.805,-32.715,-12.695,-45.410
1683641386.153,-44.922,-24.414,-19.043,-39.062
1683641386.157,-48.340,-32.715,-29.785,-41.504
1683641386.161,-51.758,-35.645,-33.691,-44.434
1683641386.165,-44.922,-33.203,-27.832,-45.898
1683641386.168,-39.062,-31.738,-14.160,-35.645
1683641386.172,-32.715,-32.227,-17.578,-28.809
1683641386.176,-32.715,-39.062,-27.344,-39.551
1683641386.180,-44.434,-38.574,-26.855,-50.293
1683641386.184,-54.199,-38.574,-20.020,-47.852
1683641386.201,-37.109,-31.738,-1.953,-28.809
1683641386.205,-23.926,-26.367,8.301,-15.625
1683641386.209,-37.598,-29.785,-5.371,-24.902
1683641386.213,-48.828,-29.785,-19.531,-37.109
1683641386.217,-49.805,-33.691,-21.484,-43.945
1683641386.221,-49.316,-32.227,-10.254,-40.039
1683641386.225,-44.434,-24.414,-8.789,-34.180
1683641386.228,-35.156,-22.461,-22.949,-28.809
1683641386.232,-41.016,-35.645,-37.109,-37.109
1683641386.236,-53.711,-45.410,-42.480,-55.664
1683641386.240,-51.270,-37.109,-23.926,-47.852
1683641386.244,-34.668,-30.762,-7.324,-26.367
1683641386.246,-27.832,-31.738,-15.137,-20.508
1683641386.250,-43.945,-41.016,-30.762,-34.668
1683641386.254,-48.828,-40.527,-29.297,-43.457
1683641386.258,-37.109,-30.273,-17.578,-33.691
1683641386.262,-22.949,-23.438,-4.395,-19.531
1683641386.266,-28.320,-24.902,-7.812,-21.973
1683641386.270,-46.875,-35.156,-24.902,-31.738
1683641386.273,-55.176,-41.016,-30.762,-36.621
1683641386.277,-47.852,-41.504,-20.508,-24.902
1683641386.281,-43.945,-39.551,-14.648,-21.973
1683641386.285,-41.992,-37.109,-25.391,-24.414
1683641386.289,-42.969,-37.598,-32.715,-25.879
1683641386.291,-47.852,-39.551,-30.762,-37.109
1683641386.295,-44.434,-35.156,-21.973,-32.715
1683641386.299,-35.645,-35.645,-11.719,-28.320
1683641386.303,-27.344,-33.691,-12.207,-26.367
1683641386.307,-31.738,-34.180,-27.832,-27.344
1683641386.311,-35.156,-41.504,-38.086,-33.203
1683641386.315,-29.297,-37.598,-32.227,-33.203
1683641386.318,-23.926,-26.855,-14.160,-28.809
1683641386.322,-24.902,-30.273,0.488,-26.367
1683641386.326,-29.297,-37.109,-26.855,-33.203
1683641386.330,-36.133,-41.504,-46.875,-41.016
1683641386.334,-31.250,-38.086,-30.762,-32.715
1683641386.336,-15.137,-28.320,-20.020,-18.555
1683641386.340,-9.277,-28.320,-22.461,-6.348
1683641386.344,-18.066,-29.297,-31.738,-5.371
1683641386.348,-35.645,-36.621,-46.387,-20.996
1683641386.352,-32.227,-40.039,-44.434,-22.461
1683641386.356,-18.066,-34.180,-28.320,-9.766
1683641386.360,-11.230,-25.879,-30.273,-2.441
1683641386.363,-14.648,-28.809,-42.969,-6.348
1683641386.367,-39.551,-42.969,-48.828,-24.902
1683641386.371,-48.828,-49.316,-53.711,-40.039
1683641386.375,-43.457,-42.969,-47.363,-40.039
1683641386.379,-44.922,-36.133,-41.016,-36.133
1683641386.381,-41.016,-37.598,-47.363,-35.156
1683641386.385,-42.969,-38.574,-57.617,-43.945
1683641386.389,-50.293,-38.086,-54.199,-55.176
1683641386.393,-33.691,-29.297,-36.133,-42.969
1683641386.397,-15.625,-22.949,-26.367,-24.414
1683641386.401,-27.344,-28.320,-38.086,-30.762
1683641386.405,-36.621,-28.809,-52.734,-46.387
1683641386.408,-37.598,-34.668,-55.664,-51.270
1683641386.412,-38.086,-40.527,-45.898,-48.340
1683641386.416,-34.180,-34.668,-35.645,-34.668
1683641386.420,-23.926,-26.367,-37.109,-20.020
1683641386.424,-16.602,-30.762,-44.434,-19.531
1683641386.426,-33.203,-36.621,-44.434,-30.762
1683641386.430,-24.902,-30.273,-30.273,-23.926
1683641386.434,-7.812,-20.020,-22.949,-9.766
1683641386.438,-25.391,-25.879,-34.180,-20.996
1683641386.442,-36.133,-33.203,-47.852,-35.645
1683641386.446,-41.992,-30.762,-44.434,-38.574
1683641386.450,-45.410,-33.691,-38.574,-39.551
1683641386.453,-47.363,-37.598,-36.621,-39.062
1683641386.457,-44.922,-34.180,-26.367,-31.738
1683641386.461,-40.039,-35.156,-34.180,-37.109
1683641386.465,-53.711,-40.039,-43.945,-55.176
1683641386.469,-59.570,-39.551,-40.039,-58.105
1683641386.471,-33.203,-32.227,-31.250,-34.180
1683641386.475,-19.531,-29.297,-35.645,-22.949
1683641386.479,-31.250,-34.180,-49.805,-34.180
1683641386.483,-43.945,-37.598,-55.664,-45.410
1683641386.487,-52.734,-42.969,-58.105,-48.828
1683641386.491,-33.691,-37.598,-41.016,-26.855
1683641386.495,-16.113,-28.809,5.371,-12.207
1683641386.498,-24.414,-33.203,-19.043,-20.996
1683641386.502,-34.668,-42.969,-57.617,-29.785
1683641386.506,-38.574,-48.340,-41.504,-30.762
1683641386.510,-26.855,-39.551,-28.809,-18.555
1683641386.514,-21.973,-30.273,-29.297,-11.719
1683641386.531,-31.250,-33.203,-39.062,-16.113
1683641386.535,-34.668,-39.551,-50.781,-25.391
1683641386.539,-35.156,-39.062,-48.340,-29.785
1683641386.543,-34.180,-31.738,-32.227,-25.879
1683641386.547,-25.391,-23.438,-27.832,-20.508
1683641386.551,-28.320,-22.949,-37.598,-22.461
1683641386.555,-48.340,-27.344,-45.410,-39.551
1683641386.558,-56.152,-34.668,-42.969,-55.664
1683641386.562,-52.734,-35.645,-36.621,-51.270
1683641386.566,-45.898,-27.832,-28.809,-42.480
1683641386.570,-45.410,-23.926,-36.133,-37.109
1683641386.574,-51.270,-30.273,-50.293,-39.551
1683641386.531,-31.250,-33.203,-39.062,-16.113
1683641386.535,-34.668,-39.551,-50.781,-25.391
1683641386.539,-35.156,-39.062,-48.340,-29.785
1683641386.543,-34.180,-31.738,-32.227,-25.879
1683641386.547,-25.391,-23.438,-27.832,-20.508
1683641386.551,-28.320,-22.949,-37.598,-22.461
1683641386.555,-48.340,-27.344,-45.410,-39.551
1683641386.558,-56.152,-34.668,-42.969,-55.664
1683641386.562,-52.734,-35.645,-36.621,-51.270
1683641386.566,-45.898,-27.832,-28.809,-42.480
1683641386.570,-45.410,-23.926,-36.133,-37.109
1683641386.574,-51.270,-30.273,-50.293,-39.551
1683641386.576,-52.734,-29.785,-43.945,-45.898
1683641386.580,-43.945,-26.367,-30.273,-38.086
1683641386.584,-22.949,-24.414,-27.344,-21.484
1683641386.588,-21.973,-28.809,-42.480,-20.996
1683641386.592,-25.391,-31.250,-55.176,-28.320
1683641386.596,-21.484,-29.297,-57.129,-30.762
1683641386.600,-15.625,-22.461,-42.480,-25.879
1683641386.603,-11.719,-19.531,-31.738,-21.973
1683641386.607,-11.719,-29.297,-42.969,-25.391
1683641386.611,-24.414,-42.969,-58.594,-41.016
1683641386.615,-29.785,-43.945,-56.641,-50.781
1683641386.619,-26.855,-41.016,-42.969,-41.992
1683641386.621,-22.461,-33.203,-36.621,-31.250
1683641386.625,-25.391,-27.344,-45.410,-32.227
1683641386.629,-39.551,-32.715,-52.246,-44.922
1683641386.633,-49.805,-36.133,-54.199,-53.711
1683641386.637,-45.898,-37.109,-45.410,-51.270
1683641386.641,-36.133,-35.645,-29.297,-37.598
1683641386.645,-32.227,-29.297,-29.297,-31.738
1683641386.648,-31.250,-32.227,-53.223,-39.551
1683641386.652,-37.598,-43.945,-45.410,-48.340
1683641386.656,-43.945,-47.852,-26.855,-52.246
1683641386.660,-39.062,-36.621,-35.645,-48.340
1683641386.664,-32.227,-25.879,-36.621,-37.109
1683641386.666,-34.180,-27.832,-46.387,-37.109
1683641386.670,-36.133,-36.621,-53.223,-44.922
1683641386.674,-39.062,-35.645,-47.852,-40.527
1683641386.678,-30.273,-28.809,-34.180,-35.645
1683641386.682,-16.602,-27.344,-25.879,-27.344
1683641386.686,-13.184,-26.367,-33.203,-22.949
1683641386.690,-18.555,-28.809,-49.805,-33.691
1683641386.693,-15.625,-29.785,-39.551,-35.645
1683641386.697,-8.789,-28.320,-2.930,-28.320
1683641386.701,-12.695,-28.320,-17.578,-24.902
1683641386.705,-6.836,-25.879,-46.387,-30.273
1683641386.709,-11.230,-30.273,-55.664,-41.504
1683641386.711,-16.113,-30.762,-49.316,-51.270
1683641386.715,-6.348,-26.367,-30.762,-40.039
1683641386.719,-5.859,-26.855,-28.320,-32.715
1683641386.723,-9.766,-23.438,-39.062,-33.691
1683641386.727,-28.809,-26.367,-48.828,-41.016
1683641386.731,-35.156,-29.785,-47.852,-46.387
1683641386.735,-26.367,-24.902,-35.645,-36.621
1683641386.738,-16.113,-24.414,-17.578,-24.414
1683641386.742,-7.812,-26.855,-19.531,-20.508
1683641386.746,-17.578,-31.738,-41.016,-27.832
1683641386.750,-31.738,-32.227,-41.016,-33.691
1683641386.754,-17.578,-28.809,-24.414,-24.902
1683641386.756,-4.883,-22.949,-15.625,-13.184
1683641386.760,-5.859,-13.672,-28.320,-10.742
1683641386.764,-8.789,-10.254,-42.969,-20.996
1683641386.768,-16.113,-22.461,-40.039,-34.668
1683641386.772,-20.996,-26.367,-31.738,-35.645
1683641386.776,-19.043,-17.090,-23.926,-29.785
1683641386.780,-18.555,-16.602,-25.391,-28.809
1683641386.783,-26.367,-23.438,-37.109,-34.668
1683641386.787,-26.367,-27.832,-39.551,-42.480
1683641386.791,-24.414,-27.344,-26.855,-43.945
1683641386.795,-22.461,-22.461,-19.531,-32.227
1683641386.799,-14.160,-27.344,-25.879,-28.320
1683641386.801,-13.184,-28.320,-34.668,-37.598
1683641386.805,-20.508,-26.367,-39.551,-43.945
1683641386.809,-23.926,-25.391,-26.855,-40.527
1683641386.813,-14.648,-16.113,-11.719,-20.996
1683641386.817,-7.324,-15.625,-13.672,-13.672
1683641386.821,-12.695,-24.414,-28.320,-23.438
1683641386.825,-29.297,-31.250,-28.320,-33.203
1683641386.828,-34.668,-30.762,-19.531,-31.250
1683641386.832,-21.484,-27.832,-17.578,-23.926
1683641386.836,-18.066,-25.391,-18.066,-25.879
1683641386.840,-30.273,-22.949,-32.715,-34.668
1683641386.844,-39.551,-28.320,-39.062,-41.016
1683641386.846,-41.504,-31.738,-29.297,-37.598
1683641386.850,-39.551,-30.762,-22.461,-35.156
1683641386.854,-34.668,-26.367,-20.508,-31.738
1683641386.858,-24.902,-28.809,-27.344,-29.785
1683641386.862,-31.250,-32.715,-34.668,-44.434
1683641386.866,-44.922,-33.203,-34.180,-52.246
1683641386.870,-38.574,-28.320,-21.484,-40.527
1683641386.873,-31.250,-24.902,-19.043,-34.180
1683641386.877,-32.715,-30.762,-34.668,-37.598
1683641386.881,-40.527,-39.551,-36.621,-48.828
1683641386.885,-50.293,-37.598,-28.320,-59.570
1683641386.889,-46.387,-31.250,-20.508,-50.781
1683641386.906,-36.133,-29.297,-15.625,-35.645
1683641386.910,-33.203,-31.738,-25.879,-35.645
1683641386.914,-49.316,-31.738,-38.574,-46.387
1683641386.918,-57.129,-28.809,-35.645,-53.223
1683641386.922,-41.992,-23.926,-24.902,-46.875
1683641386.926,-30.762,-14.648,-11.230,-33.203
1683641386.930,-31.250,-13.672,-13.672,-30.273
1683641386.933,-40.039,-24.902,-30.762,-41.504
1683641386.937,-45.410,-32.715,-35.156,-50.781
1683641386.941,-39.062,-29.785,-24.902,-45.410
1683641386.945,-37.598,-23.926,-15.137,-36.621
1683641386.949,-49.316,-24.414,-23.438,-37.598
1683641386.951,-58.105,-32.715,-31.738,-40.527
1683641386.955,-58.105,-35.645,-31.250,-42.480
1683641386.959,-44.434,-29.785,-19.043,-35.645
1683641386.963,-27.832,-23.438,-3.418,-23.438
1683641386.967,-30.762,-20.508,-8.301,-20.020
1683641386.971,-33.691,-22.949,-24.414,-25.879
1683641386.975,-40.039,-27.344,-37.109,-30.273
1683641386.978,-48.828,-33.203,-32.227,-30.762
1683641386.982,-44.434,-33.691,-19.531,-28.320
1683641386.986,-36.133,-33.691,-16.113,-21.973
1683641386.990,-27.344,-33.203,-22.949,-25.879
1683641386.994,-31.738,-37.598,-30.762,-32.715
1683641386.996,-31.250,-40.039,-28.320,-35.645
1683641387.000,-22.949,-29.785,-16.113,-32.715
1683641387.004,-15.137,-17.578,-9.277,-28.809
1683641387.008,-17.090,-26.367,-27.344,-39.551
1683641387.012,-25.391,-40.527,-44.922,-49.805
1683641387.016,-33.203,-41.992,-36.621,-44.922
1683641387.020,-29.785,-35.156,-27.832,-38.086
1683641387.023,-17.090,-22.949,-27.832,-28.320
1683641387.027,-14.648,-25.879,-14.648,-24.902
1683641387.031,-31.738,-35.156,-19.043,-41.992
1683641387.035,-37.598,-34.668,-34.180,-46.875
1683641387.039,-20.508,-33.691,-26.367,-38.086
1683641387.041,-10.254,-31.738,-17.090,-21.484
1683641387.045,-14.648,-31.250,-20.996,-18.066
1683641387.049,-37.598,-39.062,-39.551,-40.527
1683641387.053,-52.734,-51.758,-41.016,-53.711
1683641387.057,-35.645,-46.875,-22.949,-43.945
1683641387.061,-23.438,-34.668,-16.602,-25.879
1683641387.065,-23.438,-28.809,-23.926,-19.531
1683641387.068,-32.715,-32.227,-30.762,-33.203
1683641387.072,-41.504,-46.875,-20.996,-47.363
1683641387.076,-29.297,-42.480,-12.207,-41.504
1683641387.080,-30.273,-35.156,-18.555,-32.227
1683641387.084,-34.668,-37.598,-26.367,-34.668
1683641387.086,-33.691,-39.062,-35.645,-37.109
1683641387.090,-36.133,-40.039,-38.086,-33.203
1683641387.094,-30.762,-39.062,-22.949,-24.902
1683641387.098,-24.414,-33.691,-15.625,-20.020
1683641387.102,-21.973,-23.926,-22.949,-18.066
1683641387.106,-25.391,-25.391,-33.203,-19.531
1683641387.110,-36.621,-30.762,-29.785,-30.273
1683641387.113,-40.527,-41.016,-44.922,-38.574
1683641387.117,-28.809,-38.086,-43.457,-29.297
1683641387.121,-25.391,-28.320,-15.625,-22.949
1683641387.125,-40.527,-36.133,-28.809,-41.504
1683641387.129,-58.594,-43.457,-40.527,-57.129
1683641387.131,-52.734,-35.645,-29.785,-51.270
1683641387.135,-41.992,-24.902,-17.578,-35.645
1683641387.139,-41.016,-31.250,-21.484,-29.785
1683641387.143,-49.316,-41.016,-31.250,-38.086
1683641387.147,-54.199,-40.527,-35.156,-46.875
1683641387.151,-47.852,-35.645,-28.809,-46.875
1683641387.155,-34.180,-26.367,-22.949,-35.156
1683641387.158,-26.855,-20.996,-40.039,-27.344
1683641387.162,-33.203,-28.809,-41.992,-31.250
1683641387.166,-41.992,-40.527,-33.691,-37.109
1683641387.170,-37.109,-39.551,-26.367,-34.180
1683641387.174,-25.879,-32.715,-12.207,-25.391
1683641387.176,-16.113,-28.809,-6.836,-11.719
1683641387.180,-21.484,-29.297,-17.578,-16.113
1683641387.184,-33.691,-32.715,-31.250,-34.668
1683641387.188,-33.691,-30.273,-28.809,-34.668
1683641387.192,-29.785,-29.297,-10.254,-22.461
1683641387.196,-17.090,-20.996,1.953,-8.301
1683641387.200,-11.719,-17.578,-28.809,-13.672
1683641387.203,-32.715,-29.297,-57.129,-34.180
1683641387.207,-45.410,-33.203,-34.668,-39.551
1683641387.211,-30.762,-25.391,-13.184,-34.668
1683641387.215,-26.367,-20.020,-13.672,-27.344
1683641387.219,-30.273,-21.484,-26.367,-25.879
1683641387.176,-16.113,-28.809,-6.836,-11.719
1683641387.180,-21.484,-29.297,-17.578,-16.113
1683641387.184,-33.691,-32.715,-31.250,-34.668
1683641387.188,-33.691,-30.273,-28.809,-34.668
1683641387.192,-29.785,-29.297,-10.254,-22.461
1683641387.196,-17.090,-20.996,1.953,-8.301
1683641387.200,-11.719,-17.578,-28.809,-13.672
1683641387.203,-32.715,-29.297,-57.129,-34.180
1683641387.207,-45.410,-33.203,-34.668,-39.551
1683641387.211,-30.762,-25.391,-13.184,-34.668
1683641387.215,-26.367,-20.020,-13.672,-27.344
1683641387.219,-30.273,-21.484,-26.367,-25.879
1683641387.221,-38.086,-29.785,-36.621,-37.598
1683641387.225,-50.293,-33.203,-36.133,-43.945
1683641387.229,-51.270,-28.320,-20.996,-38.086
1683641387.233,-49.805,-27.832,-11.230,-30.762
1683641387.237,-41.504,-31.738,-18.555,-29.297
1683641387.241,-48.828,-38.574,-28.809,-35.156
1683641387.245,-58.105,-41.016,-29.785,-39.551
1683641387.248,-46.387,-34.668,-21.484,-34.180
1683641387.252,-27.344,-30.762,-17.090,-27.832
1683641387.256,-12.207,-36.133,-19.531,-18.066
1683641387.260,-23.926,-40.527,-29.297,-22.949
1683641387.264,-28.320,-41.504,-33.691,-37.598
1683641387.221,-38.086,-29.785,-36.621,-37.598
1683641387.225,-50.293,-33.203,-36.133,-43.945
1683641387.229,-51.270,-28.320,-20.996,-38.086
1683641387.233,-49.805,-27.832,-11.230,-30.762
1683641387.237,-41.504,-31.738,-18.555,-29.297
1683641387.241,-48.828,-38.574,-28.809,-35.156
1683641387.245,-58.105,-41.016,-29.785,-39.551
1683641387.248,-46.387,-34.668,-21.484,-34.180
1683641387.252,-27.344,-30.762,-17.090,-27.832
1683641387.256,-12.207,-36.133,-19.531,-18.066
1683641387.260,-23.926,-40.527,-29.297,-22.949
1683641387.264,-28.320,-41.504,-33.691,-37.598
1683641387.266,-25.391,-36.621,-22.461,-31.738
1683641387.270,-22.461,-28.320,-10.742,-15.137
1683641387.274,-15.625,-26.367,-15.625,-9.766
1683641387.278,-20.508,-24.414,-27.832,-13.672
1683641387.282,-27.832,-28.809,-28.809,-16.113
1683641387.286,-29.297,-36.133,-18.555,-19.043
1683641387.290,-23.926,-25.879,-12.695,-16.602
1683641387.293,-21.973,-23.438,-18.066,-17.090
1683641387.297,-31.738,-33.203,-34.668,-25.391
1683641387.301,-38.574,-37.598,-41.016,-33.691
1683641387.305,-33.691,-31.738,-31.738,-37.598
1683641387.309,-29.785,-26.367,-26.855,-33.203
1683641387.326,-28.320,-26.855,-31.250,-29.785
1683641387.330,-33.203,-27.832,-41.992,-36.621
1683641387.334,-50.293,-32.227,-47.852,-48.828
1683641387.338,-46.387,-34.180,-38.086,-46.387
1683641387.342,-26.855,-31.738,-23.438,-27.832
1683641387.346,-13.184,-23.926,-18.555,-19.531
1683641387.350,-20.508,-20.508,-32.227,-25.879
1683641387.353,-44.922,-35.645,-47.363,-37.109
1683641387.357,-43.945,-47.363,-42.480,-37.598
1683641387.361,-26.855,-41.992,-30.273,-32.715
1683641387.365,-18.555,-27.344,-20.020,-23.438
1683641387.369,-24.414,-26.855,-24.902,-16.113
1683641387.371,-28.320,-33.203,-39.551,-24.902
1683641387.375,-28.809,-37.109,-37.598,-33.203
1683641387.379,-25.879,-28.809,-20.508,-28.320
1683641387.383,-16.602,-23.438,-17.578,-20.020
1683641387.387,-21.973,-31.738,-35.156,-24.902
1683641387.391,-30.762,-35.156,-51.270,-34.180
1683641387.395,-26.855,-29.785,-46.387,-30.762
1683641387.398,-25.879,-29.785,-34.180,-35.156
1683641387.402,-31.250,-37.109,-30.762,-44.922
1683641387.406,-31.738,-37.598,-36.621,-35.645
1683641387.410,-35.156,-35.645,-41.504,-38.086
1683641387.414,-40.527,-41.504,-35.645,-50.781
1683641387.416,-34.180,-42.969,-18.555,-43.457
1683641387.420,-30.273,-37.109,-6.348,-26.367
1683641387.424,-35.156,-37.598,-14.160,-25.391
1683641387.428,-40.527,-43.457,-31.738,-35.156
1683641387.432,-49.805,-53.711,-45.410,-45.410
1683641387.436,-52.246,-50.781,-32.715,-43.457
1683641387.440,-34.668,-34.180,-13.184,-26.367
1683641387.443,-24.902,-34.180,-17.090,-23.438
1683641387.447,-27.832,-49.316,-31.738,-32.227
1683641387.451,-43.457,-53.711,-41.992,-41.992
1683641387.455,-47.852,-47.363,-37.598,-43.457
1683641387.459,-37.598,-42.969,-29.297,-33.691
1683641387.461,-29.785,-35.645,-27.344,-23.926
1683641387.465,-26.855,-33.691,-35.645,-24.414
1683641387.469,-29.785,-37.598,-35.645,-28.320
1683641387.473,-37.598,-42.480,-32.715,-31.738
1683641387.477,-25.391,-41.016,-24.902,-21.973
1683641387.481,-18.066,-32.227,-16.113,-14.160
1683641387.485,-30.762,-27.832,-34.180,-27.832
1683641387.488,-38.086,-36.133,-35.156,-33.691
1683641387.492,-32.715,-41.992,-20.508,-32.715
1683641387.496,-21.973,-33.691,-15.137,-30.273
1683641387.500,-19.043,-26.367,-16.113,-23.438
1683641387.504,-20.508,-27.344,-27.832,-26.367
1683641387.506,-31.250,-31.738,-36.133,-30.762
1683641387.510,-43.945,-41.504,-41.504,-31.250
1683641387.514,-35.645,-34.668,-28.320,-28.320
1683641387.518,-24.414,-24.902,-20.508,-19.043
1683641387.522,-22.949,-23.926,-32.227,-18.555
1683641387.526,-24.902,-23.926,-43.945,-28.809
1683641387.530,-27.832,-27.832,-47.363,-34.668
1683641387.533,-18.066,-33.203,-28.809,-29.785
1683641387.537,-11.719,-36.621,-28.809,-24.414
1683641387.541,-10.742,-38.574,-46.875,-24.414
1683641387.545,-7.324,-38.086,-51.758,-22.461
1683641387.549,-14.648,-36.621,-45.410,-23.438
1683641387.551,-34.180,-36.621,-35.645,-27.344
1683641387.555,-36.621,-33.691,-29.297,-24.902
1683641387.559,-33.203,-27.344,-27.344,-24.414
1683641387.563,-46.875,-31.738,-44.922,-35.645
1683641387.567,-49.805,-41.016,-49.316,-40.039
1683641387.571,-36.621,-37.109,-33.691,-32.715
1683641387.575,-30.273,-26.855,-1.953,-24.414
1683641387.578,-20.508,-25.391,1.465,-27.344
1683641387.582,-25.879,-33.691,-36.621,-35.156
1683641387.586,-49.316,-38.574,-42.480,-43.457
1683641387.590,-49.316,-36.621,-23.438,-42.480
1683641387.594,-33.691,-30.762,-11.719,-30.273
1683641387.596,-21.973,-21.973,-22.949,-18.555
1683641387.600,-27.832,-21.484,-35.645,-24.414
1683641387.604,-41.504,-30.273,-37.109,-41.504
1683641387.608,-41.016,-35.156,-28.809,-33.691
1683641387.612,-23.926,-30.762,-14.648,-13.184
1683641387.616,-8.301,-19.043,-10.254,-9.766
1683641387.620,-9.766,-13.672,-18.066,-17.578
1683641387.623,-21.973,-26.367,-27.832,-28.320
1683641387.627,-33.203,-33.203,-31.738,-36.133
1683641387.631,-35.156,-29.297,-20.508,-34.180
1683641387.635,-37.598,-25.879,-23.438,-37.598
1683641387.639,-39.062,-24.902,-38.574,-43.457
1683641387.641,-37.109,-38.574,-42.480,-42.480
1683641387.645,-48.828,-47.363,-37.598,-46.387
1683641387.649,-49.805,-38.574,-23.438,-40.039
1683641387.653,-38.574,-34.180,-22.949,-29.297
1683641387.657,-36.621,-34.668,-34.668,-29.785
1683641387.661,-47.363,-36.133,-45.898,-44.434
1683641387.665,-59.570,-44.434,-42.969,-52.246
1683641387.668,-53.223,-47.852,-27.344,-45.410
1683641387.672,-42.480,-41.504,-20.996,-33.203
1683641387.676,-43.945,-37.598,-25.879,-27.832
1683641387.680,-38.574,-35.645,-27.832,-30.273
1683641387.684,-39.551,-38.086,-24.902,-34.668
1683641387.701,-38.086,-31.738,-21.484,-26.367
1683641387.705,-26.367,-27.832,-25.391,-18.066
1683641387.709,-28.320,-33.203,-38.574,-26.367
1683641387.713,-42.969,-40.527,-50.293,-36.621
1683641387.717,-50.293,-40.039,-46.387,-45.898
1683641387.721,-37.598,-33.203,-29.297,-40.039
1683641387.725,-27.832,-21.484,-21.973,-26.855
1683641387.728,-34.180,-24.414,-33.691,-25.879
1683641387.732,-45.898,-40.527,-47.852,-40.527
1683641387.736,-53.711,-44.922,-44.922,-55.664
1683641387.740,-46.387,-40.527,-29.785,-46.875
1683641387.744,-36.133,-31.250,-17.090,-35.645
1683641387.746,-40.527,-27.832,-21.973,-38.574
1683641387.750,-57.129,-34.180,-35.645,-50.293
1683641387.754,-61.523,-33.203,-37.109,-56.641
1683641387.758,-54.688,-34.180,-33.691,-58.105
1683641387.762,-45.410,-32.715,-26.367,-51.758
1683641387.766,-33.203,-23.438,-19.531,-36.133
1683641387.770,-29.785,-24.414,-35.156,-31.738
1683641387.773,-36.621,-36.133,-46.875,-36.621
1683641387.777,-40.527,-34.180,-16.113,-37.109
1683641387.781,-33.691,-28.809,4.395,-23.438
1683641387.785,-26.855,-26.855,-19.043,-14.160
1683641387.789,-25.391,-23.438,-32.715,-17.578
1683641387.791,-29.785,-35.645,-39.551,-31.738
1683641387.795,-33.691,-43.457,-36.133,-38.086
1683641387.799,-30.762,-31.250,-21.973,-27.344
1683641387.803,-29.297,-25.879,-22.461,-27.344
1683641387.807,-38.574,-33.203,-39.062,-36.133
1683641387.811,-39.551,-31.738,-40.039,-41.504
1683641387.815,-36.621,-26.367,-29.785,-41.992
1683641387.818,-36.133,-19.531,-20.020,-37.598
1683641387.822,-29.297,-22.949,-20.996,-33.691
1683641387.826,-32.715,-29.785,-34.180,-37.109
1683641387.830,-47.363,-34.180,-45.410,-49.805
1683641387.834,-47.852,-36.621,-42.969,-58.594
1683641387.836,-43.945,-33.203,-30.762,-49.316
1683641387.840,-29.785,-27.344,-24.902,-34.180
1683641387.844,-18.066,-19.531,-29.785,-27.832
1683641387.848,-30.762,-22.949,-39.062,-35.645
1683641387.852,-43.945,-31.250,-40.527,-45.898
1683641387.856,-38.086,-28.320,-27.344,-36.133
1683641387.860,-30.762,-20.020,-24.414,-25.879
1683641387.863,-32.715,-16.113,-20.020,-22.461
1683641387.867,-41.504,-19.043,-20.020,-27.344
1683641387.871,-48.828,-28.809,-32.715,-32.715
1683641387.875,-44.922,-25.391,-22.949,-28.320
1683641387.879,-39.551,-16.113,-14.648,-17.578
1683641387.881,-37.109,-20.508,-22.461,-18.555
1683641387.885,-52.246,-27.832,-33.691,-36.133
1683641387.889,-63.965,-32.715,-33.203,-45.410
1683641387.893,-62.988,-30.273,-24.902,-41.992
1683641387.897,-52.734,-27.344,-14.648,-32.715
1683641387.901,-43.945,-30.273,-13.672,-30.273
1683641387.905,-46.875,-26.855,-27.832,-30.762
1683641387.908,-58.105,-35.156,-52.734,-39.551
1683641387.912,-64.453,-44.922,-38.574,-45.898
1683641387.916,-48.340,-35.645,-13.672,-34.668
1683641387.920,-35.156,-22.461,-19.043,-26.367
1683641387.924,-47.852,-28.320,-32.227,-34.180
1683641387.926,-54.688,-37.598,-37.109,-38.574
1683641387.930,-50.293,-29.297,-28.320,-32.227
1683641387.934,-46.387,-28.320,-17.578,-22.461
1683641387.938,-33.203,-27.344,-14.648,-8.301
1683641387.942,-34.668,-31.250,-29.785,-13.672
1683641387.946,-39.062,-32.715,-39.551,-20.020
1683641387.950,-43.945,-33.203,-29.785,-18.555
1683641387.953,-38.574,-34.180,-19.043,-19.043
1683641387.957,-20.996,-21.973,-24.414,-5.859
1683641387.961,-20.020,-21.484,-39.062,-6.836
1683641387.965,-30.762,-30.762,-48.340,-27.832
1683641387.969,-34.668,-38.086,-45.898,-38.574
1683641387.971,-29.297,-31.250,-29.785,-30.273
1683641387.975,-28.320,-28.320,-28.320,-24.414
1683641387.979,-34.668,-32.227,-30.762,-24.414
1683641387.983,-44.922,-32.715,-36.133,-28.809
1683641387.987,-53.711,-41.016,-42.969,-42.969
1683641387.991,-47.363,-38.086,-31.250,-43.457
1683641387.995,-37.598,-25.391,4.395,-33.691
1683641387.998,-29.297,-31.250,-15.137,-34.180
1683641388.002,-34.180,-40.527,-49.805,-40.527
1683641388.006,-38.574,-44.434,-38.574,-41.504
1683641388.010,-33.691,-41.016,-25.879,-36.133
1683641388.014,-27.344,-40.527,-25.879,-27.832
1683641388.016,-26.855,-39.551,-36.133,-24.902
1683641388.020,-36.133,-45.410,-48.340,-35.156
1683641388.024,-47.363,-47.363,-46.387,-41.992
1683641388.028,-45.410,-42.480,-34.180,-38.086
1683641388.032,-29.297,-40.527,-31.738,-33.203
1683641388.036,-30.762,-38.574,-14.160,-34.180
1683641388.040,-49.316,-38.574,-17.578,-46.875
1683641388.043,-59.570,-44.922,-43.457,-49.805
1683641388.047,-49.316,-46.875,-38.086,-45.410
1683641388.051,-34.180,-34.180,-20.996,-35.645
1683641388.055,-35.645,-29.785,-22.949,-26.855
1683641388.059,-44.922,-32.227,-41.504,-36.621
1683641388.076,-52.246,-35.156,-45.410,-47.852
1683641388.080,-43.945,-34.668,-28.809,-38.086
1683641388.084,-33.203,-31.738,-14.160,-23.438
1683641388.088,-33.691,-34.668,-20.508,-21.484
1683641388.092,-38.574,-36.133,-32.227,-25.391
1683641388.096,-39.062,-43.457,-34.180,-28.809
1683641388.100,-30.762,-45.410,-27.344,-34.668
1683641388.103,-28.809,-36.133,-18.555,-30.273
1683641388.107,-22.949,-35.645,-25.879,-22.461
1683641388.111,-20.508,-41.504,-39.062,-29.297
1683641388.115,-36.133,-43.457,-44.434,-46.875
1683641388.119,-44.434,-41.992,-39.062,-52.734
1683641388.121,-36.133,-34.668,-26.855,-39.062
1683641388.125,-33.203,-29.297,-25.879,-30.762
1683641388.129,-45.410,-29.297,-33.691,-32.715
1683641388.133,-55.664,-33.203,-40.527,-41.504
1683641388.137,-62.500,-33.691,-36.133,-47.852
1683641388.141,-52.246,-28.809,-20.020,-36.621
1683641388.145,-38.574,-24.902,-17.578,-27.832
1683641388.148,-38.574,-26.855,-34.668,-32.227
1683641388.152,-48.828,-35.156,-36.621,-45.410
1683641388.156,-55.664,-42.969,-30.273,-49.805
1683641388.160,-41.016,-37.598,-26.855,-41.016
1683641388.164,-30.273,-30.273,-20.508,-33.203
1683641388.166,-32.227,-27.832,-30.273,-30.762
1683641388.170,-41.504,-31.738,-37.598,-41.016
1683641388.174,-44.922,-31.250,-31.738,-44.434
1683641388.178,-32.227,-33.691,-27.832,-40.039
1683641388.182,-19.043,-38.086,-20.508,-26.855
1683641388.186,-19.043,-32.227,-23.438,-20.996
1683641388.190,-27.344,-29.785,-33.691,-28.809
1683641388.193,-32.227,-37.109,-34.668,-31.738
1683641388.197,-39.551,-51.270,-23.926,-33.203
1683641388.201,-37.598,-47.852,-11.719,-27.344
1683641388.205,-25.879,-32.227,-20.020,-23.438
1683641388.209,-33.691,-36.133,-34.180,-35.645
1683641388.211,-49.316,-47.363,-35.156,-46.875
1683641388.215,-51.758,-42.480,-23.438,-40.527
1683641388.219,-41.016,-29.785,-15.625,-32.227
1683641388.223,-35.645,-30.273,-22.949,-33.691
1683641388.227,-45.898,-34.668,-30.273,-41.504
1683641388.231,-55.664,-37.109,-35.156,-52.246
1683641388.235,-57.617,-33.203,-26.367,-55.176
1683641388.238,-44.922,-29.785,-35.645,-42.969
1683641388.242,-34.668,-31.738,-50.293,-39.551
1683641388.246,-37.598,-37.598,-41.992,-47.363
1683641388.250,-37.109,-38.086,-39.551,-47.363
1683641388.254,-38.574,-29.785,-31.738,-44.922
1683641388.256,-32.227,-29.297,-31.738,-42.480
1683641388.260,-27.344,-34.180,-34.180,-46.387
1683641388.264,-41.016,-37.109,-40.039,-54.688
1683641388.268,-52.734,-35.645,-50.293,-59.082
1683641388.272,-42.969,-32.227,-38.086,-42.969
1683641388.276,-30.273,-20.508,-27.832,-31.250
1683641388.280,-29.785,-12.695,-31.738,-31.738
1683641388.283,-39.551,-20.508,-32.715,-38.574
1683641388.287,-48.828,-31.250,-49.805,-54.688
1683641388.291,-43.945,-32.227,-51.270,-54.199
1683641388.295,-35.645,-29.297,-36.621,-38.574
1683641388.299,-31.250,-28.809,-39.062,-32.227
1683641388.301,-29.297,-26.855,-46.387,-33.203
1683641388.305,-43.457,-30.762,-54.688,-44.922
1683641388.309,-53.223,-29.297,-51.758,-56.152
1683641388.313,-37.598,-18.066,-37.598,-41.992
1683641388.317,-14.648,-16.602,-37.598,-27.832
1683641388.321,-11.230,-18.555,-50.293,-33.691
1683641388.325,-27.832,-22.461,-50.293,-44.434
1683641388.328,-38.086,-30.762,-47.363,-46.875
1683641388.332,-23.438,-26.367,-41.504,-37.598
1683641388.336,-9.766,-16.602,-27.344,-27.832
1683641388.340,-21.484,-16.602,-31.250,-26.855
1683641388.344,-28.809,-24.414,-44.434,-32.715
1683641388.346,-28.809,-31.250,-48.340,-35.156
1683641388.350,-23.438,-28.320,-39.551,-25.391
1683641388.354,-16.602,-15.137,-32.227,-16.602
1683641388.358,-20.020,-16.113,-37.598,-15.625
1683641388.362,-20.996,-23.926,-46.875,-17.578
1683641388.366,-21.973,-25.879,-48.828,-28.320
1683641388.370,-23.926,-25.879,-59.082,-34.180
1683641388.373,-26.367,-24.902,-42.969,-28.320
1683641388.377,-11.719,-19.043,-27.344,-24.414
1683641388.381,-17.578,-25.391,-42.969,-31.250
1683641388.385,-37.598,-30.762,-45.898,-43.457
1683641388.389,-38.574,-31.738,-36.133,-40.527
1683641388.391,-37.109,-28.809,-22.461,-28.320
1683641388.395,-40.527,-16.602,-26.367,-28.809
1683641388.399,-46.875,-20.996,-38.574,-39.062
1683641388.403,-53.223,-27.344,-41.504,-44.922
1683641388.407,-44.922,-25.879,-25.879,-41.504
1683641388.411,-31.250,-22.949,-25.391,-30.273
1683641388.415,-22.461,-18.555,-36.621,-23.926
1683641388.418,-29.785,-23.438,-36.133,-35.645
1683641388.422,-40.039,-26.367,-40.527,-48.828
1683641388.426,-35.156,-21.484,-36.133,-47.363
1683641388.430,-21.484,-16.602,-23.926,-34.180
1683641388.434,-20.996,-12.207,-21.973,-27.344
1683641388.451,-27.832,-16.113,-35.156,-35.645
1683641388.455,-36.133,-22.949,-42.480,-45.898
1683641388.459,-51.270,-26.855,-41.016,-49.805
1683641388.463,-45.410,-26.855,-31.738,-39.062
1683641388.467,-40.039,-20.508,-31.738,-28.809
1683641388.471,-40.039,-21.973,-44.922,-28.320
1683641388.475,-41.016,-27.344,-51.758,-33.203
1683641388.478,-46.875,-29.785,-46.875,-37.598
1683641388.482,-41.016,-33.203,-46.875,-34.668
1683641388.486,-30.762,-29.785,-60.059,-27.832
1683641388.490,-31.738,-26.367,-47.852,-23.926
1683641388.494,-36.133,-28.809,-41.504,-35.645
1683641388.496,-38.086,-31.738,-52.734,-46.875
1683641388.500,-38.574,-23.926,-38.574,-36.133
1683641388.504,-30.273,-19.531,-23.438,-23.438
1683641388.508,-25.391,-24.902,-31.250,-24.902
1683641388.512,-33.691,-30.273,-49.316,-35.645
1683641388.516,-38.086,-32.227,-47.852,-42.480
1683641388.520,-24.414,-25.391,-27.344,-37.598
1683641388.523,-15.625,-20.508,-20.508,-28.809
1683641388.527,-13.184,-24.902,-31.250,-26.367
1683641388.531,-10.742,-28.320,-43.945,-30.762
1683641388.535,-24.414,-30.762,-36.133,-35.156
1683641388.539,-23.438,-30.273,-19.043,-23.438
1683641388.541,-27.832,-21.484,-14.160,-12.207
1683641388.545,-33.691,-19.043,-22.949,-20.020
1683641388.549,-39.551,-27.832,-38.574,-38.086
1683641388.553,-47.852,-31.250,-43.457,-44.434
1683641388.557,-41.016,-25.391,-32.227,-37.598
1683641388.561,-29.785,-19.043,-19.043,-28.809
1683641388.565,-24.414,-11.719,-20.996,-24.414
1683641388.568,-31.738,-18.555,-38.574,-26.855
1683641388.572,-41.992,-32.227,-50.781,-40.039
1683641388.576,-37.598,-32.227,-40.527,-42.480
1683641388.580,-30.273,-22.949,-19.531,-21.484
1683641388.584,-26.367,-18.555,-23.926,-17.090
1683641388.586,-25.391,-24.414,-41.504,-25.879
1683641388.590,-42.480,-36.133,-48.828,-32.715
1683641388.594,-44.434,-35.645,-39.551,-36.621
1683641388.598,-29.785,-25.879,-29.785,-30.762
1683641388.602,-26.367,-30.273,-32.227,-23.926
1683641388.606,-34.180,-30.762,-40.527,-24.414
1683641388.610,-40.527,-22.461,-41.504,-26.855
1683641388.613,-43.457,-33.691,-43.945,-32.715
1683641388.617,-40.039,-34.180,-36.133,-28.320
1683641388.621,-33.691,-22.461,-20.020,-20.996
1683641388.625,-40.039,-23.926,-33.203,-27.344
1683641388.629,-62.988,-36.621,-47.852,-40.527
1683641388.631,-71.289,-41.016,-42.480,-45.898
1683641388.635,-58.594,-36.133,-27.344,-41.016
1683641388.639,-46.875,-32.715,-21.973,-28.320
1683641388.643,-51.270,-32.227,-33.691,-31.250
1683641388.647,-60.547,-33.691,-45.410,-41.504
1683641388.651,-61.523,-31.250,-41.992,-50.781
1683641388.655,-62.988,-23.438,-27.344,-46.387
1683641388.658,-58.105,-22.949,-20.508,-32.715
1683641388.662,-68.359,-33.691,-35.645,-42.480
1683641388.666,-73.242,-39.551,-47.363,-53.223
1683641388.670,-64.453,-41.992,-40.039,-55.176
1683641388.674,-56.641,-42.969,-30.762,-47.852
1683641388.676,-42.969,-30.762,-21.484,-35.645
1683641388.680,-40.039,-24.902,-24.902,-27.832
1683641388.684,-49.805,-28.320,-36.133,-26.367
1683641388.688,-56.641,-30.762,-37.598,-30.273
1683641388.692,-49.316,-27.832,-30.273,-28.809
1683641388.696,-36.133,-21.973,-24.902,-22.949
1683641388.700,-37.109,-20.020,-32.227,-24.414
1683641388.703,-55.176,-30.273,-45.410,-36.133
1683641388.707,-61.035,-39.551,-50.781,-43.457
1683641388.711,-59.082,-40.039,-43.945,-43.457
1683641388.715,-55.664,-32.227,-33.691,-33.203
1683641388.719,-53.223,-27.832,-36.621,-22.949
1683641388.721,-68.848,-37.109,-49.316,-37.598
1683641388.725,-82.520,-43.457,-56.152,-58.105
1683641388.729,-86.426,-39.551,-47.363,-62.012
1683641388.733,-73.730,-27.832,-31.250,-53.223
1683641388.737,-70.312,-26.855,-36.133,-49.805
1683641388.741,-80.078,-38.086,-53.711,-52.246
1683641388.745,-73.730,-40.039,-50.781,-48.828
1683641388.748,-64.453,-44.434,-42.480,-53.711
1683641388.752,-60.547,-47.363,-41.016,-55.176
1683641388.756,-57.129,-37.109,-40.039,-48.828
1683641388.760,-53.223,-31.250,-48.828,-47.852
1683641388.764,-64.941,-41.992,-59.082,-57.129
1683641388.781,-67.383,-51.758,-54.199,-63.477
1683641388.785,-41.992,-42.480,-36.621,-49.316
1683641388.789,-29.785,-34.180,-31.738,-39.551
1683641388.793,-42.480,-35.645,-41.992,-37.598
1683641388.797,-55.176,-42.969,-59.082,-46.875
1683641388.801,-67.871,-48.340,-53.711,-58.594
1683641388.805,-64.453,-40.527,-36.621,-49.316
1683641388.808,-55.664,-40.039,-45.410,-42.480
1683641388.812,-58.105,-41.992,-56.152,-43.457
1683641388.816,-64.941,-41.504,-58.594,-45.898
1683641388.820,-73.242,-44.922,-55.176,-52.734
1683641388.824,-55.664,-40.039,-48.828,-42.969
1683641388.826,-45.898,-27.832,-37.109,-31.250
1683641388.830,-55.664,-27.832,-45.410,-36.621
1683641388.834,-62.012,-35.156,-56.641,-49.316
1683641388.838,-61.035,-40.039,-55.176,-56.641
1683641388.842,-60.547,-42.969,-43.945,-54.688
1683641388.846,-55.664,-41.016,-37.598,-49.316
1683641388.850,-47.852,-37.109,-45.410,-42.480
1683641388.853,-42.969,-33.691,-50.781,-43.945
1683641388.857,-48.340,-33.203,-48.828,-48.340
1683641388.861,-39.551,-37.598,-29.297,-38.086
1683641388.865,-22.949,-37.109,-21.973,-23.926
1683641388.869,-32.227,-37.109,-36.133,-25.879
1683641388.871,-36.133,-41.992,-49.805,-36.133
1683641388.875,-36.621,-44.922,-53.711,-43.457
1683641388.879,-35.645,-38.574,-37.598,-40.527
1683641388.883,-24.902,-27.344,-18.555,-24.902
1683641388.887,-30.762,-25.391,-21.484,-21.973
1683641388.891,-35.156,-32.715,-37.598,-30.762
1683641388.895,-34.668,-39.551,-44.434,-32.227
1683641388.898,-39.551,-46.387,-35.645,-29.785
1683641388.902,-32.715,-41.016,-11.719,-23.438
1683641388.906,-25.879,-32.715,-12.207,-15.137
1683641388.910,-32.227,-39.551,-44.434,-23.438
1683641388.914,-40.527,-47.852,-53.223,-42.480
1683641388.916,-44.434,-48.828,-45.898,-49.805
1683641388.920,-33.203,-39.062,-27.832,-34.180
1683641388.924,-20.020,-21.484,-20.020,-19.043
1683641388.928,-23.926,-22.949,-34.668,-24.414
1683641388.932,-36.133,-38.574,-41.992,-40.039
1683641388.936,-50.293,-47.363,-37.109,-51.758
1683641388.940,-30.273,-37.109,-25.879,-36.621
1683641388.943,-5.371,-20.020,-17.090,-20.996
1683641388.947,-13.184,-21.484,-11.719,-22.461
1683641388.951,-25.391,-30.762,-29.785,-31.738
1683641388.955,-36.133,-32.715,-41.016,-43.457
1683641388.959,-33.691,-31.738,-29.785,-40.039
1683641388.961,-27.832,-27.832,-24.414,-24.902
1683641388.965,-30.273,-29.785,-36.133,-24.414
1683641388.969,-41.992,-37.109,-44.922,-32.715
1683641388.973,-52.246,-37.598,-41.992,-36.621
1683641388.977,-46.875,-33.691,-32.227,-34.180
1683641388.981,-35.645,-24.414,-23.438,-26.367
1683641388.985,-33.691,-20.020,-31.250,-28.809
1683641388.988,-45.898,-25.879,-55.664,-42.480
1683641388.992,-54.688,-37.109,-61.035,-54.688
1683641388.996,-53.223,-45.898,-40.527,-53.223
1683641389.000,-42.969,-37.109,-27.832,-40.039
1683641389.004,-35.645,-30.273,-31.738,-29.297
1683641389.006,-47.852,-35.645,-40.527,-37.109
1683641389.010,-57.617,-43.457,-42.969,-48.340
1683641389.014,-46.387,-40.039,-36.621,-44.434
1683641389.018,-40.527,-28.809,-27.832,-37.109
1683641389.022,-38.086,-27.832,-29.297,-33.691
1683641389.026,-41.016,-38.086,-35.645,-46.387
1683641389.030,-53.711,-40.039,-37.598,-59.082
1683641389.033,-48.340,-38.574,-22.461,-52.246
1683641389.037,-36.621,-43.457,-21.484,-41.016
1683641389.041,-30.762,-42.969,-35.156,-31.738
1683641389.045,-37.109,-33.691,-40.527,-33.691
1683641389.049,-43.457,-36.621,-41.992,-42.480
1683641389.051,-32.227,-43.457,-37.109,-43.945
1683641389.055,-29.785,-36.621,-29.297,-38.574
1683641389.059,-30.273,-28.809,-26.855,-33.203
1683641389.063,-29.297,-31.250,-40.039,-37.598
1683641389.067,-41.016,-43.945,-53.711,-50.293
1683641389.071,-40.527,-40.039,-39.551,-48.340
1683641389.075,-25.391,-24.414,-24.902,-33.203
1683641389.078,-24.414,-26.855,-30.273,-29.297
1683641389.082,-38.086,-35.645,-45.898,-32.715
1683641389.086,-41.504,-39.062,-48.340,-36.621
1683641389.090,-40.527,-39.551,-38.086,-41.016
1683641389.094,-38.574,-42.480,-29.297,-38.086
1683641389.096,-35.156,-34.180,-20.996,-26.367
1683641389.100,-37.598,-33.691,-36.133,-32.227
1683641389.104,-42.969,-43.945,-56.152,-48.828
1683641389.108,-42.969,-36.621,-45.410,-42.969
1683641389.112,-39.062,-29.785,-30.273,-31.738
1683641389.116,-33.691,-25.879,-25.879,-20.508
1683641389.120,-32.227,-22.949,-30.273,-21.484
1683641389.123,-38.574,-25.391,-41.504,-32.715
1683641389.127,-29.785,-30.762,-40.527,-31.250
1683641389.131,-20.020,-34.668,-24.902,-26.367
1683641389.135,-25.391,-32.227,-20.508,-20.996
1683641389.139,-27.344,-30.273,-26.855,-20.020
1683641389.141,-37.109,-37.109,-35.645,-34.668
1683641389.145,-49.316,-42.480,-44.434,-51.270
1683641389.149,-35.645,-34.180,-34.668,-42.480
1683641389.153,-30.762,-30.762,-22.949,-32.227
1683641389.157,-47.363,-40.527,-27.832,-40.527
1683641389.161,-49.316,-44.922,-41.016,-45.410
1683641389.165,-46.387,-42.969,-41.992,-45.898
1683641389.168,-39.062,-39.551,-33.691,-41.504
1683641389.172,-25.391,-40.527,-25.879,-31.250
1683641389.176,-23.926,-44.434,-24.414,-25.391
1683641389.180,-32.715,-41.016,-35.156,-31.250
1683641389.184,-38.086,-42.480,-45.898,-42.480
1683641389.201,-36.133,-44.922,-33.691,-41.016
1683641389.205,-34.180,-43.457,-20.508,-29.785
1683641389.209,-32.227,-41.016,-25.879,-24.414
1683641389.213,-36.621,-43.457,-41.504,-34.668
1683641389.217,-51.270,-46.875,-49.805,-46.387
1683641389.221,-49.316,-43.945,-40.039,-46.387
1683641389.225,-30.762,-32.715,-25.879,-37.598
1683641389.228,-21.484,-27.344,-27.344,-28.809
1683641389.232,-24.902,-36.133,-42.969,-34.668
1683641389.236,-26.367,-41.504,-43.457,-37.598
1683641389.240,-20.996,-38.574,-36.133,-33.691
1683641389.244,-7.812,-32.715,-25.391,-22.461
1683641389.246,1.465,-26.367,-20.020,-8.789
1683641389.250,-11.230,-35.156,-31.738,-14.160
1683641389.254,-30.762,-43.945,-38.574,-28.809
1683641389.258,-41.504,-44.922,-32.227,-34.180
1683641389.262,-29.785,-44.434,-19.043,-24.902
1683641389.266,-22.949,-32.715,-11.719,-14.160
1683641389.270,-25.879,-27.832,-15.137,-17.090
1683641389.273,-32.715,-32.715,-35.156,-27.344
1683641389.277,-45.410,-35.645,-35.156,-38.574
1683641389.281,-42.969,-42.480,-22.461,-34.668
1683641389.285,-28.809,-33.203,-26.367,-22.461
1683641389.289,-30.762,-24.902,-40.527,-27.832
1683641389.291,-43.457,-33.203,-50.781,-39.062
1683641389.295,-50.781,-43.457,-42.969,-49.316
1683641389.299,-51.270,-42.969,-28.320,-42.480
1683641389.303,-54.199,-36.621,-24.414,-26.855
1683641389.307,-58.594,-41.992,-38.574,-29.785
1683641389.311,-61.035,-45.410,-45.410,-40.527
1683641389.315,-70.312,-36.133,-42.480,-39.062
1683641389.318,-63.477,-34.668,-32.715,-30.273
1683641389.322,-46.875,-40.527,-22.461,-25.391
1683641389.326,-37.109,-39.551,-33.691,-21.484
1683641389.330,-44.434,-34.668,-42.480,-28.809
1683641389.334,-65.918,-38.086,-49.316,-45.898
1683641389.336,-61.035,-38.086,-41.504,-42.480
1683641389.340,-44.434,-31.738,-28.320,-25.391
1683641389.344,-38.086,-34.180,-36.621,-25.391
1683641389.348,-36.621,-40.039,-49.316,-36.621
1683641389.352,-34.180,-41.016,-57.617,-44.434
1683641389.356,-36.621,-39.551,-47.363,-45.410
1683641389.360,-38.086,-23.926,-28.320,-36.133
1683641389.363,-26.855,-13.184,-16.113,-21.484
1683641389.367,-27.832,-25.391,-26.367,-28.320
1683641389.371,-33.691,-33.691,-41.016,-37.109
1683641389.375,-35.156,-34.180,-32.227,-35.156
1683641389.379,-24.414,-31.250,-23.438,-28.320
1683641389.381,-21.484,-29.785,-30.273,-22.461
1683641389.385,-33.203,-37.109,-43.457,-31.738
1683641389.389,-38.086,-39.551,-44.434,-44.922
1683641389.393,-33.203,-38.574,-36.133,-47.363
1683641389.397,-24.902,-32.227,-23.926,-42.480
1683641389.401,-12.207,-26.367,-24.414,-37.109
1683641389.405,-33.691,-31.250,-41.992,-47.852
1683641389.408,-51.758,-45.410,-66.895,-62.988
1683641389.412,-52.246,-53.711,-54.199,-63.965
1683641389.416,-47.852,-47.363,-27.832,-54.199
1683641389.420,-40.527,-42.969,-23.926,-40.527
1683641389.424,-36.133,-40.527,-35.645,-41.016
1683641389.426,-38.574,-42.969,-46.875,-44.434
1683641389.430,-46.387,-46.387,-42.480,-40.039
1683641389.434,-41.016,-35.156,-26.367,-35.645
1683641389.438,-34.180,-29.785,-18.066,-30.273
1683641389.442,-35.645,-39.551,-31.250,-31.250
1683641389.446,-44.434,-41.992,-44.922,-44.922
1683641389.450,-51.758,-44.434,-37.109,-53.223
1683641389.453,-47.363,-48.828,-23.438,-49.805
1683641389.457,-39.062,-43.457,-20.508,-44.922
1683641389.461,-38.574,-41.504,-31.250,-47.852
1683641389.465,-44.434,-45.410,-41.992,-55.176
1683641389.469,-44.434,-45.410,-39.062,-56.152
1683641389.471,-36.621,-38.086,-30.762,-51.758
1683641389.475,-28.320,-34.668,-27.832,-45.898
1683641389.479,-24.902,-39.062,-33.691,-40.039
1683641389.483,-30.762,-45.898,-43.457,-42.969
1683641389.487,-40.039,-51.270,-45.410,-52.246
1683641389.491,-31.738,-48.828,-32.715,-45.898
1683641389.495,-26.855,-39.062,-19.531,-38.086
1683641389.498,-33.691,-41.504,-27.832,-35.645
1683641389.502,-41.016,-50.781,-48.828,-40.039
1683641389.506,-51.758,-58.105,-55.664,-57.617
1683641389.510,-53.223,-51.270,-37.109,-51.270
1683641389.514,-53.711,-43.945,-24.902,-35.645
1683641389.516,-49.316,-41.016,-28.809,-31.250
1683641389.520,-54.199,-36.133,-39.062,-34.668
1683641389.524,-72.266,-40.039,-42.480,-47.852
1683641389.528,-72.754,-44.434,-30.273,-49.316
1683641389.532,-66.895,-40.527,-27.344,-43.457
1683641389.536,-65.430,-35.645,-35.645,-44.922
1683641389.540,-67.871,-41.016,-45.410,-55.176
1683641389.543,-74.219,-46.387,-52.246,-59.570
1683641389.547,-68.848,-47.363,-40.527,-51.758
1683641389.551,-51.758,-42.480,-24.414,-38.086
1683641389.555,-48.828,-30.762,-22.461,-23.438
1683641389.559,-62.500,-33.203,-41.504,-32.227
1683641389.576,-63.965,-42.480,-49.316,-43.457
1683641389.580,-62.012,-42.480,-37.598,-45.898
1683641389.584,-64.941,-36.133,-32.715,-46.387
1683641389.588,-57.129,-34.180,-32.227,-36.133
1683641389.592,-53.223,-35.645,-36.621,-37.598
1683641389.596,-79.590,-46.387,-47.852,-57.617
1683641389.600,-88.379,-52.734,-44.922,-68.359
1683641389.603,-67.383,-41.992,-23.438,-53.223
1683641389.607,-61.523,-38.086,-17.090,-36.133
1683641389.611,-70.801,-45.410,-28.809,-42.480
1683641389.615,-81.055,-40.527,-44.434,-54.199
1683641389.619,-81.055,-39.551,-43.945,-56.152
1683641389.621,-71.289,-32.715,-23.926,-45.410
1683641389.625,-62.012,-25.879,-19.043,-36.133
1683641389.629,-55.664,-30.273,-31.250,-37.109
1683641389.633,-56.641,-33.691,-41.016,-46.387
1683641389.637,-57.129,-34.668,-42.480,-50.293
1683641389.641,-41.016,-27.344,-26.855,-37.109
1683641389.645,-32.227,-20.508,-18.555,-28.809
1683641389.648,-33.203,-23.438,-32.715,-33.691
1683641389.652,-38.574,-32.715,-37.109,-43.457
1683641389.656,-57.129,-41.016,-35.645,-51.270
1683641389.660,-54.199,-32.715,-32.715,-45.410
1683641389.664,-27.832,-19.043,-23.926,-28.809
1683641389.666,-14.648,-25.391,-30.273,-25.879
1683641389.670,-43.457,-46.875,-44.434,-53.223
1683641389.674,-70.801,-52.734,-46.875,-71.777
1683641389.678,-63.965,-44.922,-35.156,-60.059
1683641389.682,-49.805,-39.062,-18.555,-46.875
1683641389.686,-51.758,-36.133,-12.207,-41.504
1683641389.690,-71.777,-41.992,-20.508,-53.711
1683641389.693,-79.102,-52.734,-33.203,-66.406
1683641389.697,-74.219,-63.477,-37.598,-67.383
1683641389.701,-59.570,-61.523,-27.832,-55.176
1683641389.705,-47.852,-49.805,-21.484,-46.875
1683641389.709,-51.758,-43.945,-32.715,-51.270
1683641389.711,-55.664,-47.363,-38.574,-55.664
1683641389.715,-53.223,-45.898,-24.902,-47.363
1683641389.719,-42.480,-37.598,-8.789,-33.691
1683641389.723,-38.574,-39.551,-16.602,-30.273
1683641389.727,-45.410,-50.293,-34.668,-34.668
1683641389.731,-53.711,-57.617,-40.039,-47.852
1683641389.735,-57.129,-48.340,-41.992,-47.363
1683641389.738,-49.805,-44.434,-28.809,-37.109
1683641389.742,-42.969,-44.434,-23.438,-28.320
1683641389.746,-43.945,-37.109,-35.645,-25.879
1683641389.750,-49.805,-42.969,-43.457,-38.086
1683641389.754,-44.434,-45.410,-38.574,-43.945
1683641389.756,-36.621,-34.180,-25.391,-34.668
1683641389.760,-28.809,-27.832,-21.973,-23.926
1683641389.764,-37.109,-30.273,-25.391,-25.879
1683641389.768,-67.871,-40.039,-36.621,-41.992
1683641389.772,-68.848,-43.457,-39.062,-44.434
1683641389.776,-52.734,-41.016,-28.809,-39.062
1683641389.780,-46.387,-32.715,-25.391,-37.109
1683641389.783,-50.781,-28.320,-33.691,-38.574
1683641389.787,-58.594,-34.668,-42.480,-44.922
1683641389.791,-58.105,-44.922,-32.227,-45.410
1683641389.795,-52.734,-46.387,-18.066,-43.945
1683641389.799,-41.504,-34.668,-16.602,-37.598
1683641389.801,-41.016,-37.109,-26.855,-38.574
1683641389.805,-57.129,-47.363,-44.434,-51.758
1683641389.809,-57.617,-39.062,-44.434,-56.641
1683641389.813,-44.922,-30.762,-26.855,-48.828
1683641389.817,-34.668,-27.344,-18.066,-40.039
1683641389.821,-29.785,-23.438,-29.297,-43.457
1683641389.825,-42.969,-30.762,-41.992,-55.176
1683641389.828,-45.410,-36.621,-38.086,-59.570
1683641389.832,-30.273,-35.645,-25.391,-52.246
1683641389.836,-24.902,-38.086,-20.020,-43.945
1683641389.840,-16.602,-28.320,-21.973,-36.621
1683641389.844,-26.855,-27.344,-34.668,-41.992
1683641389.846,-48.828,-38.086,-43.945,-62.012
1683641389.850,-44.922,-41.016,-34.668,-55.664
1683641389.854,-27.344,-33.691,-18.555,-37.109
1683641389.858,-31.250,-29.785,-18.066,-39.551
1683641389.862,-48.828,-32.715,-35.156,-47.363
1683641389.866,-52.734,-37.598,-38.574,-54.199
1683641389.870,-59.570,-35.645,-32.715,-62.500
1683641389.873,-58.105,-33.691,-23.438,-55.664
1683641389.877,-49.805,-33.203,-20.996,-47.363
1683641389.881,-56.152,-33.691,-32.715,-56.641
1683641389.885,-70.312,-34.180,-36.133,-66.895
1683641389.889,-78.125,-39.551,-26.367,-68.359
1683641389.891,-73.242,-43.945,-15.137,-64.453
1683641389.895,-65.430,-42.969,-12.695,-59.570
1683641389.899,-61.523,-40.039,-21.484,-58.105
1683641389.903,-68.848,-40.527,-29.785,-64.453
1683641389.907,-77.637,-39.551,-23.438,-69.336
1683641389.911,-68.848,-37.109,-5.371,-63.477
1683641389.915,-58.594,-31.738,-4.395,-55.664
1683641389.918,-54.199,-34.668,-21.973,-55.176
1683641389.922,-66.406,-47.852,-36.133,-72.266
1683641389.926,-82.520,-54.199,-36.621,-78.613
1683641389.930,-67.871,-49.316,-14.648,-58.594
1683641389.934,-47.852,-38.574,-4.395,-41.016
1683641389.951,-54.688,-34.180,-11.719,-46.875
1683641389.955,-64.453,-39.551,-26.855,-61.035
1683641389.959,-65.918,-41.992,-26.367,-58.105
1683641389.963,-65.918,-37.109,-10.254,-48.828
1683641389.967,-53.223,-28.809,-5.371,-38.574
1683641389.971,-49.316,-29.785,-12.207,-31.250
1683641389.975,-55.176,-30.762,-20.020,-41.016
1683641389.978,-68.359,-42.480,-25.391,-53.711
1683641389.982,-68.848,-54.688,-15.625,-49.316
1683641389.986,-52.734,-41.504,-5.859,-38.574
1683641389.990,-44.922,-32.227,-17.090,-35.645
1683641389.994,-51.758,-38.574,-33.203,-43.945
1683641389.996,-59.570,-40.039,-38.086,-60.059
1683641390.000,-43.457,-36.621,-28.320,-54.688
1683641390.004,-19.531,-27.832,-16.113,-33.691
1683641390.008,-6.348,-20.020,-22.949,-28.320
1683641390.012,-14.648,-27.344,-38.086,-31.738
1683641390.016,-40.527,-35.645,-38.574,-43.457
1683641390.020,-41.992,-34.668,-29.297,-40.039
1683641390.023,-24.414,-35.156,-26.367,-13.184
1683641390.027,-24.902,-35.645,-20.020,-9.277
1683641390.031,-28.809,-36.133,-22.461,-18.555
1683641390.035,-33.203,-39.062,-45.898,-22.949
1683641390.039,-33.203,-41.504,-41.504,-24.902
1683641390.041,-22.461,-38.574,-28.320,-14.648
1683641390.045,-4.395,-28.320,-28.809,-0.488
1683641390.049,-7.324,-32.715,-41.504,-9.277
1683641390.053,-20.508,-42.969,-50.293,-20.996
1683641390.057,-10.254,-41.504,-38.086,-18.066
1683641390.061,-1.953,-34.180,-26.855,-17.090
1683641390.065,0.977,-23.438,-22.949,-10.742
1683641390.068,-1.953,-23.438,-31.250,-10.742
1683641390.072,-18.555,-31.738,-43.457,-23.438
1683641390.076,-22.461,-41.016,-42.969,-32.715
1683641390.080,-4.883,-35.156,-29.297,-23.926
1683641390.084,2.441,-27.832,-22.461,-7.812
1683641390.086,-6.836,-35.156,-35.156,-10.254
1683641390.090,-16.602,-41.504,-44.434,-25.391
1683641390.094,-16.602,-37.109,-37.598,-30.273
1683641390.098,-7.812,-36.133,-23.926,-24.902
1683641390.102,-0.488,-30.273,-16.113,-12.207
1683641390.106,1.465,-27.832,-24.414,-9.277
1683641390.110,-16.602,-36.133,-48.828,-27.344
1683641390.113,-30.273,-39.551,-45.898,-34.668
1683641390.117,-18.555,-38.086,-24.414,-20.508
1683641390.121,-2.441,-31.250,-22.461,-9.277
1683641390.125,-2.930,-31.738,-31.738,-7.324
1683641390.129,-12.695,-38.086,-44.434,-13.672
1683641390.131,-14.648,-41.504,-44.434,-19.043
1683641390.135,-14.648,-40.527,-34.180,-12.695
1683641390.139,-12.695,-34.180,-26.855,-4.395
1683641390.143,-7.812,-37.598,-29.297,-8.301
1683641390.147,-16.113,-47.363,-43.457,-24.902
1683641390.151,-28.809,-43.945,-48.828,-31.250
1683641390.155,-17.578,-32.227,-37.598,-19.043
1683641390.158,-10.254,-32.715,-35.645,-10.254
1683641390.162,-10.742,-38.574,-42.480,-7.812
1683641390.166,-9.766,-39.551,-49.805,-13.184
1683641390.170,-25.879,-41.992,-49.805,-25.879
1683641390.174,-28.320,-43.457,-39.062,-30.273
1683641390.176,-16.113,-36.133,-29.785,-25.879
1683641390.180,-10.254,-25.879,-32.227,-19.043
1683641390.184,-12.695,-26.855,-45.410,-24.414
1683641390.188,-25.879,-32.715,-52.734,-34.668
1683641390.192,-26.367,-35.645,-48.340,-35.156
1683641390.196,-24.414,-31.250,-31.738,-31.738
1683641390.200,-28.320,-23.438,-37.109,-33.203
1683641390.203,-25.879,-25.879,-58.594,-34.180
1683641390.207,-34.180,-35.156,-60.547,-43.945
1683641390.211,-39.062,-39.062,-49.805,-46.387
1683641390.215,-22.461,-32.715,-31.738,-28.809
1683641390.219,-20.508,-28.809,-35.156,-24.902
1683641390.221,-28.320,-28.809,-48.340,-25.879
1683641390.225,-35.645,-33.203,-51.758,-30.273
1683641390.229,-38.574,-37.598,-46.875,-37.598
1683641390.233,-33.203,-30.762,-32.227,-23.438
1683641390.237,-29.785,-33.203,-31.250,-16.602
1683641390.241,-25.391,-33.203,-40.527,-22.949
1683641390.245,-29.785,-31.738,-44.922,-29.297
1683641390.248,-31.738,-34.180,-44.922,-32.715
1683641390.252,-26.367,-33.203,-38.574,-25.391
1683641390.256,-21.973,-31.738,-31.738,-19.531
1683641390.260,-26.855,-27.344,-34.668,-23.926
1683641390.264,-30.273,-31.738,-44.434,-32.715
1683641390.266,-32.227,-32.227,-41.504,-34.668
1683641390.270,-30.273,-29.785,-28.809,-29.297
1683641390.274,-23.926,-28.809,-24.902,-20.508
1683641390.278,-29.785,-31.250,-33.203,-24.902
1683641390.282,-43.945,-41.016,-47.852,-41.504
1683641390.286,-53.711,-44.922,-50.293,-49.316
1683641390.290,-48.828,-37.109,-39.062,-39.062
1683641390.293,-39.551,-32.227,-24.414,-26.367
1683641390.297,-34.180,-30.762,-25.879,-20.508
1683641390.301,-48.340,-31.738,-41.016,-30.273
1683641390.305,-59.082,-35.645,-43.457,-41.504
1683641390.309,-40.039,-31.250,-32.715,-29.297
1683641390.326,-32.227,-21.973,-26.855,-18.066
1683641390.330,-38.086,-23.926,-31.250,-21.484
1683641390.334,-37.109,-32.227,-38.574,-29.785
1683641390.338,-51.270,-36.621,-44.434,-38.574
1683641390.342,-54.688,-40.039,-37.598,-37.109
1683641390.346,-37.598,-34.668,-27.344,-21.973
1683641390.350,-41.504,-34.180,-34.668,-20.996
1683641390.353,-50.781,-41.992,-45.410,-32.715
1683641390.357,-59.082,-47.363,-47.852,-39.062
1683641390.361,-55.176,-49.316,-43.457,-34.180
1683641390.365,-43.457,-45.410,-27.344,-24.902
1683641390.369,-45.898,-41.504,-23.438,-22.461
1683641390.371,-56.152,-46.875,-42.480,-30.273
1683641390.375,-59.082,-53.711,-47.363,-40.527
1683641390.379,-50.781,-46.387,-35.156,-41.504
1683641390.383,-42.969,-38.086,-27.344,-34.180
1683641390.387,-35.156,-29.297,-23.438,-29.297
1683641390.391,-44.922,-24.414,-30.762,-37.598
1683641390.395,-57.617,-29.785,-40.039,-52.246
1683641390.398,-63.965,-34.180,-43.457,-59.082
1683641390.402,-53.711,-35.156,-26.855,-45.410
1683641390.406,-31.250,-36.621,-17.090,-31.250
1683641390.410,-30.762,-36.621,-34.180,-29.785
1683641390.414,-40.039,-38.574,-43.945,-36.621
1683641390.416,-40.039,-40.527,-42.480,-40.527
1683641390.420,-31.250,-35.156,-32.227,-34.180
1683641390.424,-23.438,-30.273,-30.273,-32.227
1683641390.428,-32.227,-34.668,-41.504,-40.039
1683641390.432,-45.410,-42.969,-52.734,-45.410
1683641390.436,-36.621,-40.527,-43.457,-43.457
1683641390.440,-25.391,-29.785,-25.879,-30.762
1683641390.443,-18.066,-25.391,-18.066,-15.137
1683641390.447,-18.555,-30.273,-20.508,-12.207
1683641390.451,-24.902,-38.574,-33.203,-23.926
1683641390.455,-41.992,-41.016,-48.340,-36.133
1683641390.459,-51.270,-30.273,-40.527,-37.109
1683641390.461,-45.410,-26.855,-26.855,-29.785
1683641390.465,-46.875,-31.250,-35.645,-27.832
1683641390.469,-56.152,-30.762,-43.945,-32.227
1683641390.473,-62.012,-36.621,-42.969,-38.086
1683641390.477,-54.688,-39.062,-32.227,-35.645
1683641390.481,-44.922,-36.133,-23.926,-29.785
1683641390.485,-33.203,-26.367,-30.273,-19.531
1683641390.488,-24.902,-29.785,-41.504,-20.020
1683641390.492,-27.344,-41.992,-42.969,-33.691
1683641390.496,-28.320,-39.062,-36.133,-32.715
1683641390.500,-23.926,-26.855,-24.902,-24.414
1683641390.504,-24.902,-22.461,-29.297,-25.879
1683641390.506,-39.551,-28.320,-43.945,-41.016
1683641390.510,-45.410,-36.621,-46.387,-45.410
1683641390.514,-40.039,-39.551,-38.086,-37.109
1683641390.518,-31.250,-29.297,-25.879,-24.414
1683641390.522,-24.902,-23.438,-26.855,-17.090
1683641390.526,-35.645,-31.250,-41.016,-28.320
1683641390.530,-46.875,-35.156,-54.688,-40.527
1683641390.533,-54.199,-37.598,-46.875,-41.016
1683641390.537,-46.387,-37.598,-32.227,-32.715
1683641390.541,-40.039,-34.668,-35.645,-34.668
1683641390.545,-57.129,-37.598,-50.781,-49.316
1683641390.549,-74.707,-41.992,-61.035,-59.570
1683641390.551,-72.266,-43.457,-49.316,-62.012
1683641390.555,-62.988,-42.969,-33.691,-54.688
1683641390.559,-55.664,-34.180,-25.879,-41.504
1683641390.563,-58.594,-26.855,-36.133,-38.574
1683641390.567,-61.035,-35.645,-48.828,-48.828
1683641390.571,-55.664,-41.992,-39.062,-47.363
1683641390.575,-55.664,-36.133,-19.043,-36.621
1683641390.578,-53.711,-35.645,-19.531,-31.250
1683641390.582,-44.922,-37.109,-38.086,-34.180
1683641390.586,-52.734,-40.527,-50.293,-45.898
1683641390.590,-65.430,-44.434,-42.969,-54.199
1683641390.594,-61.035,-43.457,-29.785,-51.270
1683641390.596,-42.480,-43.457,-27.344,-35.156
1683641390.600,-38.086,-39.062,-32.715,-27.832
1683641390.604,-46.387,-32.227,-40.527,-38.574
1683641390.608,-53.223,-36.133,-43.457,-49.316
1683641390.612,-43.945,-39.062,-33.203,-38.086
1683641390.616,-32.715,-30.273,-23.438,-26.855
1683641390.620,-37.109,-25.391,-27.344,-35.156
1683641390.623,-38.574,-30.762,-40.527,-41.016
1683641390.627,-51.758,-38.574,-48.828,-46.875
1683641390.631,-60.059,-43.457,-35.156,-49.805
1683641390.635,-41.992,-35.156,-25.391,-38.086
1683641390.639,-35.156,-26.855,-28.809,-25.879
1683641390.641,-43.945,-36.133,-40.527,-37.109
1683641390.645,-51.270,-43.945,-49.805,-47.852
1683641390.649,-54.199,-40.527,-37.598,-43.457
1683641390.653,-33.691,-32.715,-24.902,-33.691
1683641390.657,-25.879,-30.273,-29.785,-28.809
1683641390.661,-36.621,-34.180,-31.250,-32.715
1683641390.665,-49.316,-41.992,-35.645,-42.969
1683641390.668,-52.734,-40.039,-37.109,-49.316
1683641390.672,-36.133,-33.203,-25.879,-39.062
1683641390.676,-27.344,-30.273,-28.320,-28.320
1683641390.680,-24.902,-31.738,-40.527,-29.297
1683641390.684,-28.320,-41.504,-49.805,-38.574
1683641390.701,-29.297,-45.410,-44.434,-40.039
1683641390.705,-19.531,-42.480,-34.180,-31.250
1683641390.709,-17.578,-31.250,-27.832,-23.438
1683641390.713,-23.438,-28.809,-36.621,-31.738
1683641390.717,-31.738,-35.645,-50.293,-45.898
1683641390.721,-42.480,-36.621,-47.852,-49.316
1683641390.725,-38.574,-31.738,-36.133,-37.598
1683641390.728,-30.273,-29.297,-31.738,-28.320
1683641390.732,-45.898,-29.297,-44.434,-38.086
1683641390.736,-59.082,-34.180,-51.758,-48.340
1683641390.740,-60.059,-36.133,-45.410,-46.875
1683641390.744,-53.711,-30.762,-36.133,-39.551
1683641390.746,-40.039,-27.832,-25.879,-34.180
1683641390.750,-39.551,-29.785,-34.668,-42.969
1683641390.754,-52.734,-30.273,-49.316,-53.223
1683641390.758,-52.246,-33.203,-44.434,-52.734
1683641390.762,-40.527,-38.086,-32.715,-44.434
1683641390.766,-25.391,-26.855,-27.832,-29.297
1683641390.770,-21.973,-19.531,-42.480,-22.949
1683641390.773,-23.926,-24.902,-55.176,-24.414
1683641390.777,-32.227,-33.691,-54.199,-29.785
1683641390.781,-38.574,-35.156,-38.574,-29.785
1683641390.785,-32.227,-21.484,-21.484,-15.137
1683641390.789,-27.344,-18.555,-29.785,-12.695
1683641390.791,-29.785,-25.391,-44.434,-24.414
1683641390.795,-36.133,-31.738,-44.434,-38.086
1683641390.799,-42.480,-35.156,-31.250,-45.898
1683641390.803,-41.016,-32.715,-26.367,-39.551
1683641390.807,-35.156,-30.762,-29.297,-32.227
1683641390.811,-41.016,-35.645,-41.016,-41.016
1683641390.815,-50.293,-36.621,-47.363,-54.199
1683641390.818,-54.199,-36.133,-38.574,-54.199
1683641390.822,-44.434,-38.086,-67.383,-42.969
1683641390.826,-40.039,-38.086,-65.918,-43.945
1683641390.830,-44.434,-38.086,-45.410,-48.828
1683641390.834,-50.781,-42.969,-52.734,-51.270
1683641390.836,-49.805,-40.039,-41.992,-47.852
1683641390.840,-37.598,-30.273,-29.785,-33.691
1683641390.844,-32.227,-23.926,-31.250,-30.273
1683641390.848,-29.785,-19.531,-39.062,-35.156
1683641390.852,-27.344,-28.320,-46.387,-39.062
1683641390.856,-24.414,-36.133,-39.062,-38.086
1683641390.860,-21.484,-29.785,-21.484,-25.879
1683641390.863,-17.578,-29.297,-22.461,-19.531
1683641390.867,-28.809,-37.109,-39.551,-28.320
1683641390.871,-35.645,-40.039,-47.363,-38.574
1683641390.875,-36.133,-37.109,-41.504,-38.086
1683641390.879,-35.156,-33.691,-29.297,-25.879
1683641390.881,-23.438,-25.879,-20.996,-18.066
1683641390.885,-28.809,-27.832,-32.715,-24.414
1683641390.889,-41.504,-37.109,-45.410,-39.551
1683641390.893,-54.199,-42.480,-47.852,-53.223
1683641390.897,-43.457,-42.480,-35.156,-41.992
1683641390.901,-25.391,-34.180,-26.855,-23.926
1683641390.905,-19.531,-26.855,-35.645,-25.391
1683641390.908,-30.762,-36.133,-41.504,-37.109
1683641390.912,-54.199,-46.387,-44.922,-49.805
1683641390.916,-44.922,-42.969,-38.086,-41.504
1683641390.920,-23.438,-30.273,-29.785,-26.855
1683641390.924,-21.973,-25.391,-45.898,-29.297
1683641390.926,-31.738,-28.809,-58.105,-38.086
1683641390.930,-43.945,-34.668,-48.340,-37.598
1683641390.934,-46.875,-33.691,-31.250,-26.855
1683641390.938,-32.227,-23.438,-22.461,-21.484
1683641390.942,-28.809,-24.414,-31.250,-22.461
1683641390.946,-35.156,-30.273,-48.828,-30.762
1683641390.950,-49.316,-36.133,-44.922,-47.852
1683641390.953,-54.199,-36.133,-30.762,-45.898
1683641390.957,-36.133,-24.902,-32.227,-26.367
1683641390.961,-34.668,-26.855,-42.969,-30.762
1683641390.965,-47.363,-28.320,-46.387,-42.969
1683641390.969,-50.293,-31.250,-41.992,-46.387
1683641390.971,-52.734,-35.156,-36.621,-44.922
1683641390.975,-46.387,-36.621,-25.879,-36.133
1683641390.979,-42.480,-33.691,-28.320,-30.762
1683641390.983,-43.945,-33.691,-36.133,-26.367
1683641390.987,-47.363,-41.992,-38.574,-34.668
1683641390.991,-55.176,-42.969,-36.621,-47.363
1683641390.995,-41.016,-29.785,-34.180,-38.086
1683641390.998,-34.668,-18.066,-39.062,-28.809
1683641391.002,-39.551,-25.391,-41.504,-33.203
1683641391.006,-41.504,-34.180,-40.039,-37.598
1683641391.010,-49.805,-30.762,-30.762,-34.180
1683641391.014,-45.898,-22.949,-15.625,-23.438
1683641391.016,-43.457,-23.926,-11.230,-15.625
1683641391.020,-61.035,-37.109,-30.762,-25.391
1683641391.024,-65.430,-42.480,-43.457,-42.480
1683641391.028,-68.359,-40.039,-37.109,-42.480
1683641391.032,-68.359,-38.086,-30.762,-34.668
1683641391.036,-49.316,-31.738,-17.090,-25.879
1683641391.040,-37.598,-29.297,-22.461,-23.438
1683641391.043,-45.410,-31.738,-44.922,-33.691
1683641391.047,-49.805,-32.715,-42.969,-36.621
1683641391.051,-39.551,-27.344,-19.531,-27.832
1683641391.055,-36.133,-19.531,-15.625,-26.367
1683641391.059,-48.828,-21.484,-31.738,-27.344
1683641391.076,-58.594,-28.320,-41.016,-41.504
1683641391.080,-56.641,-33.691,-34.180,-50.293
1683641391.084,-48.340,-32.715,-21.973,-33.691
1683641391.088,-33.691,-27.832,-22.949,-23.926
1683641391.092,-33.203,-28.320,-31.738,-27.832
1683641391.096,-48.828,-31.250,-42.480,-38.086
1683641391.100,-57.129,-31.250,-41.504,-50.293
1683641391.103,-57.129,-31.738,-31.738,-52.246
1683641391.107,-44.434,-36.133,-26.367,-38.086
1683641391.111,-39.062,-36.133,-33.691,-33.691
1683641391.115,-48.340,-32.715,-42.480,-44.922
1683641391.119,-57.129,-34.668,-36.621,-51.270
1683641391.121,-52.734,-30.762,-24.414,-44.922
1683641391.125,-42.969,-20.020,-22.949,-33.691
1683641391.129,-30.762,-12.695,-26.367,-27.832
1683641391.133,-37.598,-21.973,-36.621,-37.598
1683641391.137,-57.129,-39.062,-46.387,-52.246
1683641391.141,-56.152,-39.062,-39.062,-52.734
1683641391.145,-34.668,-25.879,-27.344,-39.062
1683641391.148,-26.367,-21.973,-26.855,-27.832
1683641391.152,-33.691,-30.273,-30.273,-35.156
1683641391.156,-41.992,-35.156,-37.109,-48.340
1683641391.160,-40.039,-30.762,-33.691,-42.969
1683641391.164,-29.297,-28.320,-19.043,-31.250
1683641391.166,-28.809,-31.250,-23.926,-29.785
1683641391.170,-35.645,-31.738,-33.691,-31.738
1683641391.174,-32.227,-28.809,-37.598,-37.598
1683641391.178,-28.809,-30.762,-29.785,-37.109
1683641391.182,-37.109,-29.297,-19.043,-35.156
1683641391.186,-31.250,-22.461,-25.879,-33.691
1683641391.190,-27.344,-22.949,-39.551,-37.109
1683641391.193,-35.645,-28.809,-43.945,-43.945
1683641391.197,-44.434,-40.527,-34.180,-48.340
1683641391.201,-41.016,-42.969,-23.926,-41.992
1683641391.205,-29.297,-32.227,-26.855,-29.297
1683641391.209,-33.203,-30.273,-35.645,-25.879
1683641391.211,-42.969,-34.668,-43.945,-33.203
1683641391.215,-50.293,-43.457,-41.992,-43.457
1683641391.219,-33.203,-35.156,-32.227,-36.133
1683641391.223,-12.207,-21.973,-20.020,-18.555
1683641391.227,-30.762,-30.273,-30.273,-27.344
1683641391.231,-39.551,-38.086,-51.270,-43.945
1683641391.235,-33.691,-41.992,-51.758,-42.480
1683641391.238,-39.551,-37.598,-19.043,-36.133
1683641391.242,-34.668,-30.762,0.000,-22.461
1683641391.246,-31.250,-31.250,-33.203,-22.461
1683641391.250,-29.785,-31.250,-50.293,-35.645
1683641391.254,-38.574,-37.598,-45.410,-40.527
1683641391.256,-43.945,-41.016,-36.133,-40.039
1683641391.260,-31.250,-33.203,-23.438,-24.902
1683641391.264,-29.785,-26.367,-21.973,-16.113
1683641391.268,-46.387,-32.227,-37.109,-26.367
1683641391.272,-57.129,-38.574,-43.945,-38.574
1683641391.276,-51.758,-35.645,-35.645,-40.039
1683641391.280,-46.387,-30.762,-23.438,-34.180
1683641391.283,-48.340,-30.273,-40.527,-40.039
1683641391.287,-51.758,-40.527,-54.688,-52.246
1683641391.291,-59.570,-45.410,-44.434,-52.246
1683641391.295,-43.945,-39.062,-29.785,-41.504
1683641391.299,-25.391,-32.715,-20.508,-31.738
1683641418.856,-54.688,-49.805,-32.227,-35.645
1683641418.860,-44.434,-41.504,-21.973,-24.902
1683641418.864,-43.945,-38.574,-28.809,-26.855
1683641418.868,-57.617,-49.805,-41.016,-36.133
1683641418.872,-63.965,-57.617,-45.410,-41.016
1683641418.876,-65.430,-55.664,-32.227,-39.062
1683641418.880,-50.293,-43.457,-20.508,-25.879
1683641418.883,-39.062,-43.457,-31.738,-22.461
1683641418.887,-58.105,-62.988,-53.223,-41.992
1683641418.891,-77.637,-71.289,-51.270,-57.617
1683641418.895,-67.871,-62.988,-39.551,-49.805
1683641418.899,-52.734,-60.547,-37.109,-40.039
1683641418.901,-53.711,-53.223,-38.574,-37.598
1683641418.905,-63.477,-52.734,-45.410,-41.992
1683641418.909,-68.359,-59.082,-51.270,-52.246
1683641418.913,-62.012,-59.082,-40.527,-49.316
1683641418.917,-54.199,-56.641,-31.738,-37.598
1683641418.921,-42.969,-48.828,-29.785,-33.203
1683641418.925,-43.457,-48.828,-40.039,-38.574
1683641418.928,-52.246,-57.617,-52.246,-47.852
1683641418.932,-50.293,-62.012,-36.133,-46.875
1683641418.936,-41.016,-58.594,-24.414,-42.480
1683641418.940,-29.297,-48.828,-35.156,-39.551
1683641418.944,-34.180,-53.711,-43.457,-44.434
1683641418.901,-53.711,-53.223,-38.574,-37.598
1683641418.905,-63.477,-52.734,-45.410,-41.992
1683641418.909,-68.359,-59.082,-51.270,-52.246
1683641418.913,-62.012,-59.082,-40.527,-49.316
1683641418.917,-54.199,-56.641,-31.738,-37.598
1683641418.921,-42.969,-48.828,-29.785,-33.203
1683641418.925,-43.457,-48.828,-40.039,-38.574
1683641418.928,-52.246,-57.617,-52.246,-47.852
1683641418.932,-50.293,-62.012,-36.133,-46.875
1683641418.936,-41.016,-58.594,-24.414,-42.480
1683641418.940,-29.297,-48.828,-35.156,-39.551
1683641418.944,-34.180,-53.711,-43.457,-44.434
1683641418.946,-47.852,-62.012,-49.805,-51.758
1683641418.950,-54.688,-64.941,-46.875,-53.223
1683641418.954,-50.781,-63.477,-38.574,-45.898
1683641418.958,-45.410,-61.035,-40.039,-39.062
1683641418.962,-49.805,-62.012,-53.223,-42.480
1683641418.966,-54.199,-67.383,-61.035,-46.875
1683641418.970,-47.852,-64.941,-47.363,-45.410
1683641418.973,-43.457,-61.035,-37.598,-44.922
1683641418.977,-34.668,-64.453,-48.828,-40.527
1683641418.981,-30.762,-66.895,-50.781,-42.969
1683641418.985,-40.039,-62.988,-49.805,-57.129
1683641418.989,-45.410,-63.965,-51.270,-59.082
1683641418.991,-48.340,-64.453,-44.434,-55.176
1683641418.995,-44.434,-55.664,-31.738,-44.922
1683641418.999,-41.504,-52.734,-32.227,-42.480
1683641419.003,-53.711,-53.223,-46.387,-56.152
1683641419.007,-62.012,-56.641,-51.270,-64.941
1683641419.011,-55.176,-51.270,-40.527,-55.176
1683641419.015,-39.551,-30.273,-23.438,-41.016
1683641419.018,-39.062,-21.973,-36.133,-41.992
1683641419.022,-50.293,-29.297,-58.105,-49.316
1683641419.026,-54.199,-33.691,-44.434,-54.688
1683641419.030,-53.711,-32.227,-31.250,-50.781
1683641419.034,-47.852,-29.297,-29.785,-40.039
1683641419.036,-40.039,-26.367,-33.691,-40.039
1683641419.040,-45.410,-27.344,-38.086,-46.387
1683641419.044,-54.688,-30.762,-36.133,-53.223
1683641419.048,-58.594,-31.738,-35.645,-57.617
1683641419.052,-57.129,-29.297,-33.691,-47.852
1683641419.056,-51.270,-28.320,-27.344,-40.039
1683641419.060,-58.105,-27.832,-37.109,-45.898
1683641419.063,-68.359,-32.715,-55.664,-54.688
1683641419.067,-59.082,-38.086,-51.758,-52.246
1683641419.071,-42.969,-32.715,-29.297,-38.574
1683641419.075,-34.668,-36.133,-25.391,-31.738
1683641419.079,-37.598,-39.551,-39.062,-39.062
1683641419.081,-51.758,-39.062,-49.805,-51.758
1683641419.085,-57.129,-40.039,-42.969,-55.176
1683641419.089,-41.504,-32.227,-30.762,-41.504
1683641419.093,-32.715,-25.879,-29.297,-31.738
1683641419.097,-41.992,-25.391,-35.645,-30.273
1683641419.101,-49.805,-24.414,-43.945,-38.574
1683641419.105,-56.641,-23.926,-40.527,-44.434
1683641419.108,-54.688,-23.926,-30.762,-36.621
1683641419.112,-36.133,-16.602,-22.949,-23.926
1683641419.116,-25.879,-21.973,-30.762,-23.438
1683641419.120,-33.691,-33.203,-37.109,-36.621
1683641419.124,-34.180,-37.598,-30.762,-38.086
1683641419.126,-25.391,-35.645,-24.902,-27.344
1683641419.130,-21.973,-37.109,-19.531,-22.461
1683641419.134,-24.902,-40.039,-27.344,-25.391
1683641419.138,-30.273,-38.086,-37.598,-32.227
1683641419.142,-35.645,-38.086,-37.598,-40.527
1683641419.146,-26.855,-24.414,-27.344,-40.527
1683641419.150,-11.230,-5.371,-23.926,-31.250
1683641419.153,-13.672,-7.812,-36.621,-29.785
1683641419.157,-25.391,-23.438,-51.758,-42.969
1683641419.161,-35.156,-25.879,-56.641,-55.664
1683641419.165,-39.551,-17.578,-45.410,-55.664
1683641419.169,-33.203,-12.207,-34.180,-41.992
1683641419.171,-21.973,-7.324,-36.133,-31.738
1683641419.175,-29.297,-7.324,-46.875,-42.480
1683641419.179,-41.992,-6.348,-43.457,-48.340
1683641419.183,-41.992,-6.836,-30.762,-42.480
1683641419.187,-32.227,-1.953,-24.902,-34.180
1683641419.191,-14.648,6.836,-16.113,-23.438
1683641419.195,-20.020,6.348,-23.438,-31.738
1683641419.198,-32.715,-1.953,-41.504,-47.363
1683641419.202,-28.320,-0.488,-32.227,-40.527
1683641419.206,-15.137,11.230,-21.973,-34.180
1683641419.210,-3.418,20.996,-24.414,-35.156
1683641419.214,-9.277,22.461,-37.109,-35.156
1683641419.231,-22.461,17.090,-49.805,-41.504
1683641419.235,-25.391,16.602,-47.852,-46.387
1683641419.239,-13.672,26.367,-34.668,-36.133
1683641419.243,-9.277,32.227,-30.273,-34.668
1683641419.247,-13.672,25.879,-41.504,-49.805
1683641419.251,-23.438,18.555,-52.734,-56.152
1683641419.255,-31.738,17.578,-49.316,-60.547
1683641419.258,-29.297,15.137,-39.062,-61.523
1683641419.262,-24.414,9.277,-38.086,-58.105
1683641419.266,-30.762,3.906,-46.387,-63.477
1683641419.270,-40.039,2.441,-56.152,-66.406
1683641419.274,-41.992,6.348,-48.828,-70.801
1683641419.231,-22.461,17.090,-49.805,-41.504
1683641419.235,-25.391,16.602,-47.852,-46.387
1683641419.239,-13.672,26.367,-34.668,-36.133
1683641419.243,-9.277,32.227,-30.273,-34.668
1683641419.247,-13.672,25.879,-41.504,-49.805
1683641419.251,-23.438,18.555,-52.734,-56.152
1683641419.255,-31.738,17.578,-49.316,-60.547
1683641419.258,-29.297,15.137,-39.062,-61.523
1683641419.262,-24.414,9.277,-38.086,-58.105
1683641419.266,-30.762,3.906,-46.387,-63.477
1683641419.270,-40.039,2.441,-56.152,-66.406
1683641419.274,-41.992,6.348,-48.828,-70.801
1683641419.276,-41.504,15.625,-34.180,-66.406
1683641419.280,-35.156,22.461,-31.250,-48.828
1683641419.284,-37.109,20.508,-43.457,-43.945
1683641419.288,-46.387,12.695,-53.223,-48.340
1683641419.292,-45.410,11.230,-45.410,-48.340
1683641419.296,-38.574,15.625,-35.156,-42.969
1683641419.300,-32.715,19.531,-31.738,-35.156
1683641419.303,-22.949,23.438,-36.133,-27.344
1683641419.307,-31.250,10.742,-47.852,-40.039
1683641419.311,-39.062,0.488,-43.457,-48.340
1683641419.315,-21.484,9.766,-27.344,-31.250
1683641419.319,-13.184,16.113,-21.973,-20.020
1683641419.321,-13.184,15.625,-26.367,-26.367
1683641419.325,-19.531,6.836,-37.109,-39.551
1683641419.329,-27.832,-0.488,-44.922,-48.340
1683641419.333,-22.461,6.836,-36.133,-44.434
1683641419.337,-15.137,10.742,-23.926,-32.715
1683641419.341,-24.902,12.695,-31.250,-34.180
1683641419.345,-41.016,11.230,-38.574,-44.434
1683641419.348,-46.875,2.930,-35.645,-50.293
1683641419.352,-41.504,2.441,-49.316,-49.805
1683641419.356,-36.621,5.371,-42.480,-42.969
1683641419.360,-34.180,4.883,-27.832,-36.621
1683641419.364,-42.969,-2.930,-41.016,-42.480
1683641419.366,-59.570,-10.742,-46.875,-54.688
1683641419.370,-56.152,-6.348,-33.203,-49.805
1683641419.374,-42.480,5.859,-24.414,-37.109
1683641419.378,-43.457,7.324,-27.832,-39.551
1683641419.382,-49.316,-0.488,-38.574,-48.340
1683641419.386,-51.758,-7.812,-44.434,-53.223
1683641419.390,-50.293,-8.789,-41.992,-49.805
1683641419.393,-36.133,-13.672,-23.926,-45.410
1683641419.397,-29.297,-18.066,-13.672,-36.621
1683641419.401,-39.062,-19.531,-41.992,-47.363
1683641419.405,-49.316,-21.484,-52.734,-64.453
1683641419.409,-42.969,-20.996,-44.434,-60.547
1683641419.411,-34.180,-22.461,-41.992,-59.570
1683641419.415,-29.785,-22.949,-40.527,-52.246
1683641419.419,-37.109,-21.484,-45.410,-49.805
1683641419.423,-41.016,-23.438,-54.688,-55.664
1683641419.427,-34.668,-23.926,-45.898,-53.223
1683641419.431,-36.133,-18.066,-32.227,-46.387
1683641419.435,-33.691,-11.230,-21.484,-39.551
1683641419.438,-42.969,-20.996,-40.527,-41.992
1683641419.442,-49.805,-24.414,-54.688,-47.852
1683641419.446,-51.758,-20.508,-37.598,-44.434
1683641419.450,-49.316,-24.414,-29.297,-38.574
1683641419.454,-38.086,-17.090,-26.855,-30.762
1683641419.456,-43.457,-15.625,-36.133,-36.133
1683641419.460,-58.105,-27.832,-45.898,-52.734
1683641419.464,-52.246,-30.762,-43.457,-50.781
1683641419.468,-43.945,-27.344,-37.109,-43.457
1683641419.472,-25.391,-25.391,-32.227,-30.273
1683641419.476,-9.277,-21.973,-37.598,-25.879
1683641419.480,-24.902,-22.949,-39.551,-39.062
1683641419.483,-30.273,-27.832,-34.180,-41.016
1683641419.487,-18.555,-20.020,-32.227,-34.180
1683641419.491,-5.859,-13.672,-22.949,-26.855
1683641419.495,-1.465,-11.230,-26.367,-22.949
1683641419.499,-14.648,-17.578,-42.969,-33.203
1683641419.501,-27.832,-28.809,-44.434,-50.293
1683641419.505,-19.043,-24.902,-33.203,-49.316
1683641419.509,-14.648,-19.043,-30.273,-40.039
1683641419.513,-20.508,-22.461,-35.156,-35.645
1683641419.517,-23.438,-31.738,-42.969,-37.598
1683641419.521,-33.203,-35.645,-42.969,-46.875
1683641419.525,-34.180,-31.250,-38.086,-49.316
1683641419.528,-25.391,-30.273,-33.203,-39.062
1683641419.532,-20.508,-32.715,-25.879,-36.621
1683641419.536,-24.902,-31.738,-38.086,-42.480
1683641419.540,-43.945,-35.156,-52.734,-58.105
1683641419.544,-54.199,-38.574,-44.922,-69.336
1683641419.546,-36.133,-36.133,-32.227,-51.758
1683641419.550,-27.344,-32.227,-29.785,-34.180
1683641419.554,-30.273,-28.809,-38.086,-35.156
1683641419.558,-31.250,-27.344,-43.457,-44.434
1683641419.562,-32.227,-26.367,-33.203,-45.410
1683641419.566,-21.973,-24.902,-34.180,-33.203
1683641419.570,-13.184,-19.043,-49.805,-31.738
1683641419.573,-12.695,-17.578,-39.062,-37.598
1683641419.577,-30.762,-31.250,-42.969,-47.363
1683641419.581,-41.992,-40.527,-50.781,-50.293
1683641419.585,-28.320,-33.203,-30.273,-41.992
1683641419.589,-21.973,-27.832,-19.043,-36.621
1683641419.606,-31.250,-36.133,-36.621,-40.039
1683641419.610,-35.645,-39.062,-45.410,-50.293
1683641419.614,-37.109,-32.715,-36.133,-51.758
1683641419.618,-31.738,-31.250,-20.508,-44.922
1683641419.622,-15.625,-28.320,-19.531,-39.551
1683641419.626,-9.766,-26.367,-32.227,-36.133
1683641419.630,-19.531,-27.344,-35.156,-46.875
1683641419.633,-23.926,-29.297,-32.715,-54.688
1683641419.637,-15.625,-33.691,-26.855,-47.363
1683641419.641,-4.883,-32.715,-27.344,-38.086
1683641419.645,-1.953,-26.855,-30.762,-32.227
1683641419.649,-10.254,-30.273,-35.645,-36.133
1683641419.651,-3.418,-34.668,-36.621,-41.016
1683641419.655,4.395,-35.645,-25.391,-38.086
1683641419.659,12.207,-31.250,-16.602,-26.367
1683641419.663,13.672,-23.926,-21.973,-19.531
1683641419.667,6.836,-27.832,-37.109,-34.180
1683641419.671,14.160,-29.785,-39.551,-41.992
1683641419.675,20.508,-21.484,-21.973,-26.855
1683641419.678,19.043,-24.902,-20.996,-20.996
1683641419.682,21.973,-32.715,-20.020,-20.508
1683641419.686,10.742,-34.668,-24.414,-35.156
1683641419.690,-4.395,-31.738,-43.457,-43.457
1683641419.694,-6.348,-33.203,-35.645,-41.016
1683641419.696,2.930,-30.762,-23.926,-30.762
1683641419.700,2.441,-27.344,-31.738,-28.320
1683641419.704,-10.742,-30.273,-45.898,-42.969
1683641419.708,-15.137,-36.133,-49.805,-47.852
1683641419.712,-20.020,-41.992,-38.574,-48.340
1683641419.716,-17.090,-34.668,-26.367,-46.387
1683641419.720,-10.742,-24.902,-26.367,-39.551
1683641419.723,-17.090,-27.344,-40.039,-40.527
1683641419.727,-22.949,-39.062,-32.227,-46.875
1683641419.731,-23.438,-43.945,-23.926,-41.992
1683641419.735,-20.020,-35.645,-31.250,-34.180
1683641419.739,-6.348,-28.809,-30.273,-28.320
1683641419.741,-15.137,-27.832,-38.574,-34.668
1683641419.745,-35.156,-31.250,-49.316,-46.387
1683641419.749,-29.785,-34.668,-40.527,-44.922
1683641419.753,-19.531,-33.203,-27.344,-36.133
1683641419.757,-11.230,-29.297,-25.391,-28.320
1683641419.761,-21.973,-32.715,-35.156,-34.180
1683641419.765,-37.598,-36.133,-48.828,-45.898
1683641419.768,-34.668,-42.480,-28.320,-45.898
1683641419.772,-26.367,-44.434,-6.348,-42.969
1683641419.776,-23.438,-40.527,-22.949,-38.574
1683641419.780,-25.391,-34.180,-33.691,-38.086
1683641419.784,-22.949,-30.762,-52.734,-44.434
1683641419.786,-22.949,-35.156,-50.781,-42.969
1683641419.790,-26.367,-30.762,-28.809,-43.457
1683641419.794,-19.043,-21.973,-20.508,-41.016
1683641419.798,-12.695,-22.949,-24.902,-32.715
1683641419.802,-27.832,-29.785,-33.203,-41.992
1683641419.806,-45.410,-38.574,-33.691,-49.316
1683641419.810,-40.039,-38.086,-23.926,-39.551
1683641419.813,-23.438,-34.180,-19.531,-27.832
1683641419.817,-27.344,-41.504,-26.855,-35.645
1683641419.821,-39.551,-43.945,-37.109,-42.480
1683641419.825,-46.875,-36.621,-34.668,-43.945
1683641419.829,-40.527,-33.203,-22.949,-42.969
1683641419.831,-31.250,-29.785,-14.648,-39.062
1683641419.835,-36.621,-32.715,-21.484,-42.480
1683641419.839,-41.016,-33.691,-36.133,-46.387
1683641419.843,-36.133,-31.250,-40.527,-46.387
1683641419.847,-40.039,-31.250,-34.668,-48.340
1683641419.851,-30.273,-23.438,-23.438,-43.945
1683641419.855,-18.555,-19.043,-22.949,-33.203
1683641419.858,-33.203,-36.133,-44.434,-41.992
1683641419.862,-48.828,-50.781,-47.363,-52.246
1683641419.866,-42.969,-45.410,-33.203,-46.387
1683641419.870,-29.785,-27.344,-26.367,-36.621
1683641419.874,-29.785,-22.949,-27.832,-33.203
1683641419.876,-38.086,-29.297,-38.086,-41.992
1683641419.880,-43.945,-31.738,-40.039,-46.875
1683641419.884,-47.363,-36.621,-35.645,-48.340
1683641419.888,-31.738,-32.715,-28.809,-40.039
1683641419.892,-24.414,-26.367,-28.320,-26.855
1683641419.896,-33.203,-19.043,-34.180,-30.762
1683641419.900,-41.504,-12.695,-36.133,-34.668
1683641419.903,-43.457,-16.602,-33.203,-40.039
1683641419.907,-37.109,-12.695,-28.320,-40.527
1683641419.911,-38.574,-11.230,-36.621,-30.762
1683641419.915,-43.945,-17.578,-47.852,-36.621
1683641419.919,-42.480,-26.367,-48.340,-47.363
1683641419.921,-41.504,-32.227,-43.457,-47.852
1683641419.925,-36.133,-29.785,-32.227,-41.016
1683641419.929,-31.250,-28.320,-26.367,-34.668
1683641419.933,-31.738,-32.715,-39.551,-40.527
1683641419.937,-38.086,-35.645,-47.363,-52.734
1683641419.941,-43.457,-30.273,-44.434,-51.758
1683641419.945,-36.133,-27.832,-42.480,-43.457
1683641419.948,-26.367,-25.879,-31.250,-36.133
1683641419.952,-33.691,-27.344,-34.668,-37.598
1683641419.956,-49.316,-34.180,-40.039,-52.734
1683641419.960,-48.828,-32.715,-36.621,-57.617
1683641419.964,-44.434,-31.250,-33.203,-50.293
1683641419.981,-29.785,-27.344,-30.273,-47.363
1683641419.985,-20.508,-24.902,-39.551,-43.457
1683641419.989,-24.902,-28.809,-48.828,-49.805
1683641419.993,-17.090,-28.809,-41.016,-49.316
1683641419.997,-17.090,-29.785,-31.250,-40.039
1683641420.001,-16.113,-24.414,-29.785,-32.715
1683641420.005,-9.277,-16.113,-26.367,-25.391
1683641420.008,-20.996,-25.391,-32.227,-27.832
1683641420.012,-30.762,-38.574,-46.875,-39.062
1683641420.016,-33.203,-37.598,-48.340,-40.527
1683641420.020,-25.879,-30.273,-32.715,-30.762
1683641420.024,-18.555,-20.996,-29.785,-22.949
1683641420.026,-21.973,-24.414,-45.898,-27.832
1683641420.030,-24.414,-33.203,-43.457,-35.645
1683641420.034,-30.762,-31.738,-26.367,-37.598
1683641420.038,-21.484,-26.855,-19.531,-31.738
1683641420.042,-15.625,-24.414,-26.855,-24.414
1683641420.046,-24.902,-29.297,-37.109,-32.715
1683641420.050,-37.109,-32.227,-46.387,-49.316
1683641420.053,-36.621,-33.691,-35.156,-50.781
1683641420.057,-23.926,-28.809,-30.273,-36.133
1683641420.061,-18.555,-20.996,-44.434,-28.320
1683641420.065,-19.043,-21.484,-41.992,-30.762
1683641420.069,-30.762,-32.227,-43.457,-35.645
1683641420.071,-35.645,-39.062,-38.574,-38.086
1683641420.075,-23.926,-35.645,-26.855,-30.273
1683641420.079,-12.207,-27.832,-23.926,-17.578
1683641420.083,-17.090,-24.414,-33.203,-20.020
1683641420.087,-33.203,-28.320,-41.016,-30.273
1683641420.091,-39.062,-32.715,-33.203,-37.598
1683641420.095,-35.645,-31.738,-25.879,-36.621
1683641420.098,-34.668,-26.367,-28.320,-31.250
1683641420.102,-39.551,-29.297,-17.578,-32.715
1683641420.106,-49.316,-43.945,-35.156,-45.898
1683641420.110,-48.340,-49.316,-53.223,-50.293
1683641420.114,-34.668,-40.527,-36.621,-38.574
1683641420.116,-30.273,-32.715,-31.738,-28.320
1683641420.120,-32.715,-32.227,-33.691,-25.391
1683641420.124,-39.062,-27.344,-41.016,-36.133
1683641420.128,-53.223,-24.902,-47.363,-45.410
1683641420.132,-41.504,-20.996,-33.691,-32.227
1683641420.136,-29.785,-16.113,-21.973,-22.949
1683641420.140,-36.133,-13.184,-35.156,-30.273
1683641420.143,-40.527,-20.996,-43.945,-42.969
1683641420.147,-45.898,-38.574,-42.969,-55.176
1683641420.151,-44.922,-40.527,-49.805,-52.734
1683641420.155,-34.668,-24.902,-43.457,-38.574
1683641420.159,-31.738,-19.531,-38.086,-28.809
1683641420.161,-37.109,-28.809,-48.828,-36.621
1683641420.165,-44.434,-36.621,-55.664,-47.852
1683641420.169,-47.852,-34.668,-41.992,-38.574
1683641420.173,-27.832,-22.461,-29.785,-24.414
1683641420.177,-18.555,-17.578,-34.668,-21.484
1683641420.181,-35.156,-21.484,-46.875,-28.809
1683641420.185,-51.758,-26.367,-48.828,-41.992
1683641420.188,-53.711,-29.297,-40.527,-41.992
1683641420.192,-36.133,-19.043,-29.785,-26.367
1683641420.196,-33.691,-14.648,-33.691,-22.949
1683641420.200,-47.363,-20.508,-46.387,-33.691
1683641420.204,-57.129,-30.273,-50.781,-45.410
1683641420.206,-65.430,-38.086,-52.734,-57.129
1683641420.210,-59.570,-31.738,-44.434,-57.617
1683641420.214,-41.016,-27.344,-36.621,-42.480
1683641420.218,-47.363,-35.156,-43.945,-43.457
1683641420.222,-64.453,-41.504,-53.711,-54.199
1683641420.226,-65.430,-39.062,-46.387,-55.176
1683641420.230,-56.152,-34.180,-38.086,-50.781
1683641420.233,-47.363,-31.738,-36.133,-43.945
1683641420.237,-53.223,-33.691,-46.387,-49.805
1683641420.241,-59.570,-35.156,-56.641,-58.594
1683641420.245,-51.758,-27.344,-45.410,-54.688
1683641420.249,-41.016,-23.438,-32.227,-42.480
1683641420.251,-41.016,-31.738,-39.551,-36.133
1683641420.255,-47.852,-41.504,-51.758,-45.898
1683641420.259,-50.293,-36.133,-55.664,-53.711
1683641420.263,-49.805,-31.250,-50.781,-50.781
1683641420.267,-38.574,-30.273,-34.180,-40.527
1683641420.271,-32.715,-23.926,-35.645,-35.156
1683641420.275,-31.738,-19.531,-13.672,-36.621
1683641420.278,-33.203,-17.578,-15.625,-35.645
1683641420.282,-48.828,-27.832,-46.387,-44.922
1683641420.286,-52.246,-31.250,-39.062,-43.945
1683641420.290,-43.945,-20.996,-31.250,-36.621
1683641420.294,-38.086,-23.438,-39.062,-42.969
1683641420.251,-41.016,-31.738,-39.551,-36.133
1683641420.255,-47.852,-41.504,-51.758,-45.898
1683641420.259,-50.293,-36.133,-55.664,-53.711
1683641420.263,-49.805,-31.250,-50.781,-50.781
1683641420.267,-38.574,-30.273,-34.180,-40.527
1683641420.271,-32.715,-23.926,-35.645,-35.156
1683641420.275,-31.738,-19.531,-13.672,-36.621
1683641420.278,-33.203,-17.578,-15.625,-35.645
1683641420.282,-48.828,-27.832,-46.387,-44.922
1683641420.286,-52.246,-31.250,-39.062,-43.945
1683641420.290,-43.945,-20.996,-31.250,-36.621
1683641420.294,-38.086,-23.438,-39.062,-42.969
1683641420.297,-42.969,-29.297,-48.828,-54.199
1683641420.301,-54.688,-28.809,-45.898,-57.617
1683641420.305,-51.758,-27.344,-41.016,-44.922
1683641420.309,-48.828,-25.391,-36.621,-40.527
1683641420.313,-47.363,-23.438,-42.480,-42.969
1683641420.317,-41.504,-22.949,-48.828,-40.039
1683641420.321,-46.875,-27.832,-49.805,-44.922
1683641420.324,-49.805,-28.320,-37.598,-47.852
1683641420.328,-37.109,-22.461,-29.785,-42.480
1683641420.332,-33.691,-22.949,-33.203,-34.180
1683641420.336,-40.527,-26.367,-37.109,-37.598
1683641420.340,-45.410,-30.762,-44.434,-53.223
1683641420.297,-42.969,-29.297,-48.828,-54.199
1683641420.301,-54.688,-28.809,-45.898,-57.617
1683641420.305,-51.758,-27.344,-41.016,-44.922
1683641420.309,-48.828,-25.391,-36.621,-40.527
1683641420.313,-47.363,-23.438,-42.480,-42.969
1683641420.317,-41.504,-22.949,-48.828,-40.039
1683641420.321,-46.875,-27.832,-49.805,-44.922
1683641420.324,-49.805,-28.320,-37.598,-47.852
1683641420.328,-37.109,-22.461,-29.785,-42.480
1683641420.332,-33.691,-22.949,-33.203,-34.180
1683641420.336,-40.527,-26.367,-37.109,-37.598
1683641420.340,-45.410,-30.762,-44.434,-53.223
1683641420.356,-33.691,-27.344,-38.574,-48.340
1683641420.360,-18.555,-21.484,-26.367,-31.738
1683641420.364,-21.484,-16.113,-27.832,-22.949
1683641420.368,-30.273,-15.625,-34.668,-22.461
1683641420.372,-35.156,-18.555,-41.504,-33.203
1683641420.376,-33.203,-22.461,-37.109,-33.691
1683641420.380,-23.438,-13.184,-23.438,-20.996
1683641420.383,-25.391,-11.719,-23.926,-13.672
1683641420.387,-34.180,-24.414,-36.621,-21.484
1683641420.391,-46.875,-34.668,-18.066,-32.715
1683641420.395,-51.758,-38.574,-13.672,-30.273
1683641420.399,-40.527,-26.367,-24.414,-23.438
1683641420.401,-33.203,-20.996,-19.043,-20.020
1683641420.405,-41.992,-28.320,-26.855,-25.879
1683641420.409,-50.293,-32.227,-39.551,-40.039
1683641420.413,-51.270,-28.809,-38.086,-40.527
1683641420.417,-44.434,-23.926,-29.785,-38.574
1683641420.421,-36.621,-21.973,-24.902,-40.527
1683641420.425,-37.598,-20.020,-34.180,-41.016
1683641420.428,-45.410,-22.949,-46.387,-47.363
1683641420.432,-58.594,-39.551,-30.273,-59.082
1683641420.436,-47.363,-42.969,-7.812,-50.293
1683641420.440,-33.691,-32.227,-20.020,-32.227
1683641420.444,-49.316,-31.738,-36.133,-35.645
1683641420.446,-54.199,-35.645,-45.410,-44.434
1683641420.450,-51.758,-41.992,-42.480,-45.898
1683641420.454,-56.152,-40.527,-34.668,-44.922
1683641420.458,-51.270,-34.668,-33.691,-33.203
1683641420.462,-44.434,-36.133,-42.480,-27.832
1683641420.466,-43.945,-38.086,-56.152,-35.645
1683641420.470,-41.504,-33.691,-53.223,-38.086
1683641420.473,-37.109,-29.297,-41.016,-40.527
1683641420.477,-30.762,-25.879,-16.113,-37.109
1683641420.481,-42.480,-26.855,-24.902,-38.574
1683641420.485,-63.477,-41.504,-59.082,-52.246
1683641420.489,-74.219,-49.805,-61.523,-62.012
1683641420.491,-69.336,-46.875,-53.223,-58.105
1683641420.495,-54.199,-43.945,-44.434,-44.434
1683641420.499,-45.898,-30.762,-46.387,-42.480
1683641420.503,-51.758,-34.668,-53.223,-51.758
1683641420.507,-67.871,-47.363,-58.105,-59.570
1683641420.511,-71.777,-40.039,-51.270,-62.988
1683641420.515,-63.965,-29.297,-36.621,-55.664
1683641420.518,-57.617,-30.273,-39.062,-46.875
1683641420.522,-59.082,-34.668,-50.293,-47.852
1683641420.526,-67.871,-37.109,-50.293,-56.641
1683641420.530,-66.406,-36.133,-43.457,-58.594
1683641420.534,-50.781,-26.367,-29.297,-42.480
1683641420.536,-43.457,-25.391,-32.715,-36.133
1683641420.540,-50.781,-32.715,-48.828,-47.852
1683641420.544,-51.758,-35.156,-48.340,-48.828
1683641420.548,-41.016,-35.645,-36.133,-42.480
1683641420.552,-29.785,-28.809,-26.855,-32.715
1683641420.556,-20.996,-14.648,-21.484,-21.973
1683641420.560,-31.250,-13.184,-32.715,-26.855
1683641420.563,-39.551,-28.320,-16.602,-35.645
1683641420.567,-43.945,-38.086,-13.184,-39.062
1683641420.571,-46.875,-35.156,-30.273,-33.691
1683641420.575,-43.457,-31.738,-26.367,-32.227
1683641420.579,-44.434,-34.668,-38.086,-41.016
1683641420.581,-55.176,-40.039,-48.828,-49.316
1683641420.585,-60.059,-38.574,-40.039,-53.223
1683641420.589,-41.504,-34.668,-30.762,-46.875
1683641420.593,-31.250,-31.250,-31.738,-35.156
1683641420.597,-34.668,-28.809,-40.527,-32.227
1683641420.601,-40.039,-30.762,-50.781,-42.969
1683641420.605,-46.875,-37.598,-51.270,-57.617
1683641420.608,-42.480,-42.480,-43.457,-52.246
1683641420.612,-25.391,-38.574,-34.668,-33.203
1683641420.616,-30.273,-38.086,-34.180,-33.203
1683641420.620,-33.203,-37.598,-35.645,-42.969
1683641420.624,-30.273,-29.785,-34.180,-40.527
1683641420.626,-36.133,-28.809,-33.691,-41.992
1683641420.630,-26.367,-34.180,-21.973,-31.738
1683641420.634,-11.230,-31.738,-20.996,-15.625
1683641420.638,-26.367,-29.297,-37.109,-31.250
1683641420.642,-54.688,-34.180,-45.410,-51.758
1683641420.646,-44.434,-36.621,-40.527,-49.805
1683641420.650,-26.367,-32.715,-4.883,-43.945
1683641420.653,-25.391,-34.180,-11.719,-45.898
1683641420.657,-34.180,-38.086,-48.828,-55.664
1683641420.661,-45.410,-37.598,-50.781,-67.383
1683641420.665,-48.828,-36.621,-43.457,-68.359
1683641420.669,-42.480,-32.227,-36.621,-60.059
1683641420.671,-45.410,-31.250,-43.945,-55.176
1683641420.675,-50.781,-38.086,-51.270,-55.664
1683641420.679,-40.039,-42.480,-51.758,-60.059
1683641420.683,-40.039,-40.039,-49.316,-60.059
1683641420.687,-42.480,-33.691,-40.527,-45.898
1683641420.691,-31.738,-31.250,-30.273,-33.203
1683641420.695,-34.668,-29.785,-34.180,-36.621
1683641420.698,-40.527,-37.109,-50.781,-52.246
1683641420.702,-37.109,-46.875,-46.387,-53.711
1683641420.706,-19.531,-39.551,-42.480,-40.527
1683641420.710,-2.930,-29.297,-47.852,-34.668
1683641420.714,-4.883,-25.391,-52.246,-35.645
1683641420.671,-45.410,-31.250,-43.945,-55.176
1683641420.675,-50.781,-38.086,-51.270,-55.664
1683641420.679,-40.039,-42.480,-51.758,-60.059
1683641420.683,-40.039,-40.039,-49.316,-60.059
1683641420.687,-42.480,-33.691,-40.527,-45.898
1683641420.691,-31.738,-31.250,-30.273,-33.203
1683641420.695,-34.668,-29.785,-34.180,-36.621
1683641420.698,-40.527,-37.109,-50.781,-52.246
1683641420.702,-37.109,-46.875,-46.387,-53.711
1683641420.706,-19.531,-39.551,-42.480,-40.527
1683641420.710,-2.930,-29.297,-47.852,-34.668
1683641420.714,-4.883,-25.391,-52.246,-35.645
1683641420.731,-12.207,-29.785,-57.617,-42.480
1683641420.735,-8.301,-39.062,-41.504,-44.434
1683641420.739,-10.254,-37.109,-23.926,-48.828
1683641420.743,-17.090,-32.227,-26.855,-44.434
1683641420.747,-20.508,-39.062,-41.016,-36.133
1683641420.751,-32.227,-49.805,-47.363,-45.410
1683641420.755,-36.621,-49.316,-43.945,-45.898
1683641420.758,-22.949,-43.945,-40.527,-40.527
1683641420.762,-18.555,-36.133,-37.109,-41.016
1683641420.766,-34.668,-39.062,-38.574,-50.781
1683641420.770,-42.969,-44.434,-47.363,-58.105
1683641420.774,-43.945,-44.434,-50.293,-61.035
1683641420.776,-41.504,-44.434,-41.016,-61.035
1683641420.780,-32.227,-42.969,-38.086,-48.340
1683641420.784,-35.645,-42.969,-44.922,-45.410
1683641420.788,-42.480,-42.969,-53.223,-50.781
1683641420.792,-43.945,-48.828,-44.922,-50.293
1683641420.796,-41.992,-45.410,-34.668,-45.410
1683641420.800,-21.484,-35.645,-31.250,-32.227
1683641420.803,-22.461,-40.527,-42.969,-32.227
1683641420.807,-37.109,-51.270,-52.734,-47.852
1683641420.811,-44.922,-56.152,-44.922,-58.594
1683641420.815,-43.457,-46.387,-42.969,-59.082
1683641420.819,-29.785,-35.645,-33.691,-40.039
1683641420.821,-20.020,-37.109,-36.133,-24.902
1683641420.825,-22.461,-46.875,-49.805,-36.621
1683641420.829,-29.785,-53.223,-48.340,-35.645
1683641420.833,-22.949,-49.316,-35.645,-28.320
1683641420.837,-15.137,-38.574,-24.414,-28.809
1683641420.841,-17.090,-32.227,-24.902,-24.902
1683641420.845,-24.902,-36.133,-38.086,-33.691
1683641420.848,-26.855,-44.434,-46.875,-45.410
1683641420.852,-30.762,-53.223,-28.320,-44.434
1683641420.856,-32.715,-44.434,-18.066,-31.738
1683641420.860,-26.855,-34.668,-28.320,-25.391
1683641420.864,-34.180,-36.621,-34.668,-35.645
1683641420.866,-41.504,-41.016,-46.387,-50.293
1683641420.870,-45.898,-47.363,-45.898,-56.152
1683641420.874,-39.062,-39.551,-34.180,-43.457
1683641420.878,-31.250,-31.250,-27.832,-34.180
1683641420.882,-38.086,-38.086,-38.086,-39.062
1683641420.886,-49.316,-50.293,-48.828,-49.316
1683641420.890,-49.805,-42.969,-43.945,-44.922
1683641420.893,-39.062,-30.273,-17.578,-32.227
1683641420.897,-28.320,-33.203,-5.371,-26.855
1683641420.901,-36.621,-35.645,-33.203,-28.809
1683641420.905,-47.852,-35.645,-49.316,-38.086
1683641420.909,-47.852,-39.062,-46.387,-41.016
1683641420.911,-43.457,-35.156,-32.715,-40.527
1683641420.915,-38.086,-31.250,-28.809,-32.227
1683641420.919,-38.086,-31.250,-34.180,-30.762
1683641420.923,-44.434,-36.621,-36.133,-43.457
1683641420.927,-45.410,-40.039,-35.156,-45.410
1683641420.931,-35.645,-34.668,-25.879,-36.621
1683641420.935,-35.156,-28.320,-22.461,-34.180
1683641420.938,-42.480,-27.832,-0.977,-30.273
1683641420.942,-48.340,-32.715,-10.254,-30.273
1683641420.946,-63.965,-41.016,-42.969,-45.898
1683641420.950,-70.801,-41.016,-33.691,-47.363
1683641420.954,-62.500,-37.598,-29.297,-38.574
1683641420.956,-68.359,-41.016,-40.039,-46.875
1683641420.960,-75.195,-42.969,-51.270,-57.617
1683641420.964,-63.965,-39.062,-43.945,-50.781
1683641420.968,-65.430,-42.480,-33.691,-45.410
1683641420.972,-55.664,-39.062,-29.785,-37.598
1683641420.976,-52.734,-36.133,-39.062,-37.598
1683641420.980,-71.289,-41.992,-41.504,-51.758
1683641420.983,-72.266,-49.316,-32.227,-50.781
1683641420.987,-62.988,-50.781,-33.203,-41.504
1683641420.991,-54.199,-39.062,-30.762,-35.645
1683641420.995,-51.758,-34.668,-35.156,-32.715
1683641420.999,-62.500,-44.434,-41.016,-33.203
1683641421.001,-59.570,-45.410,-40.527,-37.598
1683641421.005,-53.223,-47.363,-31.250,-43.945
1683641421.009,-47.852,-41.504,-21.973,-39.062
1683641421.013,-40.527,-36.621,-29.785,-33.203
1683641421.017,-49.805,-48.340,-43.457,-41.504
1683641421.021,-54.688,-48.340,-44.922,-47.363
1683641421.025,-47.363,-41.992,-35.645,-44.434
1683641421.028,-36.133,-40.527,-32.715,-36.133
1683641421.032,-26.367,-41.504,-35.156,-32.715
1683641421.036,-36.133,-48.340,-42.969,-41.992
1683641421.040,-48.340,-50.781,-44.434,-48.828
1683641421.044,-48.340,-47.852,-38.086,-49.805
1683641421.046,-46.387,-49.805,-28.809,-41.504
1683641421.050,-43.457,-52.734,-28.320,-41.016
1683641421.054,-50.293,-57.617,-41.504,-50.293
1683641421.058,-60.547,-57.617,-48.828,-53.711
1683641421.062,-66.406,-55.176,-48.340,-55.664
1683641421.066,-58.105,-49.805,-37.109,-51.758
1683641421.070,-42.480,-43.457,-38.086,-41.016
1683641421.073,-34.668,-46.387,-50.293,-37.598
1683641421.077,-40.039,-49.805,-53.223,-45.410
1683641421.081,-42.969,-46.387,-43.945,-42.480
1683641421.085,-36.133,-38.574,-31.250,-35.645
1683641421.089,-20.020,-35.645,-26.367,-31.738
1683641421.106,-20.020,-36.133,-35.156,-31.738
1683641421.110,-36.621,-33.203,-41.992,-37.109
1683641421.114,-47.363,-39.062,-45.898,-49.805
1683641421.118,-42.480,-43.945,-41.992,-48.340
1683641421.122,-31.250,-33.691,-33.203,-33.691
1683641421.126,-33.691,-29.785,-31.250,-32.227
1683641421.130,-44.922,-33.691,-36.133,-48.828
1683641421.133,-57.617,-37.109,-39.062,-62.500
1683641421.137,-56.152,-40.527,-33.203,-51.758
1683641421.141,-50.781,-40.527,-23.926,-47.363
1683641421.145,-51.758,-33.203,-30.762,-42.969
1683641421.149,-50.781,-34.668,-49.316,-39.062
1683641421.151,-47.363,-43.457,-45.410,-39.062
1683641421.155,-43.945,-36.133,-29.297,-33.691
1683641421.159,-39.062,-23.438,-26.367,-29.785
1683641421.163,-41.016,-29.297,-36.133,-32.227
1683641421.167,-49.316,-38.086,-42.480,-42.480
1683641421.171,-56.641,-40.039,-41.016,-48.340
1683641421.175,-53.711,-36.133,-33.203,-43.945
1683641421.178,-45.898,-37.109,-28.320,-36.133
1683641421.182,-38.574,-39.551,-20.996,-27.832
1683641421.186,-44.434,-40.039,-23.926,-35.156
1683641421.190,-54.688,-41.504,-44.434,-46.387
1683641421.194,-49.316,-40.039,-40.527,-41.016
1683641421.196,-50.293,-43.945,-30.762,-38.574
1683641421.200,-43.945,-38.086,-28.809,-30.762
1683641421.204,-39.062,-37.598,-37.109,-24.414
1683641421.208,-50.293,-45.410,-46.875,-33.203
1683641421.212,-49.316,-46.875,-43.457,-40.039
1683641421.216,-44.434,-44.922,-35.156,-38.574
1683641421.220,-39.551,-38.574,-28.320,-29.297
1683641421.223,-45.898,-44.922,-36.133,-36.621
1683641421.227,-49.316,-57.617,-33.691,-47.363
1683641421.231,-47.852,-62.500,-25.879,-53.223
1683641421.235,-43.457,-56.152,-25.879,-46.875
1683641421.239,-30.762,-47.363,-25.391,-35.156
1683641421.241,-41.504,-51.270,-36.621,-41.504
1683641421.245,-54.199,-61.035,-51.270,-48.828
1683641421.249,-44.434,-59.570,-48.340,-44.922
1683641421.253,-33.203,-45.410,-29.785,-36.621
1683641421.257,-32.227,-39.551,-21.484,-30.762
1683641421.261,-27.832,-39.062,-21.973,-25.879
1683641421.265,-44.434,-42.969,-38.574,-41.016
1683641421.268,-61.523,-49.805,-25.391,-54.199
1683641421.272,-49.316,-54.199,8.301,-47.363
1683641421.276,-40.039,-49.316,-17.578,-39.062
1683641421.280,-41.992,-44.922,-36.621,-37.598
1683641421.284,-53.711,-49.805,-42.969,-48.340
1683641421.286,-58.105,-63.477,-43.945,-48.828
1683641421.290,-55.664,-66.406,-33.203,-43.457
1683641421.294,-50.781,-60.059,-28.320,-47.363
1683641421.298,-40.527,-62.500,-32.227,-45.410
1683641421.302,-46.387,-64.941,-40.527,-47.363
1683641421.306,-56.641,-66.895,-46.387,-52.734
1683641421.310,-48.340,-51.758,-39.551,-42.480
1683641421.313,-36.133,-46.875,-22.461,-39.551
1683641421.317,-41.016,-58.594,-37.109,-41.504
1683641421.321,-57.129,-67.871,-63.477,-47.363
1683641421.325,-59.082,-72.266,-60.059,-53.711
1683641421.329,-52.246,-74.219,-42.969,-42.969
1683641421.331,-47.363,-67.383,-33.203,-29.785
1683641421.335,-38.574,-52.246,-36.621,-33.691
1683641421.339,-35.156,-49.805,-48.828,-45.898
1683641421.343,-41.992,-50.781,-57.129,-53.711
1683641421.347,-51.270,-54.199,-46.387,-56.152
1683641421.351,-47.852,-54.199,-35.156,-41.992
1683641421.355,-45.410,-58.105,-16.602,-41.992
1683641421.358,-51.758,-62.500,-0.488,-52.734
1683641421.362,-62.988,-57.129,-38.574,-57.617
1683641421.366,-66.895,-58.594,-49.316,-57.129
1683641421.370,-61.035,-60.059,-30.762,-52.246
1683641421.374,-55.664,-52.734,-30.273,-51.270
1683641421.376,-52.246,-53.711,-44.922,-52.734
1683641421.380,-59.570,-57.129,-47.363,-52.734
1683641421.384,-64.453,-56.641,-42.969,-60.059
1683641421.388,-46.387,-47.363,-37.598,-48.340
1683641421.392,-42.969,-44.434,-36.133,-43.457
1683641421.396,-62.012,-44.434,-43.457,-65.918
1683641421.400,-61.523,-48.828,-19.531,-66.406
1683641421.403,-45.410,-53.711,-13.672,-58.105
1683641421.407,-30.273,-42.480,-32.227,-48.828
1683641421.411,-20.996,-34.668,-26.855,-39.062
1683641421.415,-28.320,-31.250,-33.203,-49.316
1683641421.419,-46.387,-50.781,-43.945,-63.965
1683641421.421,-50.293,-77.148,-46.387,-60.547
1683641421.425,-43.945,-74.219,-34.180,-50.781
1683641421.429,-49.316,-74.219,-25.391,-49.316
1683641421.433,-66.895,-82.031,-34.180,-57.129
1683641421.437,-67.871,-80.566,-48.340,-64.453
1683641421.441,-59.570,-78.125,-38.086,-67.871
1683641421.445,-59.570,-80.566,-19.043,-71.289
1683641421.448,-55.176,-84.961,-35.156,-67.871
1683641421.452,-51.270,-96.191,-47.852,-60.547
1683641421.456,-54.688,-115.234,-43.457,-66.406
1683641421.460,-59.082,-120.117,-45.410,-68.848
1683641421.464,-53.223,-115.723,-45.410,-57.129
1683641421.481,-42.969,-109.863,-29.785,-49.805
1683641421.485,-48.828,-108.398,-32.227,-56.152
1683641421.489,-65.918,-114.746,-47.363,-63.965
1683641421.493,-73.730,-104.980,-49.316,-70.312
1683641421.497,-61.035,-75.684,-41.016,-63.965
1683641421.501,-48.340,-56.641,-24.414,-48.828
1683641421.505,-48.340,-41.016,-19.043,-44.922
1683641421.508,-53.711,-38.574,-39.551,-51.758
1683641421.512,-56.152,-47.852,-51.270,-63.477
1683641421.516,-57.617,-49.316,-41.016,-63.477
1683641421.520,-52.734,-40.039,-32.227,-51.270
1683641421.524,-46.387,-25.879,-27.832,-46.875
1683641421.526,-60.059,-33.203,-33.203,-57.129
1683641421.530,-63.965,-43.945,-44.922,-63.965
1683641421.534,-52.246,-34.668,-40.039,-58.594
1683641421.538,-45.898,-25.879,-26.367,-49.805
1683641421.542,-42.480,-26.855,-20.996,-43.457
1683641421.546,-45.898,-33.691,-26.855,-46.875
1683641421.550,-55.664,-40.039,-36.621,-54.199
1683641421.553,-50.781,-40.527,-33.691,-48.828
1683641421.557,-44.434,-40.039,-23.438,-40.039
1683641421.561,-41.992,-41.504,-22.461,-39.551
1683641421.565,-40.527,-36.133,-30.762,-35.156
1683641421.569,-45.410,-37.598,-34.668,-44.434
1683641421.571,-56.152,-43.945,-33.691,-53.711
1683641421.575,-62.500,-39.062,-29.297,-47.852
1683641421.579,-48.828,-36.133,-16.602,-40.039
1683641421.583,-41.992,-41.504,-22.461,-41.016
1683641421.587,-42.969,-47.852,-35.645,-45.410
1683641421.591,-47.363,-65.430,-31.250,-48.340
1683641421.595,-41.992,-80.566,-20.508,-39.062
1683641421.598,-27.344,-96.191,-23.438,-23.438
1683641421.602,-17.578,-119.141,-11.719,-19.531
1683641421.606,-23.926,-145.996,-14.648,-24.902
1683641421.610,-34.180,-162.598,-35.645,-28.809
1683641421.614,-15.137,-150.391,-26.855,-20.508
1683641421.616,-1.465,-134.277,-23.438,-14.648
1683641421.620,-17.578,-137.695,-33.691,-20.508
1683641421.624,-26.855,-141.602,-39.551,-24.902
1683641421.628,-27.832,-151.855,-39.551,-24.902
1683641421.632,-38.574,-153.809,-32.227,-23.926
1683641421.636,-41.992,-145.996,-24.414,-25.391
1683641421.640,-34.668,-147.949,-29.297,-21.973
1683641421.643,-39.062,-143.066,-38.086,-23.926
1683641421.647,-43.457,-132.812,-39.062,-34.668
1683641421.651,-38.574,-138.672,-34.668,-33.691
1683641421.655,-32.715,-136.230,-24.902,-19.043
1683641421.659,-33.203,-112.305,-28.320,-16.113
1683641421.661,-42.480,-106.445,-42.480,-26.367
1683641421.665,-47.852,-109.375,-44.922,-28.320
1683641421.669,-46.875,-88.867,-36.621,-22.949
1683641421.673,-36.133,-65.430,-21.973,-13.672
1683641421.677,-20.996,-54.688,-19.043,-3.418
1683641421.681,-27.344,-48.340,-34.180,-6.836
1683641421.685,-37.598,-50.781,-43.945,-23.438
1683641421.688,-42.480,-61.035,-26.367,-28.320
1683641421.692,-36.133,-68.359,-16.602,-14.160
1683641421.696,-25.879,-68.848,-30.762,-19.531
1683641421.700,-31.250,-68.359,-42.969,-33.691
1683641421.704,-35.645,-71.289,-47.852,-38.574
1683641421.706,-33.691,-76.172,-39.551,-38.086
1683641421.710,-24.902,-75.195,-31.250,-28.809
1683641421.714,-12.695,-72.266,-28.320,-24.902
1683641421.718,-14.648,-72.266,-38.086,-27.344
1683641421.722,-26.855,-68.848,-41.504,-32.227
1683641421.726,-33.203,-66.895,-40.527,-37.598
1683641421.730,-25.879,-62.500,-27.344,-24.414
1683641421.733,-12.695,-58.594,-11.230,-6.836
1683641421.737,-20.020,-67.383,-34.668,-17.578
1683641421.741,-31.250,-74.219,-53.223,-31.738
1683641421.745,-34.180,-74.219,-46.875,-37.598
1683641421.749,-36.621,-70.801,-38.086,-42.480
1683641421.751,-29.297,-62.500,-36.621,-32.227
1683641421.755,-27.344,-70.801,-42.969,-23.438
1683641421.759,-34.668,-93.262,-52.246,-26.855
1683641421.763,-41.016,-107.910,-46.387,-31.738
1683641421.767,-37.109,-114.746,-30.762,-31.250
1683641421.771,-31.738,-117.676,-32.715,-22.461
1683641421.775,-20.020,-115.723,-10.742,-15.625
1683641421.778,-24.902,-119.629,-17.578,-25.879
1683641421.782,-40.527,-126.465,-52.246,-35.645
1683641421.786,-37.598,-119.141,-43.457,-26.367
1683641421.790,-28.320,-113.770,-33.203,-15.137
1683641421.794,-33.203,-114.746,-40.039,-21.484
1683641421.796,-41.504,-113.770,-49.316,-29.785
1683641421.800,-47.363,-118.164,-56.641,-40.527
1683641421.804,-48.828,-119.141,-51.270,-39.551
1683641421.808,-32.227,-104.492,-38.574,-20.996
1683641421.812,-22.461,-82.520,-46.387,-14.160
1683641421.816,-29.297,-87.891,-49.316,-20.020
1683641421.820,-38.086,-101.562,-42.969,-27.344
1683641421.823,-38.086,-103.516,-46.875,-29.297
1683641421.827,-25.391,-102.051,-36.621,-19.531
1683641421.831,-11.719,-97.168,-33.691,-11.719
1683641421.835,-19.043,-104.980,-50.293,-21.484
1683641421.839,-34.668,-122.559,-51.758,-36.621
1683641421.856,-35.645,-131.836,-42.969,-39.551
1683641421.860,-30.273,-120.605,-35.645,-33.691
1683641421.864,-28.320,-96.680,-37.109,-27.832
1683641421.868,-29.785,-92.773,-45.410,-31.738
1683641421.872,-44.922,-92.773,-50.781,-40.527
1683641421.876,-51.270,-74.707,-40.039,-37.598
1683641421.880,-33.691,-57.617,-26.367,-25.879
1683641421.883,-22.949,-70.801,-30.762,-24.902
1683641421.887,-28.320,-90.820,-40.039,-27.344
1683641421.891,-53.223,-108.398,-47.363,-40.527
1683641421.895,-55.664,-112.793,-43.457,-44.434
1683641421.899,-33.691,-91.309,-29.297,-25.879
