timestamps,TP9,AF7,AF8,TP10
1683643923.117,-17.578,-20.020,-11.719,-28.809
1683643923.121,-40.527,-30.273,-21.484,-41.504
1683643923.125,-52.734,-45.898,-47.363,-41.016
1683643923.129,-43.457,-47.852,-40.039,-36.621
1683643923.133,-41.504,-45.898,-23.438,-40.039
1683643923.137,-36.133,-41.504,-12.695,-40.039
1683643923.141,-29.297,-27.832,-25.391,-37.109
1683643923.144,-25.879,-29.297,-33.691,-33.203
1683643923.148,-26.367,-38.086,-22.461,-34.668
1683643923.152,-27.344,-38.086,-25.879,-30.273
1683643923.156,-28.809,-31.250,-30.762,-28.320
1683643923.160,-31.738,-33.203,-20.020,-33.203
1683643923.177,-31.738,-28.809,-17.578,-35.645
1683643923.181,-36.621,-26.855,-20.996,-41.016
1683643923.185,-35.645,-22.949,-25.391,-39.551
1683643923.189,-25.391,-24.414,-18.555,-22.461
1683643923.193,-32.715,-37.109,-20.508,-26.855
1683643923.197,-39.551,-47.363,-24.902,-42.480
1683643923.201,-30.273,-45.410,-35.156,-33.691
1683643923.204,-32.715,-35.156,-55.176,-33.691
1683643923.208,-34.668,-20.996,-26.855,-38.086
1683643923.212,-29.297,-11.230,-1.465,-38.574
1683643923.216,-42.480,-18.066,-28.320,-43.945
1683643923.220,-49.805,-34.668,-38.574,-41.992
1683643923.177,-31.738,-28.809,-17.578,-35.645
1683643923.181,-36.621,-26.855,-20.996,-41.016
1683643923.185,-35.645,-22.949,-25.391,-39.551
1683643923.189,-25.391,-24.414,-18.555,-22.461
1683643923.193,-32.715,-37.109,-20.508,-26.855
1683643923.197,-39.551,-47.363,-24.902,-42.480
1683643923.201,-30.273,-45.410,-35.156,-33.691
1683643923.204,-32.715,-35.156,-55.176,-33.691
1683643923.208,-34.668,-20.996,-26.855,-38.086
1683643923.212,-29.297,-11.230,-1.465,-38.574
1683643923.216,-42.480,-18.066,-28.320,-43.945
1683643923.220,-49.805,-34.668,-38.574,-41.992
1683643923.222,-32.227,-35.156,-25.879,-27.832
1683643923.226,-28.809,-24.902,-18.555,-20.996
1683643923.230,-29.785,-22.949,-35.156,-23.926
1683643923.234,-18.555,-27.832,-41.016,-26.367
1683643923.238,-26.367,-37.598,-26.855,-28.809
1683643923.242,-36.133,-48.828,-24.414,-28.320
1683643923.246,-36.621,-36.621,-24.414,-39.062
1683643923.249,-29.297,-3.906,-23.926,-40.527
1683643923.253,-28.320,-17.578,-36.621,-43.945
1683643923.257,-38.574,-39.062,-36.133,-46.875
1683643923.261,-35.156,-27.832,-19.531,-34.180
1683643923.265,-31.250,-37.598,-25.879,-33.691
1683643923.222,-32.227,-35.156,-25.879,-27.832
1683643923.226,-28.809,-24.902,-18.555,-20.996
1683643923.230,-29.785,-22.949,-35.156,-23.926
1683643923.234,-18.555,-27.832,-41.016,-26.367
1683643923.238,-26.367,-37.598,-26.855,-28.809
1683643923.242,-36.133,-48.828,-24.414,-28.320
1683643923.246,-36.621,-36.621,-24.414,-39.062
1683643923.249,-29.297,-3.906,-23.926,-40.527
1683643923.253,-28.320,-17.578,-36.621,-43.945
1683643923.257,-38.574,-39.062,-36.133,-46.875
1683643923.261,-35.156,-27.832,-19.531,-34.180
1683643923.265,-31.250,-37.598,-25.879,-33.691
1683643923.267,-17.090,-36.133,-17.090,-23.926
1683643923.271,-7.812,-17.578,-15.137,-13.184
1683643923.275,-29.785,-29.297,-39.551,-27.344
1683643923.279,-42.480,-24.902,-34.668,-34.180
1683643923.283,-44.922,-19.043,-23.438,-32.715
1683643923.287,-35.156,-40.527,-31.250,-23.926
1683643923.291,-23.926,-45.898,-39.062,-24.414
1683643923.294,-35.156,-41.504,-32.227,-32.227
1683643923.298,-35.645,-31.250,-22.949,-28.320
1683643923.302,-33.203,-19.531,-24.902,-31.738
1683643923.306,-36.621,-20.020,-30.762,-32.227
1683643923.310,-30.273,-18.066,-27.832,-32.227
1683643923.312,-35.156,-16.602,-24.902,-37.109
1683643923.316,-37.109,-19.531,-35.645,-25.391
1683643923.320,-31.250,-50.781,-28.809,-22.949
1683643923.324,-20.508,-48.828,-25.879,-22.461
1683643923.328,-18.555,-18.066,-26.367,-21.484
1683643923.332,-16.602,-11.230,-9.277,-10.742
1683643923.336,-22.949,-20.020,-15.625,-20.996
1683643923.339,-38.574,-37.598,-38.086,-36.621
1683643923.343,-35.156,-39.551,-42.969,-30.273
1683643923.347,-30.762,-22.949,-39.551,-32.227
1683643923.351,-33.203,-25.391,-27.344,-28.809
1683643923.355,-31.250,-42.480,-18.555,-23.438
1683643923.357,-28.809,-34.668,-23.926,-21.973
1683643923.361,-27.344,-23.438,-26.367,-22.949
1683643923.365,-29.297,-27.832,-29.297,-27.832
1683643923.369,-41.016,-19.043,-38.574,-34.668
1683643923.373,-40.039,-10.254,-37.598,-30.762
1683643923.377,-34.180,-22.949,-19.531,-29.297
1683643923.381,-29.785,-30.273,-18.555,-34.668
1683643923.384,-25.879,-37.598,-30.273,-36.133
1683643923.388,-29.785,-39.551,-35.645,-37.598
1683643923.392,-20.020,-35.156,-32.227,-28.809
1683643923.396,-27.832,-34.180,-28.809,-38.086
1683643923.400,-41.504,-27.832,-29.785,-55.664
1683643923.402,-39.062,-27.832,-29.297,-48.828
1683643923.406,-36.133,-32.227,-21.973,-41.504
1683643923.410,-41.016,-35.645,-23.438,-47.852
1683643923.414,-47.363,-32.715,-21.973,-43.457
1683643923.418,-47.363,-46.875,-16.113,-25.879
1683643923.422,-43.945,-59.570,-28.809,-25.391
1683643923.426,-32.227,-27.344,-26.855,-20.020
1683643923.429,-51.270,-12.207,-24.414,-31.250
1683643923.433,-65.430,-20.020,-40.527,-40.527
1683643923.437,-52.246,-35.156,-36.621,-34.180
1683643923.441,-60.059,-53.711,-28.809,-41.016
1683643923.445,-59.570,-54.688,-30.762,-38.574
1683643923.447,-45.898,-38.086,-35.156,-33.691
1683643923.451,-46.387,-23.926,-41.992,-37.598
1683643923.455,-41.992,-29.785,-35.645,-32.227
1683643923.459,-35.156,-37.598,-29.785,-38.574
1683643923.463,-40.527,-14.160,-29.297,-56.152
1683643923.467,-43.945,-2.441,-27.832,-55.176
1683643923.471,-43.457,-25.391,-27.832,-42.480
1683643923.474,-42.969,-31.738,-22.461,-39.551
1683643923.478,-35.645,-23.926,-29.297,-38.086
1683643923.482,-27.344,-34.180,-33.203,-28.809
1683643923.486,-31.738,-38.086,-22.461,-28.320
1683643923.490,-35.156,-42.969,-20.020,-31.738
1683643923.492,-25.391,-15.137,-10.254,-19.043
1683643923.496,-25.391,-1.953,-19.043,-18.555
1683643923.500,-35.156,-24.414,-25.879,-37.109
1683643923.504,-34.180,-23.926,-14.160,-40.039
1683643923.508,-32.715,-18.066,-21.973,-31.250
1683643923.512,-30.762,-19.531,-26.855,-27.344
1683643923.516,-26.367,-22.949,-8.789,-25.879
1683643923.519,-16.602,-21.973,-8.789,-20.508
1683643923.523,-11.719,-32.227,-31.738,-23.926
1683643923.527,-24.902,-38.086,-31.738,-27.832
1683643923.531,-33.203,-34.180,-23.438,-25.391
1683643923.535,-33.691,-39.551,-23.926,-29.785
1683643923.552,-24.414,-34.180,-21.973,-19.531
1683643923.556,-22.949,-12.695,-20.508,-19.531
1683643923.560,-39.062,-8.789,-31.250,-41.992
1683643923.564,-27.344,-14.160,-17.578,-35.645
1683643923.568,-23.438,-12.695,-13.672,-33.691
1683643923.572,-30.273,-12.207,-37.598,-40.039
1683643923.576,-25.879,-30.273,-43.457,-36.621
1683643923.579,-18.066,-49.316,-38.574,-32.715
1683643923.583,-19.043,-56.641,-34.180,-32.227
1683643923.587,-25.879,-45.898,-23.926,-34.668
1683643923.591,-12.695,-19.531,-18.066,-22.949
1683643923.595,-16.602,-12.695,-29.785,-20.996
1683643923.597,-22.949,-21.973,-21.484,-26.855
1683643923.601,-22.949,-21.973,-16.113,-27.344
1683643923.605,-19.043,-26.855,-6.348,-21.484
1683643923.609,-6.836,-32.715,-8.789,-12.695
1683643923.613,-20.020,-38.574,-29.297,-20.996
1683643923.617,-31.250,-47.852,-39.062,-33.203
1683643923.621,-31.738,-60.059,-41.016,-28.809
1683643923.624,-25.391,-34.668,-28.809,-21.484
1683643923.628,-36.621,-21.973,-39.062,-37.598
1683643923.632,-37.598,-32.715,-36.133,-42.480
1683643923.636,-26.367,-14.648,-20.508,-32.227
1683643923.640,-27.832,-12.695,-22.949,-31.738
1683643923.642,-29.785,-20.508,-28.809,-32.227
1683643923.646,-27.344,-27.832,-29.297,-30.762
1683643923.650,-20.508,-24.414,-25.391,-29.297
1683643923.654,-13.672,-13.672,-28.809,-20.996
1683643923.658,-19.043,-32.227,-28.809,-17.090
1683643923.662,-31.738,-46.875,-32.227,-28.320
1683643923.666,-27.344,-28.809,-35.645,-26.855
1683643923.669,-23.926,-25.391,-35.645,-22.461
1683643923.673,-17.578,-38.086,-39.551,-14.160
1683643923.677,-19.043,-45.898,-23.438,-9.277
1683643923.681,-33.203,-23.438,-26.855,-26.855
1683643923.685,-27.344,-12.207,-41.992,-36.621
1683643923.642,-29.785,-20.508,-28.809,-32.227
1683643923.646,-27.344,-27.832,-29.297,-30.762
1683643923.650,-20.508,-24.414,-25.391,-29.297
1683643923.654,-13.672,-13.672,-28.809,-20.996
1683643923.658,-19.043,-32.227,-28.809,-17.090
1683643923.662,-31.738,-46.875,-32.227,-28.320
1683643923.666,-27.344,-28.809,-35.645,-26.855
1683643923.669,-23.926,-25.391,-35.645,-22.461
1683643923.673,-17.578,-38.086,-39.551,-14.160
1683643923.677,-19.043,-45.898,-23.438,-9.277
1683643923.681,-33.203,-23.438,-26.855,-26.855
1683643923.685,-27.344,-12.207,-41.992,-36.621
1683643923.687,-27.832,-26.855,-28.320,-37.598
1683643923.691,-31.738,-39.062,-32.715,-42.969
1683643923.695,-23.926,-27.344,-31.738,-29.785
1683643923.699,-26.367,-22.461,-28.320,-31.250
1683643923.703,-31.738,-28.320,-34.180,-38.574
1683643923.707,-24.414,-29.297,-34.668,-32.227
1683643923.711,-29.297,-54.688,-38.086,-31.250
1683643923.714,-38.086,-44.434,-33.203,-30.273
1683643923.718,-32.227,-16.602,-25.391,-19.043
1683643923.722,-31.250,-28.809,-22.461,-14.160
1683643923.726,-25.879,-32.715,-26.367,-11.230
1683643923.730,-32.227,-21.973,-22.461,-13.672
1683643923.732,-39.551,-38.086,-6.348,-20.508
1683643923.736,-31.738,-40.527,-9.766,-25.391
1683643923.740,-27.832,-29.785,-17.578,-22.461
1683643923.744,-23.438,-29.297,-15.137,-10.742
1683643923.748,-18.555,-21.973,-24.414,-19.531
1683643923.752,-20.996,-28.320,-31.250,-28.320
1683643923.756,-39.062,-43.457,-44.434,-37.109
1683643923.759,-36.621,-42.969,-34.668,-40.527
1683643923.763,-20.508,-36.621,-6.836,-31.250
1683643923.767,-19.531,-42.480,-12.207,-29.297
1683643923.771,-23.926,-43.945,-20.508,-24.902
1683643923.775,-26.367,-34.668,-15.625,-24.414
1683643923.777,-20.508,-25.391,-18.555,-27.832
1683643923.781,-11.230,-23.438,-36.133,-27.344
1683643923.785,-11.230,-30.273,-30.273,-36.133
1683643923.789,-19.531,-29.297,-18.555,-41.016
1683643923.793,-22.461,-15.625,-18.555,-35.645
1683643923.797,-31.738,-17.090,-15.625,-38.086
1683643923.801,-31.738,-27.832,-18.066,-36.133
1683643923.804,-22.949,-30.273,-15.625,-23.926
1683643923.808,-41.992,-55.176,-35.156,-35.645
1683643923.812,-39.551,-63.477,-43.945,-39.062
1683643923.816,-27.344,-33.203,-32.227,-32.715
1683643923.820,-37.109,-30.762,-25.879,-34.668
1683643923.777,-20.508,-25.391,-18.555,-27.832
1683643923.781,-11.230,-23.438,-36.133,-27.344
1683643923.785,-11.230,-30.273,-30.273,-36.133
1683643923.789,-19.531,-29.297,-18.555,-41.016
1683643923.793,-22.461,-15.625,-18.555,-35.645
1683643923.797,-31.738,-17.090,-15.625,-38.086
1683643923.801,-31.738,-27.832,-18.066,-36.133
1683643923.804,-22.949,-30.273,-15.625,-23.926
1683643923.808,-41.992,-55.176,-35.156,-35.645
1683643923.812,-39.551,-63.477,-43.945,-39.062
1683643923.816,-27.344,-33.203,-32.227,-32.715
1683643923.820,-37.109,-30.762,-25.879,-34.668
1683643923.822,-35.645,-34.668,-28.809,-36.133
1683643923.826,-31.250,-34.668,-45.898,-33.691
1683643923.830,-40.039,-30.273,-49.316,-35.156
1683643923.834,-46.875,-27.832,-27.832,-35.645
1683643923.838,-42.969,-30.762,-14.160,-29.785
1683643923.842,-34.180,-31.738,-21.973,-27.832
1683643923.846,-31.738,-32.227,-30.762,-29.785
1683643923.849,-30.273,-36.133,-35.645,-25.391
1683643923.853,-20.020,-26.855,-20.996,-13.672
1683643923.857,-26.367,-35.645,-19.531,-17.578
1683643923.861,-31.250,-63.477,-29.297,-25.879
1683643923.865,-33.203,-41.504,-28.809,-23.438
1683643923.867,-29.785,-20.508,-41.992,-24.902
1683643923.871,-23.438,-26.855,-38.574,-23.926
1683643923.875,-25.391,-27.832,-36.621,-21.484
1683643923.879,-33.691,-46.387,-52.734,-33.691
1683643923.883,-39.062,-49.316,-44.922,-41.992
1683643923.887,-33.691,-26.855,-22.461,-33.203
1683643923.891,-37.109,-16.602,-29.785,-31.738
1683643923.894,-35.645,-21.973,-36.133,-28.809
1683643923.898,-25.879,-32.715,-22.461,-22.461
1683643923.902,-29.785,-56.641,-33.691,-33.203
1683643923.906,-37.109,-47.363,-43.457,-39.551
1683643923.910,-37.109,-22.949,-31.250,-40.527
1683643923.927,-33.203,-19.531,-20.508,-42.480
1683643923.931,-19.531,-19.043,-15.137,-31.738
1683643923.935,-23.438,-30.762,-23.438,-37.598
1683643923.939,-31.738,-33.691,-27.832,-40.039
1683643923.943,-27.344,-22.949,-31.250,-28.809
1683643923.947,-36.621,-39.551,-34.668,-35.645
1683643923.951,-46.387,-48.828,-40.527,-44.434
1683643923.954,-35.156,-26.367,-30.273,-33.203
1683643923.958,-38.086,-34.668,-27.832,-28.320
1683643923.962,-48.828,-43.457,-35.156,-33.691
1683643923.966,-41.992,-32.227,-15.137,-31.738
1683643923.970,-48.340,-35.645,-24.902,-36.133
1683643923.927,-33.203,-19.531,-20.508,-42.480
1683643923.931,-19.531,-19.043,-15.137,-31.738
1683643923.935,-23.438,-30.762,-23.438,-37.598
1683643923.939,-31.738,-33.691,-27.832,-40.039
1683643923.943,-27.344,-22.949,-31.250,-28.809
1683643923.947,-36.621,-39.551,-34.668,-35.645
1683643923.951,-46.387,-48.828,-40.527,-44.434
1683643923.954,-35.156,-26.367,-30.273,-33.203
1683643923.958,-38.086,-34.668,-27.832,-28.320
1683643923.962,-48.828,-43.457,-35.156,-33.691
1683643923.966,-41.992,-32.227,-15.137,-31.738
1683643923.970,-48.340,-35.645,-24.902,-36.133
1683643923.972,-53.223,-51.758,-42.969,-42.969
1683643923.976,-55.664,-46.387,-37.109,-41.992
1683643923.980,-50.293,-34.180,-28.809,-31.250
1683643923.984,-47.363,-27.832,-14.648,-28.809
1683643923.988,-49.316,-15.625,-15.625,-26.855
1683643923.992,-39.062,-15.625,-15.625,-19.531
1683643923.996,-57.617,-44.434,-35.156,-36.621
1683643923.999,-65.430,-63.965,-46.387,-44.922
1683643924.003,-56.152,-41.016,-33.691,-39.062
1683643924.007,-57.617,-25.879,-22.461,-37.598
1683643924.011,-53.223,-36.621,-28.320,-37.109
1683643924.015,-56.152,-56.641,-43.945,-35.645
1683643924.017,-55.664,-56.641,-36.621,-35.156
1683643924.021,-44.434,-42.969,-15.625,-34.180
1683643924.025,-42.969,-36.621,-17.090,-31.250
1683643924.029,-48.340,-31.250,-26.367,-29.297
1683643924.033,-54.688,-34.668,-29.785,-32.227
1683643924.037,-50.293,-50.781,-30.273,-23.926
1683643924.041,-44.434,-18.555,-29.785,-17.578
1683643924.044,-56.152,-11.230,-37.109,-32.227
1683643924.048,-59.082,-53.223,-35.645,-41.016
1683643924.052,-47.363,-56.152,-32.715,-38.574
1683643924.056,-40.527,-46.875,-44.434,-32.227
1683643924.060,-40.527,-41.016,-38.574,-22.949
1683643924.062,-40.039,-26.367,-20.508,-24.414
1683643924.066,-35.645,-27.832,-20.508,-30.273
1683643924.070,-36.133,-30.762,-24.414,-37.109
1683643924.074,-41.016,-22.949,-32.715,-37.598
1683643924.078,-39.551,-13.672,-44.922,-29.297
1683643924.082,-41.504,-26.367,-45.410,-27.344
1683643924.086,-44.922,-43.945,-30.273,-37.109
1683643924.089,-43.457,-51.270,-29.785,-43.457
1683643924.093,-43.457,-49.316,-36.621,-36.621
1683643924.097,-41.504,-42.480,-29.297,-30.762
1683643924.101,-29.785,-14.160,-15.137,-23.926
1683643924.105,-31.250,-11.719,-17.090,-27.832
1683643924.107,-38.086,-34.668,-36.133,-32.715
1683643924.111,-37.598,-37.109,-34.180,-31.738
1683643924.115,-44.922,-41.992,-25.391,-38.086
1683643924.119,-45.898,-56.152,-34.180,-43.945
1683643924.123,-45.898,-44.434,-23.438,-47.852
1683643924.127,-52.246,-22.949,-19.043,-45.410
1683643924.131,-59.082,-25.391,-41.016,-47.852
1683643924.134,-57.129,-44.922,-38.086,-47.363
1683643924.138,-50.293,-43.457,-22.949,-40.527
1683643924.142,-42.480,-18.066,-33.203,-38.086
1683643924.146,-40.039,-20.996,-46.875,-35.156
1683643924.150,-43.945,-45.410,-51.270,-36.621
1683643924.152,-35.156,-39.551,-32.227,-36.133
1683643924.156,-38.086,-32.227,-30.762,-40.039
1683643924.160,-47.363,-26.367,-39.062,-48.828
1683643924.164,-48.340,-33.691,-39.062,-54.199
1683643924.168,-50.781,-42.480,-47.852,-48.828
1683643924.172,-47.363,-29.785,-42.480,-43.945
1683643924.176,-37.598,-24.414,-30.273,-44.434
1683643924.179,-41.992,-36.621,-30.273,-48.340
1683643924.183,-41.504,-52.734,-34.668,-42.969
1683643924.187,-29.785,-39.062,-25.391,-29.785
1683643924.191,-39.062,-25.391,-26.855,-28.809
1683643924.195,-49.805,-24.414,-24.902,-41.992
1683643924.197,-46.875,-28.809,-31.738,-48.828
1683643924.201,-43.945,-36.621,-40.527,-37.598
1683643924.205,-44.922,-49.316,-34.180,-34.668
1683643924.209,-36.621,-41.992,-33.691,-30.762
1683643924.213,-28.809,-26.855,-25.879,-24.902
1683643924.217,-37.109,-40.527,-24.902,-36.133
1683643924.221,-44.922,-40.527,-26.855,-44.922
1683643924.224,-34.668,-21.484,-27.344,-41.504
1683643924.228,-19.531,-15.625,-34.668,-32.715
1683643924.232,-21.973,-24.414,-33.203,-34.668
1683643924.236,-21.973,-35.156,-21.484,-36.133
1683643924.240,-20.996,-39.062,-21.973,-29.297
1683643924.242,-30.273,-42.480,-36.133,-35.645
1683643924.246,-37.598,-35.156,-37.109,-36.133
1683643924.250,-37.109,-49.316,-21.484,-25.879
1683643924.254,-31.738,-40.527,-0.977,-14.648
1683643924.258,-49.805,-12.695,-25.391,-28.320
1683643924.262,-59.082,-27.832,-48.340,-43.457
1683643924.266,-54.688,-27.832,-47.363,-40.039
1683643924.269,-54.199,-22.949,-45.410,-41.992
1683643924.273,-49.316,-35.645,-21.484,-40.039
1683643924.277,-41.504,-33.691,-10.742,-32.227
1683643924.281,-35.645,-24.902,-20.020,-28.809
1683643924.285,-37.109,-30.762,-33.203,-32.715
1683643924.302,-33.203,-48.340,-33.691,-35.645
1683643924.306,-21.484,-34.180,-12.207,-24.902
1683643924.310,-24.414,-10.254,-16.602,-23.438
1683643924.314,-32.715,-13.672,-31.250,-30.762
1683643924.318,-24.414,-22.949,-17.578,-25.391
1683643924.322,-31.250,-24.414,-36.133,-25.879
1683643924.326,-49.316,-35.645,-56.152,-37.109
1683643924.329,-53.223,-42.480,-39.551,-39.062
1683643924.333,-50.293,-39.062,-33.691,-36.621
1683643924.337,-45.410,-46.387,-24.902,-22.949
1683643924.341,-40.039,-43.945,-23.926,-11.719
1683643924.345,-31.738,-34.180,-19.531,-19.043
1683643924.347,-35.645,-27.344,-21.973,-21.973
1683643924.351,-46.875,-28.320,-26.367,-28.320
1683643924.355,-40.039,-24.414,-22.461,-28.320
1683643924.359,-36.621,-28.809,-33.691,-29.785
1683643924.363,-40.039,-34.180,-33.691,-29.785
1683643924.367,-41.504,-45.898,-29.297,-31.250
1683643924.371,-49.316,-47.363,-39.551,-47.363
1683643924.374,-46.387,-41.992,-47.363,-48.340
1683643924.378,-46.387,-47.363,-42.480,-50.293
1683643924.382,-41.992,-41.992,-37.598,-47.363
1683643924.386,-37.598,-40.039,-42.480,-36.133
1683643924.390,-39.551,-25.879,-22.949,-33.203
1683643924.392,-30.273,-17.090,-7.812,-32.715
1683643924.396,-25.879,-18.066,-9.277,-32.715
1683643924.400,-23.438,-23.926,-15.137,-24.902
1683643924.404,-27.344,-38.086,-25.879,-25.879
1683643924.408,-29.297,-25.391,-28.809,-29.297
1683643924.412,-26.367,-43.457,-36.133,-33.691
1683643924.416,-34.668,-52.734,-34.668,-42.480
1683643924.419,-35.156,-24.902,-36.133,-43.945
1683643924.423,-33.691,-31.738,-39.062,-41.504
1683643924.427,-28.809,-49.805,-28.809,-32.715
1683643924.431,-24.414,-36.133,-22.461,-29.785
1683643924.435,-42.480,-40.039,-26.855,-39.551
1683643924.437,-53.223,-43.945,-35.156,-46.387
1683643924.441,-51.270,-40.039,-45.410,-52.734
1683643924.445,-46.387,-51.758,-45.898,-54.199
1683643924.449,-40.039,-29.785,-37.598,-48.340
1683643924.453,-45.898,-21.973,-35.645,-50.293
1683643924.457,-55.664,-37.109,-30.762,-53.223
1683643924.461,-49.805,-50.293,-33.691,-47.363
1683643924.464,-37.109,-59.082,-40.527,-39.062
1683643924.468,-39.551,-61.035,-45.410,-40.039
1683643924.472,-46.387,-43.945,-47.363,-33.691
1683643924.476,-36.621,-25.879,-26.367,-19.531
1683643924.480,-47.852,-30.273,-32.227,-41.016
1683643924.482,-55.176,-57.129,-43.457,-49.805
1683643924.486,-50.293,-53.711,-43.457,-45.410
1683643924.490,-50.293,-38.574,-55.664,-46.875
1683643924.494,-42.480,-36.133,-43.457,-38.086
1683643924.498,-41.016,-43.457,-23.926,-35.645
1683643924.502,-40.039,-50.293,-34.668,-36.621
1683643924.506,-35.156,-52.246,-44.922,-34.180
1683643924.509,-37.109,-47.852,-31.738,-30.273
1683643924.513,-36.621,-33.691,-24.414,-26.367
1683643924.517,-39.062,-32.227,-31.738,-33.691
1683643924.521,-23.438,-20.020,-29.297,-20.020
1683643924.525,-13.672,-19.531,-38.574,-7.812
1683643924.527,-28.809,-31.250,-41.016,-33.691
1683643924.531,-35.156,-27.832,-32.715,-45.410
1683643924.535,-28.320,-32.227,-38.574,-35.645
1683643924.539,-28.809,-48.828,-37.598,-39.551
1683643924.543,-35.645,-36.133,-41.992,-47.852
1683643924.547,-35.645,-15.625,-31.250,-43.457
1683643924.551,-38.086,-23.438,-27.344,-43.457
1683643924.554,-37.109,-29.785,-46.875,-41.992
1683643924.558,-29.297,-22.949,-47.363,-33.691
1683643924.562,-31.738,-28.320,-42.969,-34.668
1683643924.566,-33.203,-52.246,-43.457,-31.738
1683643924.570,-33.203,-52.246,-44.434,-27.832
1683643924.572,-41.992,-38.086,-61.035,-30.273
1683643924.576,-40.039,-17.090,-48.340,-32.227
1683643924.580,-34.668,-8.301,-28.320,-44.434
1683643924.584,-32.227,-21.484,-27.344,-42.480
1683643924.588,-25.879,-29.785,-25.391,-33.203
1683643924.592,-43.457,-30.762,-34.180,-48.828
1683643924.596,-42.969,-34.180,-44.434,-47.852
1683643924.599,-39.062,-49.316,-48.340,-43.457
1683643924.603,-47.852,-43.945,-47.852,-52.734
1683643924.607,-43.945,-43.457,-50.781,-53.223
1683643924.611,-43.945,-48.828,-42.480,-44.922
1683643924.615,-43.457,-35.645,-41.504,-37.598
1683643924.632,-44.434,-26.855,-40.527,-39.062
1683643924.636,-41.504,-28.320,-30.273,-33.691
1683643924.640,-42.480,-23.926,-42.480,-32.715
1683643924.644,-44.434,-33.203,-54.688,-38.574
1683643924.648,-29.297,-40.527,-32.715,-30.762
1683643924.652,-32.715,-20.508,-25.391,-34.668
1683643924.656,-49.316,-17.090,-45.410,-47.363
1683643924.659,-48.828,-33.691,-48.828,-51.758
1683643924.663,-41.504,-46.387,-38.574,-50.781
1683643924.667,-38.574,-50.781,-33.691,-45.410
1683643924.671,-39.551,-39.551,-42.969,-40.039
1683643924.675,-33.691,-8.789,-44.434,-35.156
1683643924.677,-40.039,-36.133,-44.434,-46.875
1683643924.681,-46.387,-51.270,-38.574,-44.434
1683643924.685,-39.551,-19.531,-42.969,-44.922
1683643924.689,-38.086,-18.066,-41.992,-46.875
1683643924.693,-42.969,-24.414,-34.668,-40.527
1683643924.697,-36.133,-22.949,-40.039,-36.621
1683643924.701,-33.691,-23.438,-46.387,-30.762
1683643924.704,-33.203,-23.438,-27.832,-22.461
1683643924.708,-21.484,-21.484,-4.395,-21.973
1683643924.712,-30.762,-40.527,-20.996,-36.133
1683643924.716,-36.133,-43.945,-38.086,-36.133
1683643924.720,-39.062,-29.785,-44.922,-35.156
1683643924.722,-36.133,-23.438,-37.598,-29.297
1683643924.726,-25.391,-33.691,-24.902,-18.066
1683643924.730,-28.809,-34.668,-13.672,-20.020
1683643924.734,-29.785,-32.715,-8.789,-18.555
1683643924.738,-27.832,-30.762,-27.832,-14.160
1683643924.742,-29.297,-19.043,-33.203,-13.184
1683643924.746,-33.691,-29.297,-33.203,-14.160
1683643924.749,-25.879,-34.180,-14.648,-17.578
1683643924.753,-27.832,-38.086,-13.672,-19.043
1683643924.757,-33.203,-38.086,-25.879,-17.090
1683643924.761,-29.297,-19.531,-19.043,-15.137
1683643924.765,-22.461,-26.855,-25.391,-12.695
1683643924.767,-16.602,-27.832,-16.113,-0.977
1683643924.771,-24.414,-30.273,-17.090,-12.207
1683643924.775,-46.875,-45.898,-37.598,-39.551
1683643924.779,-42.969,-31.250,-37.598,-35.156
1683643924.783,-31.250,-29.297,-26.855,-20.996
1683643924.787,-37.598,-44.434,-23.438,-22.949
1683643924.791,-36.133,-40.527,-24.414,-27.344
1683643924.794,-26.855,-32.715,-33.691,-26.855
1683643924.798,-31.738,-24.902,-17.578,-29.297
1683643924.802,-29.297,-31.250,-11.719,-23.438
1683643924.806,-27.344,-55.664,-42.480,-28.320
1683643924.810,-37.598,-48.340,-47.852,-33.203
1683643924.812,-37.109,-34.668,-42.480,-33.203
1683643924.816,-25.391,-31.250,-29.297,-25.391
1683643924.820,-27.344,-32.227,-17.578,-23.438
1683643924.824,-42.480,-38.086,-26.367,-40.527
1683643924.828,-46.387,-27.344,-30.762,-43.457
1683643924.832,-43.457,-29.785,-49.316,-37.109
1683643924.836,-40.039,-41.504,-55.176,-39.551
1683643924.839,-29.785,-28.809,-38.574,-31.250
1683643924.843,-23.438,-35.156,-35.156,-20.020
1683643924.847,-21.484,-39.062,-30.273,-18.066
1683643924.851,-27.344,-25.391,-38.086,-22.461
1683643924.855,-34.180,-32.715,-39.062,-28.809
1683643924.812,-37.109,-34.668,-42.480,-33.203
1683643924.816,-25.391,-31.250,-29.297,-25.391
1683643924.820,-27.344,-32.227,-17.578,-23.438
1683643924.824,-42.480,-38.086,-26.367,-40.527
1683643924.828,-46.387,-27.344,-30.762,-43.457
1683643924.832,-43.457,-29.785,-49.316,-37.109
1683643924.836,-40.039,-41.504,-55.176,-39.551
1683643924.839,-29.785,-28.809,-38.574,-31.250
1683643924.843,-23.438,-35.156,-35.156,-20.020
1683643924.847,-21.484,-39.062,-30.273,-18.066
1683643924.851,-27.344,-25.391,-38.086,-22.461
1683643924.855,-34.180,-32.715,-39.062,-28.809
1683643924.857,-34.668,-39.062,-13.184,-25.391
1683643924.861,-24.902,-17.090,-15.625,-20.508
1683643924.865,-16.602,-8.789,-20.996,-17.090
1683643924.869,-16.602,-9.277,-12.695,-8.789
1683643924.873,-28.320,-25.391,-22.949,-15.137
1683643924.877,-35.645,-41.504,-16.602,-22.949
1683643924.881,-28.809,-26.367,-19.531,-20.996
1683643924.884,-22.461,-43.457,-37.598,-24.414
1683643924.888,-15.625,-56.641,-42.969,-21.973
1683643924.892,-14.648,-38.574,-35.645,-28.320
1683643924.896,-14.648,-16.113,-23.438,-32.715
1683643924.900,-6.836,-14.648,-11.719,-21.484
1683643924.902,-7.812,-25.879,-16.602,-28.809
1683643924.906,-8.301,-8.789,-23.926,-29.785
1683643924.910,-11.719,-7.812,-22.949,-30.762
1683643924.914,-26.367,-36.133,-34.668,-42.969
1683643924.918,-34.668,-25.391,-29.297,-47.852
1683643924.922,-34.668,-20.508,-25.391,-41.016
1683643924.926,-29.297,-40.039,-23.926,-23.926
1683643924.929,-35.645,-47.852,-33.691,-34.180
1683643924.933,-37.109,-35.645,-38.574,-46.875
1683643924.937,-41.992,-26.367,-31.738,-50.781
1683643924.941,-44.922,-27.344,-33.203,-48.340
1683643924.945,-46.387,-32.715,-29.297,-42.969
1683643924.947,-41.504,-35.156,-24.902,-39.062
1683643924.951,-28.320,-19.531,-14.160,-29.297
1683643924.955,-41.992,-43.945,-18.066,-44.434
1683643924.959,-40.527,-58.594,-34.668,-40.039
1683643924.963,-35.156,-26.855,-34.668,-33.203
1683643924.967,-38.574,-22.949,-17.090,-37.109
1683643924.971,-39.062,-38.574,-11.719,-33.691
1683643924.974,-36.133,-34.180,-29.297,-31.250
1683643924.978,-27.344,-36.621,-32.227,-22.949
1683643924.982,-26.367,-32.227,-17.578,-23.438
1683643924.986,-32.715,-19.043,-17.578,-33.691
1683643924.990,-40.039,-26.855,-27.832,-44.434
1683643924.992,-47.852,-21.484,-30.273,-49.805
1683643924.996,-36.621,-7.812,-22.949,-38.574
1683643925.000,-37.109,-26.855,-22.949,-43.457
1683643925.004,-46.387,-49.805,-41.504,-54.199
1683643925.008,-48.828,-54.688,-36.621,-47.852
1683643925.012,-44.434,-54.199,-22.949,-41.504
1683643925.016,-35.156,-33.691,-25.391,-37.109
1683643925.019,-41.504,-43.945,-46.387,-41.016
1683643925.023,-49.316,-45.410,-42.969,-44.434
1683643925.027,-45.410,-29.785,-31.738,-43.457
1683643925.031,-29.297,-30.273,-25.879,-27.344
1683643925.035,-37.109,-18.066,-32.227,-42.480
1683643925.052,-39.062,-7.812,-38.086,-54.199
1683643925.056,-33.203,-23.926,-35.156,-40.039
1683643925.060,-43.457,-30.762,-41.992,-39.062
1683643925.064,-38.086,-15.137,-33.691,-32.227
1683643925.068,-29.785,-21.484,-18.066,-24.902
1683643925.072,-23.926,-38.086,-24.414,-21.484
1683643925.076,-18.555,-52.734,-41.016,-18.555
1683643925.079,-27.344,-44.922,-46.875,-23.926
1683643925.083,-25.391,-18.555,-35.156,-20.020
1683643925.087,-27.832,-25.391,-27.832,-18.066
1683643925.091,-26.367,-32.227,-37.109,-18.555
1683643925.095,-13.672,-30.762,-37.109,-13.184
1683643925.097,-14.160,-24.902,-27.344,-12.695
1683643925.101,-34.180,-32.715,-35.645,-25.879
1683643925.105,-41.504,-42.480,-41.992,-34.668
1683643925.109,-36.621,-45.898,-45.898,-29.297
1683643925.113,-24.414,-42.969,-39.062,-27.344
1683643925.117,-22.949,-37.598,-24.414,-33.203
1683643925.121,-37.598,-46.875,-46.875,-39.062
1683643925.124,-31.250,-34.180,-41.016,-29.297
1683643925.128,-31.738,-26.367,-26.367,-26.855
1683643925.132,-31.250,-33.203,-34.180,-19.043
1683643925.136,-27.832,-33.203,-33.203,-17.090
1683643925.140,-31.250,-34.668,-34.180,-26.367
1683643925.142,-35.156,-40.527,-36.621,-20.020
1683643925.146,-27.344,-31.738,-36.621,-10.254
1683643925.150,-31.738,-36.621,-30.762,-24.414
1683643925.154,-45.898,-42.480,-58.594,-42.480
1683643925.158,-42.969,-38.574,-71.777,-43.945
1683643925.162,-48.340,-40.039,-51.758,-42.969
1683643925.166,-37.109,-38.574,-31.250,-36.133
1683643925.169,-28.320,-40.527,-20.508,-33.203
1683643925.173,-38.574,-32.715,-32.227,-33.203
1683643925.177,-39.551,-39.062,-32.227,-28.809
1683643925.181,-30.273,-34.668,-26.367,-23.926
1683643925.185,-38.574,-48.828,-34.180,-32.227
1683643925.187,-44.922,-78.125,-37.598,-33.691
1683643925.191,-44.434,-41.016,-44.434,-33.691
1683643925.195,-45.410,-8.789,-42.969,-30.762
1683643925.199,-52.246,-38.086,-48.340,-29.785
1683643925.203,-55.176,-35.645,-45.410,-32.715
1683643925.207,-44.434,-23.926,-14.648,-24.902
1683643925.211,-37.598,-44.434,-19.043,-21.484
1683643925.214,-35.156,-49.316,-38.086,-17.578
1683643925.218,-38.086,-57.617,-39.062,-15.625
1683643925.222,-29.785,-55.664,-21.484,-12.207
1683643925.226,-20.508,-24.414,-12.695,-3.418
1683643925.230,-33.203,-25.879,-24.902,-15.625
1683643925.232,-55.176,-45.898,-39.062,-33.203
1683643925.236,-61.035,-31.738,-47.363,-38.574
1683643925.240,-48.340,-27.344,-43.457,-37.598
1683643925.244,-44.922,-37.109,-47.852,-31.250
1683643925.248,-43.945,-42.480,-60.547,-28.320
1683643925.252,-46.875,-29.785,-47.852,-35.156
1683643925.256,-58.105,-32.227,-34.668,-42.480
1683643925.259,-45.898,-48.340,-48.340,-35.156
1683643925.263,-28.809,-43.945,-41.992,-25.391
1683643925.267,-40.039,-54.199,-29.785,-31.250
1683643925.271,-50.293,-46.875,-47.852,-40.527
1683643925.275,-43.945,-28.320,-44.434,-39.551
1683643925.277,-37.598,-35.645,-33.203,-39.551
1683643925.281,-19.531,-28.320,-29.785,-29.785
1683643925.285,-21.973,-19.043,-43.457,-23.438
1683643925.289,-44.434,-46.875,-64.941,-40.527
1683643925.293,-44.434,-51.270,-50.781,-44.922
1683643925.297,-31.250,-23.438,-38.574,-35.645
1683643925.301,-28.320,-31.250,-38.574,-41.016
1683643925.304,-29.785,-46.875,-37.109,-38.086
1683643925.308,-31.738,-39.062,-40.527,-30.762
1683643925.312,-41.016,-50.293,-46.387,-42.480
1683643925.316,-44.922,-57.617,-35.645,-43.945
1683643925.320,-39.062,-38.574,-49.316,-33.203
1683643925.322,-27.832,-25.879,-55.176,-22.949
1683643925.326,-32.227,-16.113,-28.809,-27.344
1683643925.330,-41.992,-18.066,-27.832,-36.133
1683643925.334,-40.039,-22.949,-36.133,-37.109
1683643925.338,-33.203,-23.926,-20.996,-28.320
1683643925.342,-29.297,-36.133,-19.531,-19.043
1683643925.346,-33.203,-44.434,-43.945,-29.297
1683643925.349,-41.992,-49.805,-50.293,-37.109
1683643925.353,-27.344,-44.922,-20.508,-26.367
1683643925.357,-30.762,-53.711,-24.414,-35.156
1683643925.361,-46.875,-38.574,-63.477,-53.711
1683643925.365,-38.086,-21.484,-57.129,-47.363
1683643925.367,-29.297,-28.320,-37.109,-36.133
1683643925.371,-16.113,-12.695,-2.441,-23.926
1683643925.375,-6.836,-2.441,21.484,-14.160
1683643925.379,-11.719,-29.297,6.348,-22.949
1683643925.383,-13.184,-41.504,-11.230,-26.855
1683643925.387,-11.719,-26.367,-11.719,-21.973
1683643925.391,-13.672,-41.992,-7.812,-11.719
1683643925.394,-13.184,-25.879,-8.789,-6.836
1683643925.398,-27.344,-0.977,-19.043,-21.973
1683643925.402,-43.457,-8.789,-47.852,-40.039
1683643925.406,-33.203,-15.625,-38.574,-34.180
1683643925.410,-21.973,-21.973,-17.578,-23.926
1683643925.427,-25.391,-16.602,-14.160,-22.949
1683643925.431,-29.785,-31.738,-14.648,-31.250
1683643925.435,-29.785,-45.898,-28.320,-34.668
1683643925.439,-29.785,-44.922,-29.785,-31.738
1683643925.443,-28.320,-26.367,-24.414,-22.461
1683643925.447,-26.367,-12.695,-20.508,-18.555
1683643925.451,-27.344,-36.621,-19.043,-18.555
1683643925.454,-34.668,-32.227,-29.785,-14.648
1683643925.458,-31.738,-17.578,-30.273,-9.277
1683643925.462,-35.645,-39.062,-28.809,-22.949
1683643925.466,-39.062,-45.410,-18.066,-37.109
1683643925.470,-41.992,-38.574,-14.160,-37.109
1683643925.472,-39.551,-43.457,-22.461,-34.668
1683643925.476,-39.062,-31.738,-27.344,-30.273
1683643925.480,-42.480,-19.531,-22.949,-28.809
1683643925.484,-41.992,-25.391,-18.066,-29.297
1683643925.488,-47.852,-41.504,-28.320,-33.203
1683643925.492,-37.109,-38.086,-31.738,-24.902
1683643925.496,-35.645,-31.250,-26.367,-25.391
1683643925.499,-39.551,-47.852,-20.508,-27.344
1683643925.503,-33.203,-52.734,-26.367,-24.414
1683643925.507,-32.715,-42.480,-23.926,-30.762
1683643925.511,-43.457,-25.879,-20.020,-35.156
1683643925.515,-52.734,-24.902,-31.250,-42.969
1683643925.517,-44.434,-22.461,-25.879,-38.574
1683643925.521,-47.363,-39.062,-21.973,-33.203
1683643925.525,-32.227,-36.621,-14.648,-20.020
1683643925.529,-23.926,-14.160,-5.859,-17.578
1683643925.533,-41.504,-30.273,-22.461,-34.668
1683643925.537,-43.457,-35.156,-37.598,-41.992
1683643925.541,-42.969,-28.809,-41.016,-42.480
1683643925.544,-34.668,-29.785,-22.949,-39.062
1683643925.548,-31.738,-43.945,-15.137,-36.133
1683643925.552,-32.227,-41.992,-22.461,-31.738
1683643925.556,-24.902,-24.414,-28.809,-30.762
1683643925.560,-28.809,-36.133,-28.809,-36.621
1683643925.562,-29.297,-31.250,-12.695,-38.574
1683643925.566,-27.344,-20.020,-12.207,-41.992
1683643925.570,-27.832,-39.062,-30.762,-33.691
1683643925.574,-33.691,-44.922,-39.062,-33.691
1683643925.578,-33.203,-18.066,-17.578,-31.250
1683643925.582,-24.902,-14.648,-3.906,-23.438
1683643925.586,-44.434,-45.410,-34.668,-44.434
1683643925.589,-50.781,-46.875,-50.781,-54.688
1683643925.593,-47.363,-33.691,-39.062,-54.199
1683643925.597,-46.875,-46.387,-31.250,-57.617
1683643925.601,-37.109,-48.828,-28.320,-48.828
1683643925.605,-32.715,-32.715,-26.367,-46.387
1683643925.607,-28.809,-20.020,-15.137,-44.434
1683643925.611,-31.250,-9.277,-19.043,-40.039
1683643925.615,-35.645,-26.855,-29.297,-44.922
1683643925.619,-36.621,-27.344,-32.227,-49.805
1683643925.623,-36.621,-26.855,-26.367,-48.828
1683643925.627,-32.715,-27.832,-19.043,-48.340
1683643925.631,-39.551,-22.949,-22.461,-51.270
1683643925.634,-36.621,-31.738,-23.926,-45.410
1683643925.638,-31.250,-37.109,-20.020,-41.992
1683643925.642,-30.273,-24.414,-12.695,-32.227
1683643925.646,-22.949,-18.066,-26.855,-24.902
1683643925.650,-31.738,-29.785,-39.551,-40.527
1683643925.652,-31.738,-15.137,-11.230,-36.621
1683643925.656,-25.391,-0.488,7.812,-28.320
1683643925.660,-36.133,-17.578,-16.602,-43.457
1683643925.664,-38.086,-29.297,-22.461,-50.293
1683643925.668,-32.227,-21.484,-30.762,-46.387
1683643925.672,-29.297,-44.922,-44.922,-42.969
1683643925.676,-40.527,-52.734,-42.969,-47.363
1683643925.679,-42.969,-31.738,-37.598,-46.387
1683643925.683,-39.062,-39.062,-37.109,-41.504
1683643925.687,-35.156,-52.246,-32.715,-41.504
1683643925.691,-38.574,-42.480,-42.969,-48.828
1683643925.695,-37.109,-24.902,-45.410,-46.387
1683643925.697,-24.414,-25.879,-30.273,-31.738
1683643925.701,-29.297,-28.320,-29.785,-34.180
1683643925.705,-38.086,-23.926,-33.203,-35.156
1683643925.709,-31.738,-20.996,-46.387,-27.344
1683643925.713,-32.227,-41.504,-39.062,-38.086
1683643925.717,-43.945,-49.316,-26.367,-54.199
1683643925.721,-41.016,-33.691,-29.297,-48.340
1683643925.724,-25.391,-25.391,-22.461,-27.344
1683643925.728,-18.066,-17.090,-20.020,-19.531
1683643925.732,-15.625,-19.043,-17.090,-19.531
1683643925.736,-11.719,-11.719,-3.418,-11.230
1683643925.740,-7.812,-7.812,-5.371,-5.371
1683643925.742,-1.465,7.324,-1.465,0.000
1683643925.746,-4.883,19.043,-2.930,2.441
1683643925.750,-5.859,1.953,-17.090,1.465
1683643925.754,-2.930,1.953,-20.996,1.465
1683643925.758,-3.906,-7.812,-11.230,5.859
1683643925.762,0.977,-22.949,-3.906,10.742
1683643925.766,4.395,-9.766,-3.418,6.348
1683643925.769,5.371,17.578,3.906,14.160
1683643925.773,-10.254,22.949,-8.789,0.977
1683643925.777,-20.508,-1.953,-24.414,-16.602
1683643925.781,-1.465,-7.324,-9.277,1.465
1683643925.785,-9.277,-8.789,-14.648,-3.418
1683643925.802,-24.902,-14.648,-20.508,-10.742
1683643925.806,-21.973,-17.090,-11.719,-13.184
1683643925.810,-13.184,-16.602,-17.578,-14.648
1683643925.814,-16.113,-11.719,-22.949,-12.695
1683643925.818,-16.602,-6.836,-27.832,-10.254
1683643925.822,-20.508,-5.371,-31.250,-16.602
1683643925.826,-22.949,-6.348,-28.320,-20.996
1683643925.829,-26.855,-12.695,-20.020,-25.391
1683643925.833,-28.809,-35.156,-12.207,-24.414
1683643925.837,-18.555,-36.133,-13.184,-20.020
1683643925.841,-32.715,-31.250,-27.344,-30.762
1683643925.845,-45.898,-30.762,-32.715,-35.645
1683643925.847,-35.645,-33.691,-33.203,-31.738
1683643925.851,-25.391,-34.180,-28.809,-25.879
1683643925.855,-22.949,-22.461,-29.297,-25.879
1683643925.859,-28.320,-18.066,-39.062,-24.414
1683643925.863,-27.344,-14.648,-22.949,-21.973
1683643925.867,-29.297,-16.602,-8.301,-30.762
1683643925.871,-24.902,-32.715,-7.324,-30.273
1683643925.874,-24.902,-45.898,-22.949,-35.156
1683643925.878,-29.785,-20.020,-24.414,-33.691
1683643925.882,-33.203,-19.531,-20.996,-35.156
1683643925.886,-41.504,-41.992,-34.668,-45.410
1683643925.890,-30.273,-47.363,-37.598,-40.039
1683643925.892,-25.879,-33.203,-39.062,-36.621
1683643925.896,-33.203,-32.227,-33.691,-36.133
1683643925.900,-37.598,-61.523,-36.133,-39.551
1683643925.904,-27.832,-59.570,-30.762,-31.250
1683643925.908,-12.695,-30.762,-25.391,-20.020
1683643925.912,-14.648,-18.555,-33.203,-31.250
1683643925.916,-14.648,-18.555,-21.484,-32.227
1683643925.919,-23.926,-24.414,-20.020,-22.949
1683643925.923,-30.273,-35.156,-30.273,-33.203
1683643925.927,-27.344,-42.480,-40.039,-38.086
1683643925.931,-27.832,-43.457,-39.551,-38.574
1683643925.935,-18.555,-48.340,-34.180,-33.691
1683643925.892,-25.879,-33.203,-39.062,-36.621
1683643925.896,-33.203,-32.227,-33.691,-36.133
1683643925.900,-37.598,-61.523,-36.133,-39.551
1683643925.904,-27.832,-59.570,-30.762,-31.250
1683643925.908,-12.695,-30.762,-25.391,-20.020
1683643925.912,-14.648,-18.555,-33.203,-31.250
1683643925.916,-14.648,-18.555,-21.484,-32.227
1683643925.919,-23.926,-24.414,-20.020,-22.949
1683643925.923,-30.273,-35.156,-30.273,-33.203
1683643925.927,-27.344,-42.480,-40.039,-38.086
1683643925.931,-27.832,-43.457,-39.551,-38.574
1683643925.935,-18.555,-48.340,-34.180,-33.691
1683643925.937,-24.902,-48.340,-43.945,-32.227
1683643925.941,-42.480,-32.715,-49.316,-48.340
1683643925.945,-38.086,-30.273,-37.598,-46.387
1683643925.949,-31.250,-32.715,-37.109,-39.062
1683643925.953,-35.156,-36.621,-43.945,-39.551
1683643925.957,-33.691,-40.039,-37.109,-30.762
1683643925.961,-28.809,-32.227,-30.273,-29.297
1683643925.964,-31.738,-31.738,-39.062,-37.109
1683643925.968,-29.297,-47.852,-51.270,-28.809
1683643925.972,-31.738,-47.363,-40.039,-27.832
1683643925.976,-22.949,-24.902,-26.855,-26.367
1683643925.980,-12.207,-28.320,-22.949,-17.090
1683643925.982,-33.691,-36.621,-30.273,-30.762
1683643925.986,-41.992,-17.090,-48.828,-44.434
1683643925.990,-28.320,-24.414,-44.434,-41.504
1683643925.994,-30.273,-49.805,-42.969,-39.062
1683643925.998,-40.527,-30.273,-42.480,-38.574
1683643926.002,-36.133,-11.230,-30.273,-35.156
1683643926.006,-28.809,-33.691,-41.992,-32.227
1683643926.009,-23.926,-49.805,-64.453,-21.973
1683643926.013,-28.320,-37.109,-51.758,-25.879
1683643926.017,-32.227,-28.809,-41.016,-39.062
1683643926.021,-35.156,-33.691,-40.039,-38.574
1683643926.025,-41.504,-42.480,-36.621,-31.738
1683643926.027,-43.457,-58.594,-36.621,-33.691
1683643926.031,-41.016,-60.059,-35.156,-30.762
1683643926.035,-41.016,-26.855,-34.180,-20.996
1683643926.039,-37.598,-20.508,-22.949,-14.648
1683643926.043,-28.809,-40.527,-22.461,-9.766
1683643926.047,-38.574,-35.156,-39.062,-22.461
1683643926.051,-53.223,-21.484,-50.781,-38.086
1683643926.054,-46.387,-37.109,-42.480,-30.273
1683643926.058,-45.410,-54.199,-44.922,-22.461
1683643926.062,-37.109,-44.434,-47.363,-14.160
1683643926.066,-32.715,-34.668,-40.039,-18.066
1683643926.070,-39.062,-38.086,-38.574,-32.227
1683643926.027,-43.457,-58.594,-36.621,-33.691
1683643926.031,-41.016,-60.059,-35.156,-30.762
1683643926.035,-41.016,-26.855,-34.180,-20.996
1683643926.039,-37.598,-20.508,-22.949,-14.648
1683643926.043,-28.809,-40.527,-22.461,-9.766
1683643926.047,-38.574,-35.156,-39.062,-22.461
1683643926.051,-53.223,-21.484,-50.781,-38.086
1683643926.054,-46.387,-37.109,-42.480,-30.273
1683643926.058,-45.410,-54.199,-44.922,-22.461
1683643926.062,-37.109,-44.434,-47.363,-14.160
1683643926.066,-32.715,-34.668,-40.039,-18.066
1683643926.070,-39.062,-38.086,-38.574,-32.227
1683643926.072,-33.691,-42.480,-39.551,-35.645
1683643926.076,-28.320,-32.227,-44.434,-33.691
1683643926.080,-33.203,-14.648,-52.246,-39.062
1683643926.084,-35.156,-24.902,-48.828,-43.945
1683643926.088,-37.109,-38.086,-47.363,-44.922
1683643926.092,-30.273,-29.785,-50.293,-31.738
1683643926.096,-30.273,-47.852,-45.898,-32.227
1683643926.099,-44.922,-57.129,-34.668,-43.945
1683643926.103,-40.527,-34.180,-43.945,-37.109
1683643926.107,-33.203,-22.461,-48.828,-33.203
1683643926.111,-37.598,-29.785,-40.039,-36.621
1683643926.115,-33.691,-36.621,-43.457,-25.391
1683643926.117,-25.879,-40.527,-40.527,-17.578
1683643926.121,-28.809,-42.480,-41.016,-23.926
1683643926.125,-35.645,-27.832,-44.922,-26.855
1683643926.129,-42.969,-38.574,-48.340,-29.785
1683643926.133,-36.133,-35.156,-45.410,-29.297
1683643926.137,-36.133,-25.879,-40.527,-31.738
1683643926.141,-34.180,-26.367,-31.738,-26.855
1683643926.144,-20.996,-1.465,-26.855,-14.648
1683643926.148,-36.621,-21.484,-42.480,-27.832
1683643926.152,-43.457,-43.457,-48.340,-39.551
1683643926.156,-41.992,-28.809,-56.152,-35.645
1683643926.160,-35.156,-37.109,-60.059,-29.785
1683643926.177,-20.508,-41.992,-51.270,-23.438
1683643926.181,-22.949,-18.066,-48.828,-27.344
1683643926.185,-29.785,-13.184,-48.340,-35.645
1683643926.189,-38.574,-28.809,-55.176,-42.480
1683643926.193,-37.598,-31.738,-56.641,-44.922
1683643926.197,-35.645,-28.320,-41.016,-44.922
1683643926.201,-20.996,-17.090,-35.645,-31.250
1683643926.204,-23.438,-27.832,-39.551,-34.180
1683643926.208,-39.551,-47.363,-49.316,-47.852
1683643926.212,-37.109,-41.992,-52.246,-41.992
1683643926.216,-41.016,-26.855,-54.688,-43.457
1683643926.220,-31.738,-20.996,-50.781,-43.457
1683643926.222,-30.273,-29.297,-47.852,-39.551
1683643926.226,-36.133,-22.949,-48.340,-35.156
1683643926.230,-29.785,-18.555,-46.387,-31.738
1683643926.234,-28.809,-21.484,-53.223,-34.668
1683643926.238,-42.480,-32.715,-46.875,-39.062
1683643926.242,-42.969,-39.551,-36.621,-40.527
1683643926.246,-33.203,-42.969,-42.969,-35.156
1683643926.249,-18.555,-52.246,-34.668,-20.508
1683643926.253,-23.438,-46.875,-45.898,-27.344
1683643926.257,-38.574,-35.645,-65.918,-49.316
1683643926.261,-42.969,-24.902,-62.012,-49.805
1683643926.265,-47.363,-13.672,-54.199,-42.969
1683643926.267,-36.133,-24.902,-43.457,-34.668
1683643926.271,-32.227,-41.016,-58.105,-40.039
1683643926.275,-34.180,-35.156,-78.613,-47.852
1683643926.279,-32.715,-16.602,-59.082,-40.527
1683643926.283,-33.691,-22.461,-46.387,-42.969
1683643926.287,-31.250,-33.203,-56.152,-44.922
1683643926.291,-29.785,-38.086,-58.594,-36.133
1683643926.294,-24.414,-37.598,-57.617,-27.832
1683643926.298,-41.504,-27.344,-62.012,-46.387
1683643926.302,-48.340,-37.598,-50.293,-59.082
1683643926.306,-36.133,-46.387,-48.828,-49.805
1683643926.310,-32.227,-43.457,-50.781,-42.969
1683643926.312,-27.832,-17.578,-49.316,-41.016
1683643926.316,-26.855,-16.602,-47.363,-34.180
1683643926.320,-35.156,-34.180,-46.387,-37.109
1683643926.324,-43.945,-20.020,-59.082,-43.945
1683643926.328,-42.480,-20.996,-63.965,-39.551
1683643926.332,-38.086,-23.438,-54.199,-40.039
1683643926.336,-31.738,-28.320,-48.340,-41.504
1683643926.339,-25.391,-43.945,-50.293,-37.598
1683643926.343,-16.113,-41.504,-39.551,-25.391
1683643926.347,-26.367,-38.086,-46.875,-34.180
1683643926.351,-43.457,-40.527,-67.871,-46.387
1683643926.355,-42.969,-32.227,-60.059,-41.992
1683643926.357,-34.668,-26.367,-41.992,-35.645
1683643926.361,-31.738,-13.672,-45.410,-33.203
1683643926.365,-36.133,-20.508,-42.480,-28.809
1683643926.369,-37.598,-22.461,-37.109,-24.902
1683643926.373,-37.598,-21.484,-43.945,-27.344
1683643926.377,-26.367,-38.574,-33.691,-19.043
1683643926.381,-5.859,-25.391,-24.902,-9.277
1683643926.384,-16.113,-22.461,-39.062,-20.508
1683643926.388,-26.367,-34.180,-45.410,-33.691
1683643926.392,-23.926,-30.762,-42.969,-32.227
1683643926.396,-30.273,-20.020,-37.598,-33.691
1683643926.400,-31.250,-13.672,-26.855,-28.809
1683643926.402,-35.645,-27.832,-37.109,-30.762
1683643926.406,-29.297,-35.156,-47.363,-26.367
1683643926.410,-28.320,-24.414,-48.828,-20.508
1683643926.414,-34.180,-9.277,-41.504,-28.320
1683643926.418,-23.926,1.465,-19.531,-16.113
1683643926.422,-24.414,-5.371,-33.691,-10.742
1683643926.426,-33.203,-33.691,-46.875,-24.902
1683643926.429,-32.227,-41.992,-30.762,-30.762
1683643926.433,-38.086,-24.414,-20.508,-33.203
1683643926.437,-34.180,-30.273,-14.648,-33.203
1683643926.441,-24.414,-28.320,-20.508,-29.297
1683643926.445,-29.297,-13.184,-31.738,-32.227
1683643926.447,-35.156,-14.648,-42.480,-31.250
1683643926.451,-29.297,-23.438,-41.504,-28.320
1683643926.455,-25.391,-23.438,-20.020,-26.855
1683643926.459,-24.414,-20.996,-28.809,-21.973
1683643926.463,-21.973,-24.902,-41.504,-20.020
1683643926.467,-27.832,-37.598,-25.391,-26.855
1683643926.471,-31.250,-56.152,-21.484,-30.762
1683643926.474,-25.391,-57.617,-20.508,-32.227
1683643926.478,-18.066,-38.574,-19.043,-27.832
1683643926.482,-11.230,-11.230,-18.066,-14.160
1683643926.486,-18.066,2.441,-17.090,-29.297
1683643926.490,-30.273,-9.766,-33.203,-41.992
1683643926.492,-26.367,-25.879,-22.949,-35.156
1683643926.496,-20.020,-35.645,-19.531,-31.738
1683643926.500,-22.949,-57.617,-42.480,-31.250
1683643926.504,-28.320,-46.875,-30.762,-29.785
1683643926.508,-32.715,-31.738,-24.902,-29.297
1683643926.512,-41.504,-39.062,-28.320,-38.086
1683643926.516,-41.992,-36.133,-15.137,-37.109
1683643926.519,-20.508,-20.508,-11.719,-16.602
1683643926.523,-22.461,-8.789,-20.020,-10.742
1683643926.527,-47.363,-22.949,-34.180,-28.320
1683643926.531,-51.758,-42.969,-41.504,-35.156
1683643926.535,-49.805,-53.223,-37.598,-36.133
1683643926.552,-42.969,-47.363,-29.297,-30.273
1683643926.556,-37.109,-42.969,-28.809,-27.344
1683643926.560,-38.086,-41.016,-36.621,-26.855
1683643926.564,-34.668,-31.738,-26.855,-19.043
1683643926.568,-31.250,-21.484,-2.441,-20.508
1683643926.572,-39.551,-30.762,-11.719,-26.367
1683643926.576,-40.039,-48.340,-28.320,-26.367
1683643926.579,-41.504,-56.641,-28.809,-28.809
1683643926.583,-43.945,-39.062,-31.250,-29.785
1683643926.587,-32.715,-12.207,-15.625,-17.578
1683643926.591,-37.598,-9.766,-15.625,-22.949
1683643926.595,-50.293,-27.344,-33.691,-37.598
1683643926.597,-49.316,-34.668,-31.738,-31.738
1683643926.601,-47.852,-38.574,-25.879,-33.691
1683643926.605,-46.387,-49.805,-17.090,-35.156
1683643926.609,-41.016,-48.828,-11.719,-32.715
1683643926.613,-31.250,-51.270,-19.043,-32.227
1683643926.617,-29.297,-59.570,-32.227,-28.809
1683643926.621,-40.527,-48.340,-27.344,-29.785
1683643926.624,-40.527,-15.625,-7.324,-32.227
1683643926.628,-44.434,-5.371,-23.438,-33.203
1683643926.632,-57.617,-27.832,-39.551,-43.457
1683643926.636,-52.734,-35.645,-31.738,-43.457
1683643926.640,-54.199,-33.203,-29.785,-40.039
1683643926.642,-49.805,-38.086,-22.949,-28.809
1683643926.646,-41.016,-48.828,-25.391,-21.973
1683643926.650,-40.527,-53.711,-24.902,-29.785
1683643926.654,-43.945,-39.551,-12.207,-39.551
1683643926.658,-56.152,-28.809,-17.578,-41.016
1683643926.662,-52.246,-38.574,-18.066,-30.762
1683643926.666,-41.504,-49.316,-9.277,-30.762
1683643926.669,-38.086,-38.086,-21.973,-29.785
1683643926.673,-36.621,-23.438,-25.391,-20.508
1683643926.677,-42.969,-39.062,-25.879,-21.484
1683643926.681,-43.457,-56.641,-35.645,-29.785
1683643926.685,-42.480,-44.922,-25.391,-36.133
1683643927.152,-42.969,-40.039,-11.719,-44.434
1683643927.156,-39.062,-37.109,-10.254,-36.621
1683643927.160,-36.621,-20.996,-18.066,-29.297
1683643927.164,-35.645,-6.348,-18.066,-34.668
1683643927.168,-24.414,-17.578,-10.254,-25.879
1683643927.172,-28.320,-21.973,-16.113,-20.020
1683643927.176,-45.410,-36.621,-37.109,-29.785
1683643927.179,-38.086,-62.500,-37.109,-31.738
1683643927.183,-29.785,-58.105,-7.812,-31.738
1683643927.187,-29.785,-23.926,-8.789,-26.367
1683643927.191,-29.785,-8.789,-25.879,-21.973
1683643927.195,-27.344,-16.113,-24.414,-24.414
1683643926.687,-33.691,-35.156,-17.578,-21.484
1683643926.691,-30.762,-33.203,-29.785,-23.438
1683643926.695,-42.969,-28.809,-34.180,-48.340
1683643926.699,-46.387,-19.531,-38.574,-44.922
1683643926.703,-42.480,-26.367,-28.320,-31.738
1683643926.707,-33.691,-35.645,-14.648,-32.227
1683643926.711,-28.320,-28.809,-20.996,-30.273
1683643926.714,-32.715,-32.715,-28.809,-27.344
1683643926.718,-36.621,-41.504,-24.414,-27.832
1683643926.722,-36.133,-43.457,-16.113,-29.785
1683643926.726,-33.691,-36.621,-25.879,-31.738
1683643926.730,-37.109,-21.973,-23.926,-36.621
1683643926.687,-33.691,-35.156,-17.578,-21.484
1683643926.691,-30.762,-33.203,-29.785,-23.438
1683643926.695,-42.969,-28.809,-34.180,-48.340
1683643926.699,-46.387,-19.531,-38.574,-44.922
1683643926.703,-42.480,-26.367,-28.320,-31.738
1683643926.707,-33.691,-35.645,-14.648,-32.227
1683643926.711,-28.320,-28.809,-20.996,-30.273
1683643926.714,-32.715,-32.715,-28.809,-27.344
1683643926.718,-36.621,-41.504,-24.414,-27.832
1683643926.722,-36.133,-43.457,-16.113,-29.785
1683643926.726,-33.691,-36.621,-25.879,-31.738
1683643926.730,-37.109,-21.973,-23.926,-36.621
1683643926.732,-35.156,-20.508,-30.762,-42.480
1683643926.736,-36.621,-29.785,-43.457,-37.109
1683643926.740,-41.992,-20.996,-30.762,-35.156
1683643926.744,-42.969,-29.297,-20.508,-40.039
1683643926.748,-42.480,-46.875,-28.809,-42.480
1683643926.752,-37.109,-41.504,-32.715,-41.992
1683643926.756,-31.250,-40.527,-32.227,-37.109
1683643926.759,-30.762,-34.180,-36.621,-35.645
1683643926.763,-37.109,-20.508,-34.668,-38.086
1683643926.767,-30.762,-26.367,-34.668,-34.668
1683643926.771,-27.832,-34.668,-30.762,-34.180
1683643926.775,-29.785,-38.086,-30.273,-37.598
1683643926.777,-25.879,-32.227,-21.484,-32.715
1683643926.781,-28.809,-22.461,-26.367,-27.344
1683643926.785,-20.508,-22.949,-26.367,-11.230
1683643926.789,-20.020,-14.160,-13.184,-6.348
1683643926.793,-41.016,-15.137,-23.438,-37.598
1683643926.797,-44.434,-21.484,-26.855,-40.039
1683643926.801,-40.527,-32.227,-20.508,-29.785
1683643926.804,-35.156,-40.039,-19.531,-21.484
1683643926.808,-29.297,-40.527,-13.672,-20.996
1683643926.812,-39.551,-29.297,-26.855,-35.156
1683643926.816,-42.969,-8.789,-27.344,-31.738
1683643926.820,-37.109,-8.789,-9.766,-28.809
1683643926.822,-30.762,-15.137,-20.508,-36.621
1683643926.826,-27.832,-18.066,-28.320,-37.598
1683643926.830,-31.250,-23.438,-30.273,-39.551
1683643926.834,-29.785,-20.996,-23.438,-40.527
1683643926.838,-15.625,-26.367,-5.859,-23.438
1683643926.842,-9.766,-37.109,-11.230,-17.578
1683643926.846,-26.855,-32.227,-22.949,-41.504
1683643926.849,-37.598,-14.648,-29.785,-50.293
1683643926.853,-41.016,-11.230,-32.715,-48.828
1683643926.857,-48.828,-28.320,-15.137,-51.758
1683643926.861,-52.246,-39.062,-5.371,-46.875
1683643926.865,-50.781,-45.410,-15.137,-45.898
1683643926.822,-30.762,-15.137,-20.508,-36.621
1683643926.826,-27.832,-18.066,-28.320,-37.598
1683643926.830,-31.250,-23.438,-30.273,-39.551
1683643926.834,-29.785,-20.996,-23.438,-40.527
1683643926.838,-15.625,-26.367,-5.859,-23.438
1683643926.842,-9.766,-37.109,-11.230,-17.578
1683643926.846,-26.855,-32.227,-22.949,-41.504
1683643926.849,-37.598,-14.648,-29.785,-50.293
1683643926.853,-41.016,-11.230,-32.715,-48.828
1683643926.857,-48.828,-28.320,-15.137,-51.758
1683643926.861,-52.246,-39.062,-5.371,-46.875
1683643926.865,-50.781,-45.410,-15.137,-45.898
1683643926.867,-52.246,-42.480,-32.227,-43.945
1683643926.871,-52.734,-47.363,-29.297,-40.527
1683643926.875,-52.246,-55.176,-16.113,-42.969
1683643926.879,-36.621,-31.738,-11.719,-24.902
1683643926.883,-28.320,-4.883,-19.043,-22.461
1683643926.887,-54.688,-13.184,-35.156,-46.875
1683643926.891,-64.941,-23.438,-38.086,-54.199
1683643926.894,-49.316,-22.461,-30.273,-45.410
1683643926.898,-39.062,-28.320,-23.438,-37.109
1683643926.902,-36.133,-41.504,-14.648,-31.738
1683643926.906,-41.016,-52.246,-18.066,-33.691
1683643926.910,-39.551,-32.227,-21.484,-35.645
1683643926.927,-38.086,-25.879,-23.438,-35.645
1683643926.931,-39.551,-40.039,-32.227,-38.086
1683643926.935,-30.273,-41.992,-30.762,-37.109
1683643926.939,-25.391,-25.879,-21.973,-33.203
1683643926.943,-32.715,-20.508,-17.090,-28.809
1683643926.947,-37.109,-21.484,-19.043,-36.133
1683643926.951,-27.832,-29.785,-12.695,-36.621
1683643926.954,-31.738,-38.086,-15.137,-35.645
1683643926.958,-20.508,-28.320,-7.324,-27.832
1683643926.962,-6.836,-29.785,1.465,-20.996
1683643926.966,-23.438,-39.062,-25.391,-32.227
1683643926.970,-35.645,-42.480,-30.273,-39.062
1683643926.972,-36.621,-26.367,-31.250,-39.062
1683643926.976,-28.809,-9.277,-30.762,-36.133
1683643926.980,-33.203,-17.090,-14.648,-33.691
1683643926.984,-34.180,-26.367,-4.883,-30.762
1683643926.988,-26.367,-43.945,-9.277,-27.344
1683643926.992,-28.320,-54.688,-21.973,-26.367
1683643926.996,-30.762,-41.016,-36.621,-25.879
1683643926.999,-27.344,-25.391,-19.043,-17.090
1683643927.003,-25.391,-16.113,-6.836,-19.531
1683643927.007,-35.645,-22.949,-28.809,-42.480
1683643927.011,-32.715,-31.250,-21.973,-39.062
1683643927.015,-35.156,-16.113,-15.137,-26.855
1683643927.017,-37.598,-21.973,-33.203,-32.227
1683643927.021,-31.250,-42.480,-28.320,-29.297
1683643927.025,-33.203,-31.250,-4.883,-26.855
1683643927.029,-36.621,-20.508,-14.160,-30.762
1683643927.033,-39.551,-35.156,-34.668,-37.109
1683643927.037,-29.297,-24.902,-17.090,-30.273
1683643927.041,-17.578,-20.020,-7.324,-25.391
1683643927.044,-32.715,-33.203,-23.438,-35.645
1683643927.048,-22.461,-20.020,-21.484,-29.297
1683643927.052,-9.766,-16.602,-34.180,-16.113
1683643927.056,-18.066,-33.203,-27.344,-15.137
1683643927.060,-24.902,-29.785,-5.371,-21.973
1683643927.062,-29.297,-17.090,-4.395,-27.832
1683643927.066,-26.367,-14.648,-10.742,-25.391
1683643927.070,-29.785,-24.414,-24.902,-26.855
1683643927.074,-38.574,-38.086,-25.879,-30.762
1683643927.078,-32.715,-37.109,-26.367,-24.414
1683643927.082,-31.250,-35.156,-26.855,-22.461
1683643927.086,-19.531,-40.039,-15.625,-18.555
1683643927.089,-19.531,-29.785,-26.367,-24.902
1683643927.093,-41.016,-22.949,-31.250,-44.434
1683643927.097,-48.828,-32.227,-36.621,-45.410
1683643927.101,-43.945,-18.066,-34.668,-39.062
1683643927.105,-43.945,-40.039,-20.996,-39.062
1683643927.107,-40.527,-56.152,-26.855,-32.227
1683643927.111,-31.738,-37.598,-21.484,-24.414
1683643927.115,-37.598,-35.156,-17.090,-31.738
1683643927.119,-35.156,-26.855,-4.883,-35.156
1683643927.123,-40.039,-12.207,-9.277,-41.504
1683643927.127,-53.711,-18.066,-33.691,-52.734
1683643927.131,-51.270,-33.203,-37.598,-45.410
1683643927.134,-46.875,-33.203,-30.762,-40.039
1683643927.138,-53.223,-22.949,-34.668,-46.875
1683643927.142,-49.805,-28.809,-30.273,-38.086
1683643927.146,-48.340,-41.992,-16.602,-35.156
1683643927.150,-50.781,-45.898,-16.602,-43.457
1683643927.197,-27.832,-25.879,-16.602,-29.785
1683643927.201,-29.785,-24.902,-15.625,-31.250
1683643927.205,-32.227,-26.855,-32.715,-35.645
1683643927.209,-26.367,-25.879,-25.391,-32.715
1683643927.213,-22.461,-24.902,-17.090,-24.902
1683643927.217,-31.250,-42.480,-31.250,-28.809
1683643927.221,-20.996,-27.832,-30.762,-16.602
1683643927.224,-17.578,-12.695,-23.438,-4.883
1683643927.228,-38.086,-15.137,-24.902,-24.414
1683643927.232,-37.109,-26.855,-34.668,-34.180
1683643927.236,-22.461,-45.898,-27.344,-23.438
1683643927.240,-27.344,-41.992,-33.203,-24.902
1683643927.242,-26.367,-33.691,-35.645,-24.902
1683643927.246,-18.066,-30.273,-20.508,-19.043
1683643927.250,-24.414,-6.348,-23.926,-22.461
1683643927.254,-20.020,1.465,-18.066,-17.090
1683643927.258,-20.020,-12.207,-6.836,-11.719
1683643927.262,-22.949,-20.996,-18.066,-8.301
1683643927.266,-25.879,-30.762,-29.297,-15.625
1683643927.269,-35.156,-35.156,-38.086,-32.715
1683643927.273,-34.668,-25.879,-30.273,-28.809
1683643927.277,-32.227,-21.484,-20.020,-23.926
1683643927.281,-27.344,-26.855,-32.227,-16.602
1683643927.285,-39.062,-33.203,-38.086,-27.344
1683643927.302,-45.898,-32.227,-30.762,-34.668
1683643927.306,-36.621,-27.832,-24.902,-27.832
1683643927.310,-41.504,-31.250,-27.832,-30.762
1683643927.314,-41.992,-21.484,-43.945,-31.250
1683643927.318,-28.809,-26.367,-46.875,-25.391
1683643927.322,-23.926,-45.410,-40.039,-23.438
1683643927.326,-27.344,-37.109,-27.832,-22.461
1683643927.329,-32.227,-20.996,-21.973,-21.484
1683643927.333,-31.250,-23.438,-34.180,-17.090
1683643927.337,-23.926,-31.250,-36.133,-11.230
1683643927.341,-20.508,-21.484,-22.949,-13.672
1683643927.345,-26.367,-18.555,-27.832,-19.043
1683643927.347,-37.109,-36.621,-33.203,-27.832
1683643927.351,-34.668,-39.062,-29.297,-28.809
1683643927.355,-31.738,-41.016,-27.344,-23.926
1683643927.359,-34.180,-46.387,-24.414,-28.809
1683643927.363,-38.086,-50.293,-38.574,-38.574
1683643927.367,-37.109,-28.809,-36.133,-35.645
1683643927.371,-24.414,-18.555,-22.461,-30.273
1683643927.374,-31.250,-26.855,-33.691,-33.203
1683643927.378,-41.016,-18.555,-43.945,-33.203
1683643927.382,-29.785,-36.621,-23.926,-24.414
1683643927.386,-29.785,-47.852,-13.672,-19.043
1683643927.390,-43.945,-50.293,-40.039,-34.668
1683643927.392,-46.875,-45.898,-41.992,-38.086
1683643927.396,-40.527,-33.691,-28.320,-30.762
1683643927.400,-36.621,-29.785,-20.996,-33.203
1683643927.404,-30.762,-16.602,-19.531,-39.062
1683643927.408,-27.344,-6.348,-20.996,-43.457
1683643927.412,-24.902,-15.625,-21.973,-33.691
1683643927.416,-24.414,-42.480,-27.344,-30.273
1683643927.419,-35.645,-41.016,-37.598,-40.039
1683643927.423,-38.086,-20.020,-39.551,-38.574
1683643927.427,-32.227,-9.766,-22.461,-26.855
1683643927.431,-38.574,-33.691,-25.391,-29.297
1683643927.435,-47.363,-50.293,-43.945,-37.598
1683643927.437,-45.898,-42.480,-34.668,-38.574
1683643927.441,-40.527,-32.715,-25.391,-39.062
1683643927.445,-45.410,-40.527,-37.598,-48.340
1683643927.449,-47.363,-46.875,-38.574,-50.293
1683643927.453,-43.945,-43.945,-41.992,-43.945
1683643927.457,-36.621,-43.945,-37.598,-45.898
1683643927.461,-25.879,-26.855,-34.180,-45.898
1683643927.464,-26.855,-23.438,-30.762,-43.457
1683643927.468,-40.527,-35.156,-31.250,-54.688
1683643927.472,-40.527,-37.598,-28.320,-56.641
1683643927.476,-32.715,-20.508,-23.926,-44.922
1683643927.480,-32.715,-30.273,-22.949,-34.180
1683643927.482,-33.203,-31.250,-22.949,-31.738
1683643927.486,-25.391,-20.996,-29.785,-30.762
1683643927.490,-26.855,-27.832,-34.668,-32.715
1683643927.494,-36.621,-27.344,-27.344,-38.086
1683643927.498,-39.551,-28.320,-20.020,-31.738
1683643927.502,-34.180,-32.227,-18.555,-29.297
1683643927.506,-27.832,-21.973,-11.230,-26.367
1683643927.509,-26.855,-21.484,-20.020,-22.949
1683643927.513,-36.621,-42.969,-38.086,-35.645
1683643927.517,-49.316,-40.527,-40.039,-44.922
1683643927.521,-33.691,-31.738,-31.738,-33.203
1683643927.525,-20.996,-39.062,-21.484,-21.973
1683643927.527,-26.855,-31.738,-27.344,-26.367
1683643927.531,-29.297,-17.578,-27.832,-26.367
1683643927.535,-33.203,-21.484,-16.113,-27.344
1683643927.539,-35.156,-29.297,-18.555,-34.180
1683643927.543,-27.832,-23.926,-21.484,-29.785
1683643927.547,-31.738,-37.109,-22.949,-35.156
1683643927.551,-39.551,-44.434,-23.926,-41.504
1683643927.554,-43.457,-38.086,-23.926,-37.109
1683643927.558,-41.504,-25.879,-31.738,-33.691
1683643927.562,-29.785,-24.902,-36.133,-31.250
1683643927.566,-23.438,-41.992,-30.273,-33.203
1683643927.570,-13.184,-29.297,-30.762,-25.879
1683643927.572,-20.508,-28.809,-32.227,-29.785
1683643927.576,-20.996,-34.180,-19.043,-30.273
1683643927.580,-9.277,-19.043,-21.973,-19.531
1683643927.584,-21.973,-25.879,-37.109,-35.156
1683643927.588,-32.715,-41.016,-34.180,-44.922
1683643927.592,-29.785,-28.809,-32.227,-41.992
1683643927.596,-24.414,-3.906,-36.621,-31.738
1683643927.599,-24.902,1.465,-32.227,-22.949
1683643927.603,-23.438,-21.973,-31.738,-27.344
1683643927.607,-9.277,-24.902,-21.484,-20.020
1683643927.611,-22.461,-24.414,-18.066,-25.879
1683643927.615,-43.457,-27.832,-28.320,-34.180
1683643927.617,-33.203,-24.902,-30.762,-24.902
1683643927.621,-27.832,-45.410,-32.227,-16.602
1683643927.625,-33.691,-35.156,-34.180,-13.184
1683643927.629,-39.551,-18.555,-34.180,-23.438
1683643927.633,-34.180,-28.809,-25.879,-25.391
1683643927.637,-30.762,-34.668,-38.086,-22.461
1683643927.641,-26.367,-41.016,-39.551,-26.367
1683643927.644,-17.090,-40.039,-30.762,-19.531
1683643927.648,-17.578,-38.086,-31.250,-15.625
1683643927.652,-24.902,-38.086,-41.016,-24.414
1683643927.656,-25.879,-31.250,-31.738,-25.391
1683643927.660,-21.973,-23.926,-26.367,-20.996
1683643927.677,-25.391,-31.738,-26.855,-25.391
1683643927.681,-24.902,-32.715,-17.578,-26.367
1683643927.685,-28.320,-20.020,-27.832,-26.367
1683643927.689,-36.621,-20.996,-34.180,-37.109
1683643927.693,-32.227,-35.645,-22.461,-39.062
1683643927.697,-28.320,-45.410,-23.926,-35.156
1683643927.701,-33.203,-41.016,-36.133,-35.156
1683643927.704,-34.668,-27.832,-40.527,-36.133
1683643927.708,-33.203,-37.109,-26.855,-37.109
1683643927.712,-30.273,-43.945,-38.574,-37.598
1683643927.716,-30.762,-30.762,-49.805,-35.645
1683643927.720,-45.410,-41.016,-41.016,-44.434
1683643927.722,-43.945,-36.621,-24.902,-47.363
1683643927.726,-28.320,-13.672,-6.348,-31.738
1683643927.730,-43.457,-20.020,-28.809,-42.480
1683643927.734,-57.129,-30.762,-52.734,-55.664
1683643927.738,-57.617,-26.367,-52.246,-51.270
1683643927.742,-54.199,-38.086,-55.664,-45.898
1683643927.746,-40.527,-45.410,-44.434,-38.574
1683643927.749,-36.621,-28.320,-29.297,-40.039
1683643927.753,-43.457,-17.090,-35.645,-41.016
1683643927.757,-42.969,-30.273,-35.645,-35.156
1683643927.761,-45.410,-31.250,-40.039,-31.250
1683643927.765,-47.363,-21.484,-34.180,-33.203
1683643927.767,-39.062,-36.133,-26.855,-36.133
1683643927.771,-39.062,-24.902,-39.551,-36.133
1683643927.775,-35.645,-24.902,-35.156,-32.227
1683643927.779,-35.156,-47.363,-28.809,-26.855
1683643927.783,-51.758,-51.758,-45.410,-45.898
1683643927.787,-52.734,-30.762,-41.992,-55.176
1683643927.791,-44.434,-19.531,-37.109,-43.457
1683643927.794,-47.852,-27.344,-42.480,-41.016
1683643927.798,-52.734,-33.691,-38.086,-41.504
1683643927.802,-46.875,-33.203,-43.457,-36.133
1683643927.806,-35.645,-20.508,-31.250,-25.391
1683643927.810,-24.902,-28.320,-18.555,-18.555
1683643927.812,-31.738,-42.969,-32.227,-28.809
1683643927.816,-45.898,-42.480,-27.832,-45.898
1683643927.820,-35.645,-25.391,-7.812,-37.109
1683643927.824,-35.645,-23.438,-23.926,-38.086
1683643927.828,-44.922,-23.438,-48.828,-49.316
1683643927.832,-42.969,-28.809,-51.270,-47.363
1683643927.836,-42.969,-44.434,-34.668,-42.480
1683643927.839,-38.086,-45.410,-17.578,-32.715
1683643927.843,-38.574,-36.621,-23.438,-36.133
1683643927.847,-41.016,-27.832,-28.809,-37.598
1683643927.851,-32.715,-28.809,-13.672,-28.809
1683643927.855,-32.227,-19.043,-11.719,-31.250
1683643927.857,-47.852,-8.789,-13.672,-39.062
1683643927.861,-43.457,-10.254,-7.324,-28.320
1683643927.865,-29.785,-9.277,-16.113,-26.855
1683643927.869,-38.086,-30.273,-40.039,-48.340
1683643927.873,-41.504,-44.434,-57.129,-50.781
1683643927.877,-35.645,-51.270,-49.316,-39.062
1683643927.881,-27.344,-58.594,-26.855,-33.691
1683643927.884,-30.273,-49.805,-18.555,-38.574
1683643927.888,-34.668,-19.043,-19.043,-40.039
1683643927.892,-35.645,0.000,-22.949,-39.062
1683643927.896,-39.062,-14.648,-29.785,-36.133
1683643927.900,-35.156,-38.574,-22.949,-25.879
1683643927.902,-27.344,-37.598,-15.137,-23.438
1683643927.906,-27.832,-28.809,-16.113,-29.297
1683643927.910,-17.090,-32.227,-14.160,-20.020
1683643927.914,-29.785,-34.180,-31.250,-24.414
1683643927.918,-49.316,-22.461,-52.734,-32.227
1683643927.922,-47.363,-24.414,-30.762,-32.227
1683643927.926,-46.387,-33.691,-20.996,-40.039
1683643927.929,-40.039,-27.832,-25.879,-32.715
1683643927.933,-41.504,-30.273,-21.973,-32.715
1683643927.937,-49.316,-38.086,-24.902,-38.574
1683643927.941,-50.293,-46.387,-16.113,-40.527
1683643927.945,-38.086,-42.480,-26.367,-35.645
1683643927.947,-31.738,-23.926,-25.879,-28.320
1683643927.951,-50.781,-35.645,-30.273,-49.316
1683643927.955,-59.082,-29.297,-47.852,-60.059
1683643927.959,-49.805,-23.926,-47.852,-53.223
1683643927.963,-43.457,-47.852,-30.762,-48.828
1683643927.967,-47.852,-47.363,-22.949,-48.828
1683643927.971,-41.504,-42.480,-31.738,-47.363
1683643927.974,-36.621,-60.059,-20.020,-43.945
1683643927.978,-36.133,-49.316,-18.066,-36.133
1683643927.982,-37.109,-19.531,-35.645,-37.598
1683643927.986,-48.340,-33.691,-36.133,-52.246
1683643927.990,-45.898,-36.621,-35.156,-41.992
1683643927.992,-33.203,-22.461,-29.297,-24.902
1683643927.996,-44.922,-37.598,-34.668,-34.668
1683643928.000,-47.363,-43.945,-52.246,-39.062
1683643928.004,-42.969,-38.574,-41.504,-32.227
1683643928.008,-43.457,-41.992,-13.672,-24.414
1683643928.012,-46.875,-42.969,-20.020,-32.715
1683643928.016,-51.270,-41.016,-35.156,-34.668
1683643928.019,-44.922,-51.758,-30.762,-28.809
1683643928.023,-38.574,-64.941,-27.344,-29.785
1683643928.027,-41.016,-43.457,-30.762,-31.738
1683643928.031,-45.410,-40.039,-40.527,-37.109
1683643928.035,-42.480,-60.547,-44.922,-41.504
1683643928.052,-31.250,-62.500,-27.832,-41.992
1683643928.056,-34.668,-56.152,-24.414,-41.992
1683643928.060,-38.086,-40.039,-27.832,-31.738
1683643928.064,-27.832,-33.203,-29.785,-19.043
1683643928.068,-44.922,-40.039,-37.109,-33.691
1683643928.072,-57.129,-41.992,-32.715,-41.504
1683643928.076,-52.246,-47.852,-38.574,-36.621
1683643928.079,-40.527,-52.246,-38.574,-33.691
1683643928.083,-29.785,-57.129,-22.949,-28.320
1683643928.087,-36.133,-62.012,-28.809,-29.297
1683643928.091,-25.879,-54.199,-26.855,-24.902
1683643928.095,-14.648,-48.340,-31.250,-23.438
1683643928.097,-21.973,-37.598,-50.781,-33.691
1683643928.101,-25.391,-27.344,-34.180,-27.344
1683643928.105,-21.973,-24.902,-14.648,-20.020
1683643928.109,-36.621,-36.133,-23.438,-37.598
1683643928.113,-46.387,-47.363,-27.832,-47.363
1683643928.117,-45.410,-51.758,-30.762,-41.016
1683643928.121,-48.340,-55.664,-32.227,-33.691
1683643928.124,-51.758,-55.176,-33.691,-33.691
1683643928.128,-44.922,-63.965,-33.203,-36.133
1683643928.132,-39.551,-51.270,-38.086,-37.598
1683643928.136,-35.645,-41.016,-41.504,-35.156
1683643928.140,-38.086,-50.293,-38.086,-30.273
1683643928.142,-39.551,-35.645,-27.344,-22.461
1683643928.146,-37.598,-36.621,-26.855,-24.902
1683643928.150,-40.039,-41.992,-29.297,-34.668
1683643928.154,-36.621,-31.250,-26.367,-35.645
1683643928.158,-40.527,-41.016,-31.250,-38.574
1683643928.162,-32.227,-44.922,-25.391,-31.250
1683643928.166,-34.180,-39.551,-33.691,-30.762
1683643928.169,-46.387,-48.340,-52.246,-41.016
1683643928.173,-32.715,-56.641,-40.039,-31.738
1683643928.177,-28.320,-50.781,-29.785,-25.879
1683643928.181,-38.086,-28.809,-32.715,-36.133
1683643928.185,-36.133,-24.902,-31.738,-32.715
1683643928.187,-28.320,-31.738,-33.691,-27.344
1683643928.191,-39.551,-40.527,-38.574,-41.504
1683643928.195,-47.363,-45.410,-29.785,-43.945
1683643928.199,-40.039,-47.363,-26.367,-36.133
1683643928.203,-40.527,-63.965,-29.297,-38.086
1683643928.207,-37.598,-70.312,-24.414,-40.039
1683643928.211,-38.574,-48.828,-20.996,-36.621
1683643928.214,-46.875,-33.691,-31.250,-39.062
1683643928.218,-40.039,-36.133,-35.645,-35.156
1683643928.222,-23.438,-36.621,-29.785,-20.020
1683643928.226,-25.879,-36.133,-32.227,-25.391
1683643928.230,-44.434,-36.621,-37.109,-45.898
1683643928.232,-38.086,-37.598,-40.527,-39.551
1683643928.236,-35.645,-44.922,-27.832,-31.738
1683643928.240,-40.527,-49.805,-19.043,-32.715
1683643928.244,-33.203,-42.969,-20.996,-28.809
1683643928.248,-28.809,-30.273,-17.578,-31.250
1683643928.252,-24.902,-40.039,-26.855,-30.273
1683643928.256,-34.668,-32.715,-43.457,-36.133
1683643928.259,-37.109,-26.367,-34.180,-39.062
1683643928.263,-25.391,-19.531,-27.832,-32.227
1683643928.267,-44.434,-28.320,-41.504,-50.293
1683643928.271,-48.340,-49.316,-38.574,-50.293
1683643928.275,-37.598,-45.898,-42.969,-37.109
1683643928.277,-41.504,-36.621,-35.156,-39.551
1683643928.281,-42.480,-32.227,-17.090,-41.016
1683643928.285,-31.250,-36.621,-20.020,-33.691
1683643928.289,-21.973,-39.551,-27.344,-27.344
1683643928.293,-33.203,-31.738,-34.668,-41.992
1683643928.297,-31.738,-17.578,-25.879,-50.293
1683643928.301,-26.367,-19.043,-19.531,-43.457
1683643928.304,-30.273,-25.391,-29.785,-41.016
1683643928.308,-24.902,-24.414,-33.203,-35.156
1683643928.312,-38.574,-35.156,-40.527,-47.363
1683643928.316,-45.410,-51.270,-40.039,-52.246
1683643928.320,-43.457,-41.016,-32.227,-45.898
1683643928.322,-52.246,-25.879,-40.527,-46.875
1683643928.326,-51.270,-25.879,-40.039,-44.922
1683643928.330,-43.945,-40.527,-28.809,-41.016
1683643928.334,-41.016,-39.062,-29.297,-34.180
1683643928.338,-40.039,-31.738,-27.832,-28.809
1683643928.342,-41.016,-26.367,-27.832,-26.367
1683643928.346,-41.992,-22.949,-48.340,-36.621
1683643928.349,-41.504,-44.434,-60.547,-41.016
1683643928.353,-45.410,-40.527,-34.180,-34.180
1683643928.357,-50.293,-23.926,-19.531,-37.109
1683643928.361,-54.688,-31.250,-33.203,-42.969
1683643928.365,-46.387,-30.762,-22.949,-29.785
1683643928.367,-45.410,-19.531,-16.602,-29.785
1683643928.371,-58.105,-29.785,-36.133,-49.805
1683643928.375,-67.383,-58.105,-40.527,-55.176
1683643928.379,-62.988,-47.363,-31.738,-52.246
1683643928.383,-51.270,-26.855,-18.555,-44.434
1683643928.387,-53.711,-27.344,-30.762,-43.945
1683643928.391,-44.434,-7.812,-46.875,-39.062
1683643928.394,-41.504,-10.254,-39.551,-38.086
1683643928.398,-42.969,-40.039,-18.555,-43.457
1683643928.402,-33.203,-42.480,-20.020,-42.969
1683643928.406,-41.016,-40.039,-41.016,-50.781
1683643928.410,-46.875,-39.062,-36.133,-46.875
1683643928.427,-39.062,-28.809,-22.949,-31.250
1683643928.431,-33.203,-20.508,-22.461,-31.738
1683643928.435,-34.180,-28.809,-29.297,-34.180
1683643928.439,-32.715,-23.438,-26.855,-27.832
1683643928.443,-29.785,-17.578,-24.902,-24.414
1683643928.447,-33.203,-25.879,-25.879,-25.879
1683643928.451,-35.156,-25.879,-22.949,-25.391
1683643928.454,-28.809,-19.043,-26.855,-28.809
1683643928.458,-28.320,-35.156,-31.738,-34.180
1683643928.462,-29.785,-56.641,-27.832,-28.320
1683643928.466,-23.926,-33.203,-20.508,-21.484
1683643928.470,-34.668,-17.578,-30.762,-36.133
1683643928.472,-41.992,-29.785,-38.574,-44.922
1683643928.476,-39.551,-41.016,-41.504,-39.062
1683643928.480,-41.504,-40.039,-50.781,-36.621
1683643928.484,-41.016,-35.156,-35.645,-36.621
1683643928.488,-38.574,-37.109,-25.879,-34.668
1683643928.492,-32.715,-33.203,-22.461,-28.809
1683643928.496,-31.250,-39.062,-26.367,-28.320
1683643928.499,-41.992,-40.527,-30.762,-35.645
1683643928.503,-40.039,-10.742,-19.043,-35.156
1683643928.507,-31.250,-23.438,-20.996,-31.250
1683643928.511,-30.273,-32.227,-20.020,-34.668
1683643928.515,-26.855,-21.973,-27.344,-33.691
1683643928.517,-31.250,-43.945,-34.668,-36.133
1683643928.521,-36.133,-42.480,-36.621,-37.598
1683643928.525,-40.527,-27.344,-36.621,-38.086
1683643928.529,-39.551,-41.016,-34.180,-35.156
1683643928.533,-26.367,-35.156,-22.949,-23.438
1683643928.537,-23.926,-16.602,-23.926,-23.438
1683643928.541,-43.945,-30.762,-36.621,-37.109
1683643928.544,-55.176,-38.574,-27.832,-45.410
1683643928.548,-47.852,-43.457,-40.527,-37.598
1683643928.552,-41.016,-46.875,-52.246,-33.691
1683643928.556,-35.156,-32.715,-42.969,-31.738
1683643928.560,-33.203,-28.809,-41.992,-28.320
1683643928.562,-29.297,-28.809,-30.762,-20.508
1683643928.566,-29.297,-35.645,-24.902,-22.949
1683643928.570,-21.973,-27.832,-23.926,-22.461
1683643928.574,-17.578,-15.625,-26.855,-19.531
1683643928.578,-29.785,-18.555,-30.273,-27.832
1683643928.582,-36.133,-28.320,-29.297,-26.367
1683643928.586,-34.668,-32.715,-23.926,-25.391
1683643928.589,-22.949,-35.645,-14.648,-22.949
1683643928.593,-23.438,-55.664,-18.555,-27.344
1683643928.597,-40.527,-49.805,-19.531,-31.250
1683643928.601,-43.945,-33.203,-27.832,-33.691
1683643928.605,-35.645,-28.320,-30.762,-34.180
1683643928.607,-33.203,-17.090,-27.832,-21.973
1683643928.611,-26.367,-10.742,-37.598,-11.719
1683643928.615,-20.508,-21.973,-28.809,-14.160
1683643928.619,-33.203,-42.480,-16.113,-24.902
1683643928.623,-37.109,-41.504,-11.719,-31.738
1683643928.627,-31.738,-18.066,-20.020,-27.832
1683643928.631,-32.227,-21.484,-25.391,-30.273
1683643928.634,-35.156,-29.785,-33.691,-36.133
1683643928.638,-37.598,-17.578,-29.297,-35.645
1683643928.642,-34.668,-10.254,-17.578,-38.574
1683643928.646,-27.832,-10.742,-21.484,-36.133
1683643928.650,-27.832,-19.531,-17.090,-28.809
1683643928.652,-41.992,-45.898,-32.715,-45.410
1683643928.656,-57.129,-41.016,-42.969,-58.594
1683643928.660,-49.805,-41.016,-45.410,-46.387
1683643928.664,-48.828,-56.641,-42.480,-39.062
1683643928.668,-51.758,-41.504,-24.902,-41.016
1683643928.672,-41.504,-17.578,-26.855,-45.898
1683643928.676,-35.645,-10.254,-37.109,-44.922
1683643928.679,-40.039,-27.344,-25.879,-42.969
1683643928.683,-40.039,-35.156,-22.461,-45.898
1683643928.687,-31.738,-29.785,-39.551,-45.898
1683643928.691,-24.902,-29.785,-38.086,-40.039
1683643928.695,-29.785,-37.109,-29.297,-37.109
1683643928.697,-35.645,-29.297,-27.344,-44.434
1683643928.701,-30.762,-20.996,-33.203,-40.527
1683643928.705,-26.855,-26.855,-33.203,-38.574
1683643928.709,-26.367,-23.438,-15.625,-37.109
1683643928.713,-48.340,-18.555,-42.480,-46.387
1683643928.717,-64.453,-26.367,-55.176,-58.105
1683643928.721,-56.641,-41.504,-37.109,-48.340
1683643928.724,-45.410,-48.828,-34.668,-38.086
1683643928.728,-49.316,-36.621,-34.668,-43.945
1683643928.732,-46.875,-19.531,-32.227,-39.062
1683643928.736,-38.574,-11.230,-26.367,-31.250
1683643928.740,-42.969,-30.762,-27.344,-37.109
1683643928.742,-41.504,-43.457,-22.949,-38.086
1683643928.746,-36.133,-31.738,-24.902,-38.574
1683643928.750,-28.809,-35.645,-29.785,-26.855
1683643928.754,-40.039,-31.250,-41.016,-31.250
1683643928.758,-54.199,-34.668,-41.992,-58.594
1683643928.762,-51.758,-34.668,-34.180,-61.035
1683643928.766,-59.570,-30.762,-40.039,-61.035
1683643928.769,-52.734,-35.156,-35.645,-58.594
1683643928.773,-34.668,-25.391,-23.438,-42.480
1683643928.777,-42.480,-19.043,-29.785,-39.062
1683643928.781,-48.828,-47.852,-37.109,-40.039
1683643928.785,-44.922,-60.547,-25.391,-44.922
1683643928.802,-51.758,-31.738,-21.973,-53.223
1683643928.806,-54.688,-23.926,-28.809,-52.246
1683643928.810,-47.363,-33.691,-29.297,-48.340
1683643928.814,-46.387,-31.738,-34.668,-48.340
1683643928.818,-45.898,-31.738,-42.969,-44.434
1683643928.822,-51.270,-29.297,-42.480,-38.086
1683643928.826,-44.922,-32.227,-44.922,-37.109
1683643928.829,-34.668,-40.527,-38.086,-34.180
1683643928.833,-39.551,-44.434,-24.902,-39.062
1683643928.837,-34.668,-35.645,-24.414,-29.785
1683643928.841,-31.250,-20.996,-36.621,-25.391
1683643928.845,-45.898,-20.996,-37.598,-41.016
1683643928.847,-50.293,-13.672,-22.461,-38.574
1683643928.851,-39.062,-23.438,-24.902,-37.109
1683643928.855,-39.551,-45.410,-34.180,-47.363
1683643928.859,-39.062,-30.762,-24.414,-39.062
1683643928.863,-30.273,-22.461,-23.438,-29.785
1683643928.867,-30.273,-30.273,-24.414,-35.645
1683643928.871,-27.344,-22.461,-34.668,-32.227
1683643928.874,-27.344,-35.156,-55.176,-30.273
1683643928.878,-39.062,-46.875,-55.176,-39.551
1683643928.882,-40.039,-31.250,-42.480,-41.992
1683643928.886,-33.691,-41.016,-31.738,-35.645
1683643928.890,-33.691,-37.598,-27.832,-36.133
1683643928.892,-29.297,-20.020,-24.414,-34.180
1683643928.896,-19.531,-21.484,-22.949,-21.973
1683643928.900,-23.438,-20.020,-25.391,-29.785
1683643928.904,-24.902,-18.066,-35.156,-36.621
1683643928.908,-17.090,-31.738,-28.320,-30.273
1683643928.912,-20.508,-52.246,-23.926,-26.855
1683643928.916,-26.855,-43.945,-50.293,-24.414
1683643928.919,-28.809,-27.344,-46.875,-27.344
1683643928.923,-20.508,-20.020,-19.043,-21.973
1683643928.927,-14.648,-17.090,-15.625,-17.090
1683643928.931,-16.113,-22.949,-28.320,-19.043
1683643928.935,-27.832,-36.621,-35.645,-22.461
1683643928.937,-29.785,-28.320,-23.438,-24.414
1683643928.941,-23.926,-21.973,-28.320,-26.855
1683643928.945,-34.668,-45.898,-46.387,-32.227
1683643928.949,-40.039,-52.246,-50.293,-35.156
1683643928.953,-36.133,-36.621,-27.832,-41.992
1683643928.957,-32.715,-27.344,-6.348,-47.852
1683643928.961,-29.297,-32.227,-11.719,-41.504
1683643928.964,-24.414,-26.367,-21.484,-35.156
1683643928.968,-28.320,-15.137,-27.344,-41.504
1683643928.972,-29.785,-26.367,-29.785,-40.039
1683643928.976,-31.250,-47.363,-35.645,-35.645
1683643928.980,-32.227,-43.457,-36.621,-38.574
1683643928.982,-24.414,-28.809,-22.949,-26.855
1683643928.986,-37.109,-49.805,-26.367,-32.227
1683643928.990,-44.434,-46.387,-32.227,-42.480
1683643928.994,-21.973,0.977,-11.719,-27.344
1683643928.998,-29.297,6.836,-16.602,-33.203
1683643929.002,-46.387,-18.066,-32.227,-41.992
1683643929.006,-37.598,-22.949,-24.414,-37.109
1683643929.009,-27.832,-42.480,-32.227,-26.367
1683643929.013,-32.227,-62.012,-41.016,-22.461
1683643929.017,-35.645,-42.969,-32.715,-32.227
1683643929.021,-27.344,-30.762,-17.090,-32.715
1683643929.025,-28.809,-34.668,-15.625,-24.902
1683643929.027,-36.621,-34.180,-34.180,-23.438
1683643929.031,-31.250,-34.668,-13.672,-15.625
1683643929.035,-26.367,-35.645,-17.578,-13.184
1683643929.039,-35.645,-26.855,-33.691,-32.227
1683643929.043,-32.227,-17.090,-18.555,-29.785
1683643929.047,-30.762,-20.508,-16.602,-20.020
1683643929.051,-38.086,-47.363,-23.438,-24.902
1683643929.054,-40.039,-50.781,-25.879,-25.391
1683643929.058,-41.504,-35.645,-28.320,-32.715
1683643929.062,-42.480,-49.805,-41.016,-41.016
1683643929.066,-43.457,-35.156,-42.480,-34.180
1683643929.070,-44.922,-22.949,-36.133,-32.227
1683643929.072,-41.992,-38.086,-25.391,-36.133
1683643929.076,-41.504,-29.785,-22.461,-38.574
1683643929.080,-33.691,-16.602,-18.555,-29.785
1683643929.084,-23.438,-27.832,-20.996,-23.926
1683643929.088,-21.973,-29.297,-27.832,-26.855
1683643929.092,-24.902,-25.391,-25.879,-25.391
1683643929.096,-25.391,-32.715,-34.180,-19.531
1683643929.099,-30.273,-40.527,-35.156,-19.043
1683643929.103,-23.926,-37.598,-23.926,-13.184
1683643929.107,-15.625,-16.113,-11.719,0.000
1683643929.111,-40.039,-33.203,-27.344,-17.578
1683643929.115,-50.293,-50.781,-41.992,-31.738
1683643929.072,-41.992,-38.086,-25.391,-36.133
1683643929.076,-41.504,-29.785,-22.461,-38.574
1683643929.080,-33.691,-16.602,-18.555,-29.785
1683643929.084,-23.438,-27.832,-20.996,-23.926
1683643929.088,-21.973,-29.297,-27.832,-26.855
1683643929.092,-24.902,-25.391,-25.879,-25.391
1683643929.096,-25.391,-32.715,-34.180,-19.531
1683643929.099,-30.273,-40.527,-35.156,-19.043
1683643929.103,-23.926,-37.598,-23.926,-13.184
1683643929.107,-15.625,-16.113,-11.719,0.000
1683643929.111,-40.039,-33.203,-27.344,-17.578
1683643929.115,-50.293,-50.781,-41.992,-31.738
1683643929.117,-41.016,-43.457,-40.039,-25.391
1683643929.121,-33.691,-32.227,-34.180,-23.926
1683643929.125,-20.508,-13.672,-23.438,-17.578
1683643929.129,-39.551,-19.043,-30.762,-32.227
1683643929.133,-41.992,-33.203,-21.973,-33.691
1683643929.137,-36.621,-42.969,-18.066,-32.227
1683643929.141,-43.457,-38.086,-36.133,-34.180
1683643929.144,-34.180,-31.250,-43.457,-30.273
1683643929.148,-30.273,-38.086,-35.645,-29.785
1683643929.152,-37.109,-27.832,-28.809,-26.855
1683643929.156,-30.762,-24.902,-20.508,-29.785
1683643929.160,-29.297,-34.668,-27.344,-30.762
1683643929.177,-36.133,-23.926,-46.875,-29.297
1683643929.181,-28.320,-22.949,-44.922,-26.855
1683643929.185,-22.461,-30.273,-26.855,-25.879
1683643929.189,-30.273,-34.180,-20.996,-31.738
1683643929.193,-34.668,-28.320,-23.926,-29.785
1683643929.197,-32.715,-11.719,-29.297,-27.344
1683643929.201,-31.738,-26.855,-42.969,-28.320
1683643929.204,-31.250,-40.527,-52.246,-31.738
1683643929.208,-28.320,-28.320,-36.133,-26.855
1683643929.212,-34.668,-38.574,-28.809,-32.227
1683643929.216,-36.621,-41.992,-41.992,-40.527
1683643929.220,-33.691,-31.738,-54.199,-40.039
1683643929.222,-41.992,-38.574,-48.828,-41.504
1683643929.226,-44.434,-31.250,-42.480,-37.598
1683643929.230,-42.969,-28.809,-43.457,-42.480
1683643929.234,-47.363,-34.668,-43.945,-52.734
1683643929.238,-51.270,-20.508,-49.316,-52.734
1683643929.242,-44.434,-27.344,-47.852,-47.852
1683643929.246,-35.645,-43.457,-47.852,-46.387
1683643929.249,-34.180,-36.621,-36.133,-46.875
1683643929.253,-43.945,-44.434,-39.062,-50.781
1683643929.257,-52.246,-47.363,-41.992,-52.734
1683643929.261,-46.387,-49.805,-39.551,-50.293
1683643929.265,-44.922,-58.594,-54.199,-51.758
1683643929.222,-41.992,-38.574,-48.828,-41.504
1683643929.226,-44.434,-31.250,-42.480,-37.598
1683643929.230,-42.969,-28.809,-43.457,-42.480
1683643929.234,-47.363,-34.668,-43.945,-52.734
1683643929.238,-51.270,-20.508,-49.316,-52.734
1683643929.242,-44.434,-27.344,-47.852,-47.852
1683643929.246,-35.645,-43.457,-47.852,-46.387
1683643929.249,-34.180,-36.621,-36.133,-46.875
1683643929.253,-43.945,-44.434,-39.062,-50.781
1683643929.257,-52.246,-47.363,-41.992,-52.734
1683643929.261,-46.387,-49.805,-39.551,-50.293
1683643929.265,-44.922,-58.594,-54.199,-51.758
1683643929.267,-49.805,-35.156,-54.688,-46.875
1683643929.271,-48.828,-28.809,-47.363,-44.434
1683643929.275,-42.969,-44.922,-45.410,-42.969
1683643929.279,-35.156,-41.504,-29.785,-36.621
1683643929.283,-35.645,-27.832,-22.949,-41.992
1683643929.287,-22.949,-27.832,-34.668,-31.250
1683643929.291,-16.113,-22.949,-41.992,-30.762
1683643929.294,-22.949,-20.020,-34.180,-40.039
1683643929.298,-16.602,-19.043,-26.367,-28.809
1683643929.302,-17.090,-6.836,-21.973,-19.043
1683643929.306,-35.156,-17.578,-26.855,-31.738
1683643929.310,-39.551,-31.738,-24.902,-32.715
1683643929.312,-40.039,-34.180,-30.273,-28.320
1683643929.316,-38.574,-31.738,-37.109,-24.414
1683643929.320,-26.855,-35.645,-36.621,-8.301
1683643929.324,-24.902,-41.992,-28.320,-14.648
1683643929.328,-33.203,-33.203,-21.484,-30.273
1683643929.332,-33.203,-20.020,-36.133,-25.879
1683643929.336,-35.645,-14.160,-39.062,-29.785
1683643929.339,-44.922,-26.855,-34.180,-44.434
1683643929.343,-40.039,-37.109,-34.180,-40.527
1683643929.347,-31.250,-36.621,-32.715,-26.367
1683643929.351,-34.180,-20.508,-23.926,-28.809
1683643929.355,-38.086,-20.508,-25.879,-31.738
1683643929.357,-41.504,-32.227,-40.039,-28.809
1683643929.361,-39.062,-25.879,-36.133,-24.902
1683643929.365,-35.645,-29.785,-41.992,-23.926
1683643929.369,-23.438,-20.020,-34.668,-17.090
1683643929.373,-25.391,-16.113,-20.020,-18.066
1683643929.377,-47.363,-43.457,-46.875,-42.480
1683643929.381,-42.480,-44.434,-49.316,-39.062
1683643929.384,-36.133,-43.457,-41.016,-31.738
1683643929.388,-40.039,-43.457,-56.152,-37.109
1683643929.392,-40.039,-31.738,-43.945,-41.016
1683643929.396,-40.039,-22.949,-41.504,-40.039
1683643929.400,-38.574,-25.879,-53.711,-31.738
1683643929.402,-34.668,-29.297,-48.828,-25.391
1683643929.406,-42.480,-31.250,-41.504,-35.156
1683643929.410,-41.504,-42.969,-42.480,-43.945
1683643929.414,-42.480,-51.270,-47.363,-37.109
1683643929.418,-42.480,-37.598,-57.617,-34.668
1683643929.422,-39.062,-33.691,-51.758,-37.109
1683643929.426,-37.109,-25.391,-34.180,-29.297
1683643929.429,-40.039,-20.020,-59.570,-27.344
1683643929.433,-44.434,-13.672,-54.688,-27.344
1683643929.437,-43.457,-18.555,-22.949,-28.320
1683643929.441,-43.457,-30.273,-35.156,-33.691
1683643929.445,-47.363,-47.852,-53.223,-34.668
1683643929.447,-48.340,-46.875,-62.012,-42.969
1683643929.451,-50.293,-26.855,-58.594,-47.852
1683643929.455,-57.129,-40.039,-61.035,-46.387
1683643929.459,-57.617,-40.527,-70.312,-45.898
1683643929.463,-49.316,-31.250,-54.199,-37.598
1683643929.467,-43.457,-39.551,-45.410,-33.203
1683643929.471,-55.664,-46.387,-60.547,-47.363
1683643929.474,-64.941,-49.805,-74.219,-52.734
1683643929.478,-59.570,-63.965,-67.871,-49.316
1683643929.482,-57.617,-44.922,-57.617,-51.758
1683643929.486,-49.316,-21.973,-52.734,-41.016
1683643929.490,-42.969,-29.785,-46.875,-38.086
1683643929.492,-50.293,-25.879,-49.316,-43.945
1683643929.496,-43.457,-21.484,-60.059,-37.598
1683643929.500,-35.645,-26.855,-56.152,-28.809
1683643929.504,-45.898,-38.086,-46.875,-33.203
1683643929.508,-51.758,-53.711,-49.316,-33.203
1683643929.512,-50.293,-46.387,-51.270,-33.691
1683643929.516,-50.781,-40.039,-43.945,-42.480
1683643929.519,-43.457,-45.898,-39.062,-37.598
1683643929.523,-45.410,-40.527,-49.805,-38.086
1683643929.527,-52.246,-25.879,-49.805,-45.898
1683643929.531,-49.316,-28.809,-54.688,-41.992
1683643929.535,-49.316,-34.668,-54.199,-35.156
1683643929.552,-43.945,-25.879,-36.133,-32.715
1683643929.556,-40.039,-29.297,-38.086,-38.086
1683643929.560,-46.387,-34.180,-53.223,-43.457
1683643929.564,-51.270,-41.504,-59.570,-41.016
1683643929.568,-50.293,-41.016,-47.363,-36.621
1683643929.572,-47.363,-34.180,-31.738,-28.809
1683643929.576,-39.062,-38.574,-34.668,-22.949
1683643929.579,-41.504,-29.297,-49.316,-30.762
1683643929.583,-44.922,-29.297,-56.152,-30.273
1683643929.587,-43.945,-41.504,-54.199,-24.414
1683643929.591,-35.645,-37.598,-50.293,-20.508
1683643929.595,-21.973,-29.785,-44.434,-16.113
1683643929.597,-30.273,-32.715,-47.363,-20.508
1683643929.601,-36.621,-23.926,-48.828,-24.902
1683643929.605,-30.762,-35.645,-42.969,-19.043
1683643929.609,-29.785,-41.992,-51.758,-20.996
1683643929.613,-24.414,-24.414,-44.922,-25.391
1683643929.617,-23.926,-30.762,-36.621,-30.273
1683643929.621,-27.344,-41.016,-41.016,-30.273
1683643929.624,-25.879,-32.227,-40.527,-28.809
1683643929.628,-26.367,-22.949,-38.574,-27.832
1683643929.632,-33.203,-22.949,-28.809,-26.367
1683643929.636,-34.180,-28.809,-27.344,-26.367
1683643929.640,-29.297,-41.992,-32.715,-22.461
1683643929.642,-30.273,-49.805,-37.109,-20.508
1683643929.646,-32.715,-40.039,-31.250,-20.020
1683643929.650,-30.762,-31.250,-21.973,-20.020
1683643929.654,-25.879,-28.809,-21.973,-18.066
1683643929.658,-41.992,-28.320,-39.551,-36.621
1683643929.662,-53.223,-31.738,-44.922,-47.852
1683643929.666,-45.898,-24.902,-32.227,-39.551
1683643929.669,-39.062,-22.461,-30.762,-34.668
1683643929.673,-38.086,-34.180,-46.875,-40.527
1683643929.677,-35.645,-31.250,-46.875,-38.086
1683643929.681,-35.156,-38.086,-30.762,-32.227
1683643929.685,-32.715,-40.527,-27.344,-22.461
1683643929.687,-36.133,-36.133,-13.672,-24.414
1683643929.691,-32.715,-37.598,-8.789,-25.391
1683643929.695,-24.414,-31.250,-16.113,-23.438
1683643929.699,-37.598,-34.668,-33.203,-35.156
1683643929.703,-40.039,-44.922,-40.039,-27.344
1683643929.707,-28.809,-38.574,-30.273,-21.973
1683643929.711,-25.391,-22.461,-31.738,-24.902
1683643929.714,-25.391,-29.297,-41.016,-20.996
1683643929.718,-21.973,-33.691,-37.109,-14.648
1683643929.722,-23.438,-37.598,-16.113,-18.066
1683643929.726,-29.297,-38.086,-11.230,-16.113
1683643929.730,-25.391,-29.297,-16.113,-9.277
1683643929.732,-30.273,-28.320,-23.926,-18.555
1683643929.736,-31.250,-36.621,-25.879,-10.742
1683643929.740,-26.855,-46.875,-23.926,-7.324
1683643929.744,-30.762,-44.434,-27.344,-15.625
1683643929.748,-33.203,-37.109,-29.297,-17.578
1683643929.752,-25.879,-39.551,-34.180,-15.137
1683643929.756,-30.762,-35.156,-36.133,-21.973
1683643929.759,-34.180,-21.973,-27.832,-29.785
1683643929.763,-27.344,-34.668,-15.137,-22.949
1683643929.767,-28.809,-59.082,-16.602,-22.949
1683643929.771,-26.855,-39.551,-32.227,-23.926
1683643929.775,-30.273,-31.738,-30.762,-27.832
1683643929.777,-34.180,-41.016,-24.902,-31.738
1683643929.781,-27.344,-25.879,-14.160,-22.949
1683643929.785,-20.508,-18.066,-2.441,-11.719
1683643929.789,-30.273,-20.996,-23.926,-22.461
1683643929.793,-46.875,-31.738,-48.340,-42.480
1683643929.797,-51.270,-46.387,-42.480,-42.480
1683643929.801,-42.480,-32.715,-32.227,-32.715
1683643929.804,-37.598,-30.273,-23.438,-38.086
1683643929.808,-31.250,-44.434,-20.508,-34.668
1683643929.812,-30.762,-36.133,-37.109,-28.320
1683643929.816,-40.527,-29.297,-28.809,-32.715
1683643929.820,-32.715,-35.156,-21.973,-30.762
1683643929.822,-28.809,-38.086,-36.621,-34.180
1683643929.826,-25.391,-12.207,-29.785,-26.367
1683643929.830,-28.320,-12.207,-31.250,-28.320
1683643929.834,-43.457,-52.734,-44.434,-47.363
1683643929.838,-41.016,-46.387,-27.832,-44.434
1683643929.842,-34.180,-38.574,-19.531,-40.527
1683643929.846,-33.691,-36.133,-30.273,-38.086
1683643929.849,-37.598,-13.672,-31.738,-40.039
1683643929.853,-36.621,-9.766,-30.762,-37.109
1683643929.857,-44.434,-29.297,-26.855,-41.992
1683643929.861,-48.340,-39.551,-22.949,-45.898
1683643929.865,-45.898,-32.227,-24.414,-42.969
1683643929.867,-47.852,-28.809,-18.066,-42.480
1683643929.871,-38.086,-33.203,-17.090,-35.645
1683643929.875,-35.156,-47.852,-20.020,-40.527
1683643929.879,-34.180,-31.738,-19.043,-39.062
1683643929.883,-28.320,-24.902,-17.090,-31.738
1683643929.887,-32.227,-26.367,-27.832,-41.016
1683643929.891,-31.738,-28.809,-33.203,-39.062
1683643929.894,-21.973,-40.527,-40.039,-35.645
1683643929.898,-29.785,-42.969,-29.785,-44.434
1683643929.902,-41.504,-35.645,-10.254,-49.805
1683643929.906,-40.527,-36.621,-12.695,-50.293
1683643929.910,-45.410,-47.363,-19.531,-44.922
1683643929.927,-40.527,-33.203,-22.461,-33.203
1683643929.931,-27.832,-17.578,-20.020,-28.809
1683643929.935,-40.527,-29.297,-24.414,-41.992
1683643929.939,-54.199,-48.340,-28.320,-56.152
1683643929.943,-51.270,-44.434,-24.902,-55.176
1683643929.947,-50.293,-40.527,-30.273,-51.758
1683643929.951,-48.828,-35.645,-22.461,-46.875
1683643929.954,-42.969,-44.434,-21.484,-32.715
1683643929.958,-41.016,-52.246,-37.598,-29.785
1683643929.962,-44.434,-45.898,-39.062,-35.645
1683643929.966,-37.109,-33.203,-24.902,-28.809
1683643929.970,-32.715,-38.574,-27.344,-21.484
1683643929.972,-36.133,-43.457,-27.832,-22.949
1683643929.976,-34.668,-31.738,-20.508,-30.762
1683643929.980,-35.645,-32.227,-30.273,-27.832
1683643929.984,-40.527,-47.363,-28.809,-27.344
1683643929.988,-42.969,-46.387,-11.719,-35.156
1683643929.992,-39.551,-41.504,-17.090,-34.668
1683643929.996,-40.039,-36.621,-35.645,-33.203
1683643929.999,-41.016,-20.996,-22.461,-26.367
1683643930.003,-49.316,-30.762,-23.438,-36.621
1683643930.007,-47.852,-23.438,-33.203,-42.969
1683643930.011,-41.504,-20.508,-22.461,-37.598
1683643930.015,-36.621,-41.504,-26.367,-36.133
1683643930.017,-32.715,-29.297,-17.090,-35.645
1683643930.021,-38.086,-36.133,-13.184,-41.504
1683643930.025,-41.992,-51.758,-23.926,-39.551
1683643930.029,-34.668,-34.180,-23.438,-32.227
1683643930.033,-30.273,-19.531,-28.320,-28.809
1683643930.037,-37.598,-29.785,-37.598,-25.391
1683643930.041,-46.387,-44.434,-32.715,-33.691
1683643930.044,-44.922,-29.785,-33.691,-41.016
1683643930.048,-39.551,-26.367,-32.227,-37.109
1683643930.052,-43.457,-32.715,-30.762,-32.715
1683643930.056,-50.293,-32.227,-42.969,-37.109
1683643930.060,-42.969,-35.645,-26.367,-35.156
1683643930.062,-37.598,-26.855,-10.742,-25.879
1683643930.066,-44.434,-31.250,-24.902,-32.715
1683643930.070,-32.227,-23.926,-20.508,-26.367
1683643930.074,-23.926,-13.184,-15.625,-19.531
1683643930.078,-42.969,-34.180,-39.062,-33.691
1683643930.082,-45.410,-40.527,-33.691,-27.832
1683643930.086,-28.320,-43.457,-32.715,-20.508
1683643930.089,-23.926,-53.711,-39.551,-21.973
1683643930.093,-28.809,-55.664,-40.039,-16.113
1683643930.097,-32.715,-28.320,-41.504,-21.484
1683643930.101,-26.855,-3.906,-21.973,-25.879
1683643930.105,-29.297,-16.602,-12.695,-28.320
1683643930.107,-28.809,-24.902,-21.973,-28.320
1683643930.111,-21.973,-28.320,-32.715,-19.043
1683643930.115,-29.297,-32.227,-24.414,-23.926
1683643930.119,-35.645,-30.762,-22.949,-27.832
1683643930.123,-36.621,-39.062,-26.855,-28.320
1683643930.127,-27.344,-41.016,-20.996,-20.020
1683643930.131,-30.762,-26.855,-36.621,-19.531
1683643930.134,-57.617,-43.457,-49.316,-41.016
1683643930.138,-55.176,-42.969,-41.992,-36.621
1683643930.142,-41.504,-39.551,-26.367,-29.785
1683643930.146,-37.598,-38.574,-25.391,-32.227
1683643930.150,-34.180,-28.809,-27.344,-31.250
1683643930.152,-39.551,-23.926,-22.461,-38.574
1683643930.156,-34.180,-26.367,-21.484,-30.273
1683643930.160,-31.738,-48.828,-22.949,-18.066
1683643930.164,-34.180,-22.949,-35.156,-26.367
1683643930.168,-26.367,-16.113,-36.621,-28.320
1683643930.172,-27.344,-34.180,-29.297,-28.320
1683643930.176,-41.992,-40.527,-25.879,-37.598
1683643930.179,-46.875,-50.781,-32.715,-37.109
1683643930.183,-38.574,-42.480,-33.203,-33.691
1683643930.187,-37.109,-44.434,-37.598,-38.574
1683643930.191,-33.203,-55.664,-33.691,-36.621
1683643930.195,-33.203,-49.316,-22.949,-35.156
1683643930.197,-37.109,-42.969,-20.996,-34.668
1683643930.201,-32.715,-34.668,-26.855,-32.227
1683643930.205,-27.832,-51.758,-27.344,-34.668
1683643930.209,-40.039,-50.293,-40.039,-40.527
1683643930.213,-33.203,-10.742,-29.785,-26.855
1683643930.217,-28.320,-10.254,-16.602,-20.508
1683643930.221,-44.922,-29.297,-28.809,-33.203
1683643930.224,-36.621,-36.621,-30.273,-31.738
1683643930.228,-32.227,-39.551,-31.738,-30.273
1683643930.232,-37.109,-32.715,-27.344,-26.855
1683643930.236,-29.297,-38.086,-34.668,-20.996
1683643930.240,-26.855,-32.227,-37.598,-15.137
1683643930.242,-32.715,-22.949,-29.785,-20.996
1683643930.246,-24.902,-24.902,-33.691,-27.344
1683643930.250,-28.809,-37.598,-34.180,-31.250
1683643930.254,-38.086,-37.109,-30.273,-33.203
1683643930.258,-29.785,-21.973,-17.578,-23.438
1683643930.262,-37.598,-20.508,-19.043,-25.879
1683643930.266,-39.551,-51.758,-30.273,-25.879
1683643930.269,-26.367,-41.016,-30.273,-20.508
1683643930.273,-37.109,-12.207,-21.484,-29.785
1683643930.277,-53.711,-16.113,-32.227,-38.086
1683643930.281,-48.340,-21.973,-42.969,-36.133
1683643930.285,-41.992,-26.367,-36.133,-33.691
1683643930.302,-37.109,-39.062,-31.738,-35.156
1683643930.306,-36.621,-50.293,-28.809,-33.203
1683643930.310,-35.156,-35.156,-32.227,-29.785
1683643930.314,-28.320,-26.367,-26.855,-29.297
1683643930.318,-27.344,-43.457,-24.902,-32.227
1683643930.322,-33.203,-29.785,-23.926,-29.297
1683643930.326,-43.945,-26.367,-18.555,-28.320
1683643930.329,-45.410,-42.969,-25.879,-26.367
1683643930.333,-37.109,-25.879,-26.367,-19.043
1683643930.337,-43.457,-23.926,-25.391,-20.996
1683643930.341,-41.992,-49.316,-39.062,-24.902
1683643930.345,-41.992,-53.711,-43.945,-28.320
1683643930.302,-37.109,-39.062,-31.738,-35.156
1683643930.306,-36.621,-50.293,-28.809,-33.203
1683643930.310,-35.156,-35.156,-32.227,-29.785
1683643930.314,-28.320,-26.367,-26.855,-29.297
1683643930.318,-27.344,-43.457,-24.902,-32.227
1683643930.322,-33.203,-29.785,-23.926,-29.297
1683643930.326,-43.945,-26.367,-18.555,-28.320
1683643930.329,-45.410,-42.969,-25.879,-26.367
1683643930.333,-37.109,-25.879,-26.367,-19.043
1683643930.337,-43.457,-23.926,-25.391,-20.996
1683643930.341,-41.992,-49.316,-39.062,-24.902
1683643930.345,-41.992,-53.711,-43.945,-28.320
1683643930.347,-41.504,-31.250,-30.273,-28.320
1683643930.351,-27.344,-24.414,-22.949,-18.555
1683643930.355,-41.992,-21.484,-47.852,-26.855
1683643930.359,-55.176,-16.113,-51.270,-42.480
1683643930.363,-50.293,-22.949,-38.574,-43.945
1683643930.367,-49.805,-29.785,-29.785,-39.062
1683643930.371,-51.270,-29.785,-21.973,-40.039
1683643930.374,-50.293,-38.574,-35.645,-42.480
1683643930.378,-47.852,-39.062,-41.992,-44.922
1683643930.382,-50.293,-45.410,-44.922,-47.852
1683643930.386,-44.922,-41.504,-40.527,-37.598
1683643930.390,-44.922,-19.043,-33.203,-34.180
1683643930.392,-45.410,-27.832,-34.668,-36.133
1683643930.396,-37.109,-38.574,-35.156,-33.203
1683643930.400,-48.340,-30.273,-37.598,-32.715
1683643930.404,-45.898,-30.273,-32.715,-26.855
1683643930.408,-24.414,-29.785,-23.438,-21.484
1683643930.412,-33.203,-33.203,-23.438,-29.785
1683643930.416,-47.852,-41.016,-45.410,-33.203
1683643930.419,-44.434,-56.152,-46.387,-30.273
1683643930.423,-43.945,-58.594,-32.227,-29.785
1683643930.427,-39.551,-26.367,-39.062,-26.855
1683643930.431,-36.621,-13.672,-37.598,-24.902
1683643930.435,-37.109,-24.414,-33.203,-27.832
1683643930.437,-43.945,-31.250,-34.668,-29.297
1683643930.441,-49.316,-27.832,-26.855,-32.715
1683643930.445,-40.039,-47.852,-21.973,-26.855
1683643930.449,-25.879,-53.711,-27.344,-11.230
1683643930.453,-38.086,-28.809,-26.367,-24.414
1683643930.457,-51.758,-39.062,-29.785,-42.480
1683643930.461,-41.992,-29.785,-29.297,-36.621
1683643930.464,-31.738,-29.785,-26.855,-21.973
1683643930.468,-37.109,-56.641,-32.715,-27.832
1683643930.472,-37.109,-43.945,-30.762,-32.227
1683643930.476,-32.715,-26.855,-39.062,-30.273
1683643930.480,-33.691,-29.297,-42.969,-37.109
1683643930.437,-43.945,-31.250,-34.668,-29.297
1683643930.441,-49.316,-27.832,-26.855,-32.715
1683643930.445,-40.039,-47.852,-21.973,-26.855
1683643930.449,-25.879,-53.711,-27.344,-11.230
1683643930.453,-38.086,-28.809,-26.367,-24.414
1683643930.457,-51.758,-39.062,-29.785,-42.480
1683643930.461,-41.992,-29.785,-29.297,-36.621
1683643930.464,-31.738,-29.785,-26.855,-21.973
1683643930.468,-37.109,-56.641,-32.715,-27.832
1683643930.472,-37.109,-43.945,-30.762,-32.227
1683643930.476,-32.715,-26.855,-39.062,-30.273
1683643930.480,-33.691,-29.297,-42.969,-37.109
1683643930.482,-28.320,-37.598,-33.691,-35.156
1683643930.486,-24.902,-32.227,-24.902,-29.785
1683643930.490,-19.531,-3.906,-21.484,-23.926
1683643930.494,-21.973,-29.785,-30.273,-27.344
1683643930.498,-31.250,-51.758,-31.738,-26.367
1683643930.502,-26.855,-30.762,-17.578,-20.508
1683643930.506,-23.438,-21.973,-11.230,-30.273
1683643930.509,-20.508,-23.926,-13.672,-27.832
1683643930.513,-22.461,-24.414,-24.414,-28.809
1683643930.517,-17.090,-22.461,-27.832,-23.438
1683643930.521,-0.977,-19.531,-11.719,-5.371
1683643930.525,-14.648,-15.137,-27.832,-10.742
1683643930.527,-36.133,-23.926,-46.387,-28.809
1683643930.531,-34.180,-27.832,-31.738,-34.180
1683643930.535,-38.086,-32.715,-22.949,-34.180
1683643930.539,-42.969,-55.176,-13.672,-36.621
1683643930.543,-42.480,-48.828,-21.973,-31.250
1683643930.547,-45.898,-28.320,-32.715,-27.344
1683643930.551,-36.621,-43.457,-22.461,-22.949
1683643930.554,-31.738,-36.133,-44.922,-28.320
1683643930.558,-41.504,-25.879,-46.387,-43.457
1683643930.562,-41.992,-20.508,-24.414,-39.551
1683643930.566,-47.852,-23.438,-34.668,-32.227
1683643930.570,-47.363,-38.086,-36.621,-32.227
1683643930.572,-35.645,-38.086,-17.578,-29.297
1683643930.576,-36.621,-29.297,-16.602,-33.203
1683643930.580,-41.504,-26.855,-31.250,-35.156
1683643930.584,-39.062,-30.762,-38.086,-28.809
1683643930.588,-37.598,-36.621,-32.227,-27.344
1683643930.592,-39.551,-34.180,-32.715,-22.461
1683643930.596,-41.016,-31.738,-45.898,-20.020
1683643930.599,-41.992,-42.969,-38.574,-21.973
1683643930.603,-39.551,-39.062,-30.273,-22.949
1683643930.607,-45.898,-30.273,-41.504,-26.367
1683643930.611,-51.758,-45.898,-36.621,-29.785
1683643930.615,-56.641,-52.246,-33.203,-33.203
1683643930.617,-60.547,-35.645,-24.902,-34.180
1683643930.621,-47.363,-31.250,-19.043,-24.902
1683643930.625,-38.086,-42.480,-16.602,-18.066
1683643930.629,-44.434,-40.039,-31.250,-30.273
1683643930.633,-56.152,-40.039,-40.527,-49.316
1683643930.637,-54.199,-42.480,-27.832,-46.387
1683643930.641,-43.945,-32.715,-36.621,-36.133
1683643930.644,-48.340,-42.969,-48.828,-45.898
1683643930.648,-46.875,-37.598,-47.852,-36.133
1683643930.652,-39.551,-25.879,-40.039,-30.273
1683643930.656,-35.156,-31.250,-21.973,-35.645
1683643930.660,-26.855,-25.879,-9.277,-22.461
1683643930.677,-38.574,-20.996,-15.625,-32.227
1683643930.681,-51.270,-34.668,-27.344,-43.945
1683643930.685,-50.293,-40.527,-30.762,-41.016
1683643930.689,-46.875,-41.504,-32.715,-41.504
1683643930.693,-41.504,-52.734,-32.227,-39.551
1683643930.697,-40.039,-51.758,-33.203,-38.574
1683643930.701,-37.598,-42.969,-36.133,-38.086
1683643930.704,-41.504,-37.109,-43.457,-39.062
1683643930.708,-43.457,-31.738,-52.246,-31.738
1683643930.712,-35.645,-22.949,-34.668,-25.879
1683643930.716,-30.273,-25.879,-21.484,-28.320
1683643930.720,-32.227,-33.203,-25.879,-29.297
1683643930.722,-36.133,-32.227,-27.832,-29.297
1683643930.726,-36.621,-22.949,-21.973,-26.855
1683643930.730,-29.785,-24.414,-22.949,-21.484
1683643930.734,-22.461,-50.293,-35.156,-25.391
1683643930.738,-26.367,-62.012,-42.480,-24.414
1683643930.742,-33.691,-69.824,-51.270,-27.344
1683643930.746,-41.992,-54.199,-43.457,-38.574
1683643930.749,-37.598,-14.648,-16.113,-33.691
1683643930.753,-40.527,-9.766,-21.973,-34.180
1683643930.757,-52.734,-29.297,-41.504,-50.293
1683643930.761,-47.363,-44.434,-47.852,-53.223
1683643930.765,-43.945,-50.293,-52.734,-45.898
1683643930.767,-44.434,-58.105,-39.551,-43.457
1683643930.771,-38.574,-52.734,-28.809,-34.668
1683643930.775,-34.668,-59.082,-38.574,-33.203
1683643930.779,-42.969,-65.430,-36.133,-43.457
1683643930.783,-46.387,-31.250,-32.715,-44.922
1683643930.787,-41.992,-20.020,-32.227,-42.480
1683643930.791,-48.828,-33.203,-29.785,-42.969
1683643930.794,-50.781,-44.922,-33.203,-45.898
1683643930.798,-47.363,-43.457,-33.691,-43.945
1683643930.802,-48.828,-41.016,-35.156,-37.109
1683643930.806,-50.781,-35.645,-33.691,-40.527
1683643930.810,-42.969,-35.645,-35.645,-39.551
1683643930.813,-40.039,-42.480,-33.691,-39.062
1683643930.817,-41.016,-47.852,-33.691,-41.016
1683643930.821,-46.387,-48.828,-41.016,-32.715
1683643930.825,-48.340,-21.484,-38.574,-41.992
1683643930.829,-33.203,-26.367,-30.273,-42.969
1683643930.833,-28.320,-37.109,-19.043,-35.156
1683643930.837,-46.387,-33.691,-27.832,-49.805
1683643930.840,-50.781,-42.480,-37.109,-53.223
1683643930.844,-41.504,-42.480,-30.762,-44.922
1683643930.848,-33.691,-44.922,-28.809,-41.504
1683643930.852,-35.645,-47.363,-43.457,-41.992
1683643930.856,-39.062,-41.992,-48.828,-42.480
1683643930.857,-28.809,-37.598,-29.297,-36.621
1683643930.861,-32.227,-46.875,-12.207,-38.086
1683643930.865,-41.504,-54.688,-20.996,-43.945
1683643930.869,-29.297,-39.551,-36.133,-38.574
1683643930.873,-28.809,-30.273,-31.250,-37.598
1683643930.877,-34.668,-44.922,-24.902,-42.969
1683643930.881,-27.832,-42.969,-19.043,-39.062
1683643930.884,-28.320,-38.574,-30.273,-38.574
1683643930.888,-29.785,-40.039,-40.039,-35.645
1683643930.892,-26.855,-29.785,-23.438,-29.297
1683643930.896,-41.992,-48.828,-22.461,-41.016
1683643930.900,-46.875,-58.594,-32.227,-47.852
1683643930.902,-37.598,-58.105,-31.250,-46.875
1683643930.906,-32.715,-54.199,-30.762,-43.945
1683643930.910,-26.855,-45.898,-40.527,-40.039
1683643930.914,-26.855,-56.152,-45.898,-38.574
1683643930.918,-33.203,-36.133,-26.855,-38.086
1683643930.922,-36.133,-23.438,-11.719,-36.621
1683643930.926,-34.668,-34.180,-20.508,-35.156
1683643930.929,-33.203,-44.434,-27.832,-35.645
1683643930.933,-32.227,-30.273,-25.879,-31.250
1683643930.937,-25.391,-35.645,-27.344,-25.879
1683643930.941,-30.273,-54.199,-26.855,-38.086
1683643930.945,-47.852,-56.641,-41.504,-59.082
1683643930.947,-54.199,-61.035,-36.133,-57.617
1683643930.951,-49.805,-53.711,-34.180,-51.270
1683643930.955,-49.316,-47.363,-30.762,-52.734
1683643930.959,-50.781,-49.316,-23.926,-53.223
1683643930.963,-37.598,-51.758,-31.250,-39.062
1683643930.967,-30.273,-34.668,-31.738,-35.645
1683643930.971,-38.574,-42.480,-39.062,-49.316
1683643930.974,-43.457,-70.801,-33.691,-50.293
1683643930.978,-38.086,-52.734,-23.926,-40.527
1683643930.982,-36.621,-23.926,-26.367,-35.645
1683643930.986,-34.668,-21.973,-28.809,-37.598
1683643930.990,-42.969,-40.527,-31.250,-39.062
1683643930.992,-41.016,-55.176,-21.484,-32.227
1683643930.996,-27.344,-42.480,-17.090,-26.367
1683643931.000,-35.156,-45.410,-34.668,-38.086
1683643931.004,-35.156,-51.758,-35.156,-37.109
1683643931.008,-41.504,-44.922,-23.926,-32.227
1683643931.012,-43.945,-48.828,-15.625,-37.109
1683643931.016,-40.527,-46.875,-26.367,-38.574
1683643931.019,-43.457,-31.738,-36.133,-38.574
1683643931.023,-40.039,-31.738,-31.250,-45.898
1683643931.027,-35.156,-45.410,-38.086,-42.480
1683643931.031,-41.016,-47.852,-42.480,-40.527
1683643931.035,-43.457,-48.340,-25.879,-42.969
1683643931.052,-43.945,-39.551,-15.137,-46.875
1683643931.056,-36.133,-34.180,-19.043,-46.387
1683643931.060,-23.926,-34.180,-20.996,-32.715
1683643931.064,-39.551,-51.270,-34.668,-41.016
1683643931.068,-50.293,-49.805,-36.133,-53.223
1683643931.072,-46.387,-30.762,-32.715,-44.922
1683643931.076,-41.016,-36.621,-36.621,-43.457
1683643931.079,-41.016,-44.922,-40.527,-41.504
1683643931.083,-46.387,-54.199,-34.668,-39.551
1683643931.087,-42.480,-44.434,-34.668,-43.945
1683643931.091,-40.039,-42.969,-33.203,-48.828
1683643931.095,-40.527,-40.527,-18.555,-43.457
1683643931.097,-39.062,-39.551,-28.809,-34.668
1683643931.101,-37.109,-44.922,-36.621,-40.039
1683643931.105,-32.227,-24.414,-10.254,-36.621
1683643931.109,-27.832,-29.785,0.488,-28.320
1683643931.113,-46.875,-64.453,-29.785,-44.434
1683643931.117,-50.781,-52.734,-43.457,-46.387
1683643931.121,-44.434,-23.438,-40.527,-41.016
1683643931.124,-48.340,-29.297,-36.133,-44.922
1683643931.128,-30.762,-45.898,-38.574,-38.086
1683643931.132,-21.484,-53.223,-39.062,-33.691
1683643931.136,-26.367,-35.156,-29.297,-32.227
1683643931.140,-31.738,-30.273,-23.438,-31.738
1683643931.142,-38.086,-38.574,-27.832,-41.504
1683643931.146,-34.180,-35.645,-23.438,-38.086
1683643931.150,-30.273,-67.383,-28.809,-29.297
1683643931.154,-29.297,-61.523,-35.645,-31.250
1683643931.158,-38.574,-14.648,-38.574,-38.086
1683643931.162,-38.086,-17.090,-41.992,-39.551
1683643931.166,-35.645,-24.414,-26.855,-39.551
1683643931.169,-35.645,-25.879,-19.531,-36.133
1683643931.173,-35.156,-36.133,-24.902,-38.086
1683643931.177,-43.457,-41.504,-45.410,-43.945
1683643931.181,-47.852,-46.387,-48.828,-41.992
1683643931.185,-40.039,-47.852,-18.066,-37.109
1683643931.187,-32.715,-38.086,-20.996,-41.992
1683643931.191,-25.879,-24.902,-34.180,-41.504
1683643931.195,-22.461,-27.832,-35.156,-32.227
1683643931.199,-23.438,-34.668,-35.645,-35.156
1683643931.203,-23.926,-35.645,-29.785,-38.574
1683643931.207,-34.180,-41.016,-33.203,-36.621
1683643931.211,-41.992,-56.641,-50.293,-41.016
1683643931.214,-52.246,-65.918,-59.082,-57.129
1683643931.218,-58.594,-41.504,-48.828,-55.664
1683643931.222,-50.781,-25.391,-28.809,-39.062
1683643931.226,-50.781,-27.832,-24.902,-49.316
1683643931.230,-44.922,-29.297,-38.086,-47.363
1683643931.232,-36.133,-33.203,-36.621,-41.016
1683643931.236,-41.992,-49.316,-31.250,-52.734
1683643931.240,-49.805,-57.129,-38.574,-52.246
1683643931.244,-47.363,-57.129,-20.508,-41.992
1683643931.248,-55.664,-57.617,-26.855,-50.781
1683643931.252,-56.152,-35.645,-37.598,-48.828
1683643931.256,-43.457,-16.602,-35.156,-34.180
1683643931.259,-50.293,-34.668,-43.945,-43.945
1683643931.263,-53.223,-38.086,-35.156,-55.176
1683643931.267,-46.387,-25.391,-31.738,-55.176
1683643931.271,-45.898,-30.762,-38.086,-52.246
1683643931.275,-47.363,-49.805,-47.852,-48.340
1683643931.277,-47.363,-51.758,-41.504,-47.363
1683643931.281,-42.969,-60.059,-27.344,-42.480
1683643931.285,-43.457,-60.059,-36.621,-39.551
1683643931.289,-43.457,-40.039,-39.062,-37.109
1683643931.293,-37.109,-33.203,-32.715,-39.062
1683643931.297,-41.016,-31.250,-36.621,-41.016
1683643931.301,-38.574,-28.320,-31.738,-39.062
1683643931.304,-31.250,-40.527,-20.996,-29.785
1683643931.308,-25.391,-41.992,-14.160,-20.996
1683643931.312,-27.344,-40.039,-29.785,-30.762
1683643931.316,-25.879,-47.363,-44.922,-33.203
1683643931.320,-24.414,-48.340,-31.250,-26.367
1683643931.322,-20.996,-34.668,-37.598,-20.020
1683643931.326,-17.090,-27.344,-36.133,-21.973
1683643931.330,-18.066,-25.391,-22.461,-25.391
1683643931.334,-23.926,-15.625,-31.250,-28.809
1683643931.338,-24.902,-32.227,-21.973,-18.555
1683643931.342,-16.602,-52.734,-17.090,-13.184
1683643931.346,-9.277,-37.598,-21.973,-11.230
1683643931.349,-22.461,-29.297,-30.762,-21.973
1683643931.353,-32.227,-42.480,-37.598,-35.645
1683643931.357,-30.762,-55.176,-34.180,-35.156
1683643931.361,-32.715,-61.035,-31.250,-27.344
1683643931.365,-29.297,-36.621,-30.762,-21.973
1683643931.367,-21.973,-20.996,-15.625,-19.043
1683643931.371,-28.320,-32.227,-33.203,-24.414
1683643931.375,-37.598,-38.086,-46.387,-38.086
1683643931.379,-29.785,-29.297,-10.742,-30.762
1683643931.383,-22.461,-27.344,0.000,-24.902
1683643931.387,-34.668,-64.941,-23.926,-38.086
1683643931.391,-51.758,-84.961,-30.762,-47.363
1683643931.394,-51.270,-43.457,-21.973,-42.480
1683643931.398,-42.969,-24.414,-26.367,-38.086
1683643931.402,-40.527,-28.809,-30.762,-30.762
1683643931.406,-34.668,-36.621,-29.297,-26.855
1683643931.410,-39.062,-38.574,-35.156,-36.621
1683643931.427,-43.457,-24.902,-32.227,-33.691
1683643931.431,-35.645,-24.414,-18.555,-27.344
1683643931.435,-31.738,-44.434,-11.719,-28.809
1683643931.439,-27.344,-64.453,-18.066,-28.320
1683643931.443,-31.738,-44.434,-32.227,-25.879
1683643931.447,-38.086,-22.461,-30.273,-32.715
1683643931.451,-41.016,-30.762,-30.762,-37.598
1683643931.454,-37.109,-39.551,-28.809,-26.855
1683643931.458,-31.250,-30.762,-20.020,-23.438
1683643931.462,-28.809,-17.090,-25.879,-20.508
1683643931.466,-20.996,-27.832,-20.508,-20.020
1683643931.470,-28.320,-40.039,-21.973,-32.227
1683643931.472,-43.945,-42.480,-34.180,-41.992
1683643931.476,-38.574,-32.227,-29.785,-33.691
1683643931.480,-33.691,-31.738,-38.574,-34.668
1683643931.484,-43.945,-46.387,-41.992,-42.969
1683643931.488,-36.621,-44.434,-23.438,-30.762
1683643931.492,-31.738,-48.828,-21.973,-32.227
1683643931.496,-41.992,-51.758,-38.574,-44.922
1683643931.499,-42.480,-42.480,-44.922,-48.340
1683643931.503,-42.480,-48.340,-31.250,-47.363
1683643931.507,-36.621,-46.875,-24.902,-43.945
1683643931.511,-29.297,-37.109,-25.391,-35.156
1683643931.515,-34.180,-33.203,-27.832,-38.086
1683643931.517,-33.691,-37.598,-34.180,-35.645
1683643931.521,-20.996,-34.668,-35.645,-18.555
1683643931.525,-28.809,-31.738,-29.297,-26.855
1683643931.529,-38.574,-41.504,-43.457,-32.715
1683643931.533,-29.785,-33.203,-52.734,-35.156
1683643931.537,-26.855,-38.574,-50.293,-42.480
1683643931.541,-29.297,-53.711,-56.152,-40.527
1683643931.544,-24.414,-53.223,-42.969,-36.621
1683643931.548,-25.391,-39.551,-35.156,-40.527
1683643931.552,-29.297,-21.484,-28.809,-45.898
1683643931.556,-28.809,-34.668,-26.855,-38.574
1683643931.560,-33.203,-35.645,-42.969,-35.645
1683643931.562,-33.691,-22.461,-40.039,-42.969
1683643931.566,-39.551,-30.273,-29.297,-51.758
1683643931.570,-38.086,-35.156,-36.621,-49.316
1683643931.574,-33.691,-51.758,-56.152,-50.293
1683643931.578,-28.320,-47.363,-46.387,-42.969
1683643931.582,-22.949,-29.297,-32.227,-34.180
1683643931.586,-37.109,-35.645,-59.570,-59.570
1683643931.589,-41.992,-42.480,-65.918,-64.941
1683643931.593,-40.039,-46.875,-62.012,-54.688
1683643931.597,-41.016,-52.734,-53.223,-56.152
1683643931.601,-42.969,-48.340,-44.434,-52.246
1683643931.605,-37.109,-40.527,-45.898,-44.922
1683643931.607,-31.250,-43.945,-37.598,-39.062
1683643931.611,-33.203,-47.852,-46.875,-35.645
1683643931.615,-29.785,-30.762,-59.082,-31.250
1683643931.619,-34.180,-31.738,-55.176,-39.551
1683643931.623,-37.598,-41.992,-53.711,-45.410
1683643931.627,-35.645,-28.809,-46.875,-37.109
1683643931.631,-34.668,-23.926,-51.758,-31.738
1683643931.634,-29.297,-45.410,-67.871,-35.645
1683643931.638,-35.645,-69.824,-62.988,-42.480
1683643931.642,-30.273,-48.340,-35.645,-31.738
1683643931.646,-31.738,-33.203,-46.387,-27.832
1683643931.650,-53.223,-33.203,-77.148,-48.828
1683643931.652,-51.270,-41.016,-73.242,-53.711
1683643931.656,-52.246,-58.105,-70.801,-52.734
1683643931.660,-50.781,-43.457,-66.406,-50.293
1683643931.664,-43.457,-43.945,-58.105,-48.828
1683643931.668,-49.805,-69.824,-62.500,-56.152
1683643931.672,-53.223,-52.246,-63.965,-56.641
1683643931.676,-50.781,-36.133,-65.918,-51.758
1683643931.679,-50.781,-55.664,-74.707,-52.246
1683643931.683,-48.828,-52.246,-75.684,-54.199
1683643931.687,-45.898,-37.598,-70.801,-43.457
1683643931.691,-44.922,-36.133,-67.383,-38.574
1683643931.695,-47.852,-48.340,-62.500,-45.898
1683643931.697,-49.805,-55.664,-66.406,-45.898
1683643931.701,-48.340,-46.875,-67.871,-40.527
1683643931.705,-41.992,-52.246,-57.129,-39.551
1683643931.709,-46.387,-56.641,-58.594,-44.922
1683643931.713,-48.828,-42.480,-59.082,-44.922
1683643931.717,-41.504,-20.508,-45.410,-41.992
1683643931.721,-37.598,-34.180,-43.945,-40.039
1683643931.724,-41.016,-56.641,-74.707,-42.969
1683643931.728,-41.992,-29.785,-73.730,-43.945
1683643931.732,-47.852,-23.438,-59.570,-47.852
1683643931.736,-51.758,-38.574,-53.223,-59.082
1683643931.740,-45.410,-43.457,-37.598,-55.664
1683643931.742,-45.898,-43.945,-42.969,-50.781
1683643931.746,-51.270,-41.016,-49.805,-49.316
1683643931.750,-46.387,-40.527,-36.621,-38.086
1683643931.754,-45.410,-36.621,-33.203,-36.133
1683643931.758,-42.969,-34.180,-43.457,-38.574
1683643931.762,-36.133,-41.992,-31.738,-32.227
1683643931.766,-41.016,-43.457,-32.715,-31.250
1683643931.769,-51.270,-31.250,-41.504,-40.527
1683643931.773,-56.641,-27.344,-27.832,-45.898
1683643931.777,-47.852,-39.062,-20.508,-41.016
1683643931.781,-42.480,-42.969,-21.973,-36.621
1683643931.785,-44.922,-46.875,-31.738,-35.156
1683643931.802,-53.711,-34.180,-43.457,-40.039
1683643931.806,-64.453,-31.738,-40.527,-49.316
1683643931.810,-48.340,-51.758,-37.598,-44.434
1683643931.814,-42.480,-44.434,-38.086,-43.945
1683643931.818,-49.805,-41.992,-41.504,-46.875
1683643931.822,-41.016,-52.734,-38.574,-46.387
1683643931.826,-50.293,-54.688,-34.180,-57.129
1683643931.829,-54.688,-37.109,-19.043,-56.152
1683643931.833,-51.270,-34.180,-16.113,-52.246
1683643931.837,-50.781,-42.480,-27.832,-47.363
1683643931.841,-44.922,-33.691,-25.879,-39.551
1683643931.845,-46.875,-46.387,-25.391,-42.969
1683643931.847,-55.176,-60.547,-30.273,-49.805
1683643931.851,-47.852,-48.828,-28.809,-49.316
1683643931.855,-41.992,-47.852,-44.922,-49.316
1683643931.859,-43.457,-51.758,-38.086,-42.480
1683643931.863,-44.922,-39.551,-19.043,-41.992
1683643931.867,-41.016,-30.762,-24.414,-41.992
1683643931.871,-40.527,-23.926,-20.996,-44.434
1683643931.874,-44.434,-18.555,-17.090,-54.199
1683643931.878,-32.715,-32.227,-16.602,-47.363
1683643931.882,-27.344,-34.668,-18.555,-42.969
1683643931.886,-43.457,-42.969,-33.203,-59.082
1683643931.890,-45.410,-66.895,-30.762,-58.105
1683643931.892,-45.410,-56.641,-34.668,-50.293
1683643931.896,-53.711,-26.367,-43.945,-43.457
1683643931.900,-52.734,-27.344,-22.461,-37.598
1683643931.904,-48.828,-34.668,-18.555,-37.598
1683643931.908,-51.758,-29.785,-30.273,-36.621
1683643931.912,-52.246,-34.180,-23.438,-33.203
1683643931.916,-41.016,-39.062,-26.367,-29.785
1683643931.919,-38.574,-38.574,-36.621,-34.180
1683643931.923,-42.969,-48.340,-24.902,-36.621
1683643931.927,-38.086,-39.062,-11.719,-36.133
1683643931.931,-36.133,-30.762,-9.766,-36.133
1683643931.935,-46.387,-47.363,-25.391,-45.410
1683643931.937,-40.527,-33.691,-31.250,-38.086
1683643931.941,-31.738,-21.484,-21.973,-23.926
1683643931.945,-43.457,-17.578,-20.996,-31.250
1683643931.949,-44.922,-20.508,-24.414,-38.086
1683643931.953,-27.832,-54.688,-20.020,-25.879
1683643931.957,-38.086,-64.941,-25.879,-30.762
1683643931.961,-45.898,-34.668,-38.086,-40.527
1683643931.964,-33.203,-27.832,-41.016,-38.574
1683643931.968,-37.109,-40.527,-41.992,-42.480
1683643931.972,-39.551,-41.504,-44.434,-38.086
1683643931.976,-39.551,-34.668,-47.363,-33.203
1683643931.980,-41.016,-36.133,-37.109,-35.645
1683643931.982,-37.598,-49.805,-24.414,-27.832
1683643931.986,-38.086,-53.711,-25.879,-29.297
1683643931.990,-41.016,-36.621,-31.250,-32.227
1683643931.994,-31.738,-16.113,-25.879,-23.926
1683643931.998,-39.062,-20.996,-30.273,-36.133
1683643932.002,-56.152,-36.133,-49.805,-42.480
1683643932.006,-46.387,-45.898,-62.012,-37.598
1683643932.009,-30.273,-52.246,-49.316,-31.250
1683643932.013,-33.203,-46.387,-53.711,-29.297
1683643932.017,-37.598,-38.574,-43.945,-33.691
1683643932.021,-35.156,-31.738,-36.621,-32.227
1683643932.025,-38.086,-31.250,-50.293,-31.250
1683643932.027,-37.109,-36.133,-41.016,-25.879
1683643932.031,-36.133,-29.785,-42.969,-21.484
1683643932.035,-46.387,-36.133,-52.246,-28.320
1683643932.039,-39.062,-53.711,-50.293,-25.391
1683643932.043,-33.691,-37.109,-46.875,-20.020
1683643932.047,-38.574,-32.227,-49.316,-28.809
1683643932.051,-35.645,-31.738,-56.641,-31.738
1683643932.054,-38.574,-23.926,-48.340,-30.762
1683643932.058,-43.457,-23.438,-53.711,-29.297
1683643932.062,-37.109,-20.996,-53.711,-26.855
1683643932.066,-26.367,-22.949,-45.410,-20.996
1683643932.070,-21.484,-41.992,-50.293,-17.578
1683643932.072,-35.645,-62.500,-62.012,-39.551
1683643932.076,-41.504,-42.480,-63.477,-41.504
1683643932.080,-32.227,-20.508,-64.453,-31.250
1683643932.084,-27.832,-27.832,-57.617,-30.273
1683643932.088,-20.508,-35.156,-48.340,-28.809
1683643932.092,-15.625,-19.043,-60.059,-24.902
1683643932.096,-27.344,-24.414,-64.941,-30.762
1683643932.099,-27.832,-17.578,-63.477,-30.762
1683643932.103,-24.902,-8.789,-56.152,-28.320
1683643932.107,-32.715,-28.320,-41.504,-27.344
1683643932.111,-38.574,-36.621,-41.504,-26.855
1683643932.115,-37.598,-39.062,-46.387,-29.785
1683643932.117,-33.203,-44.434,-46.875,-29.297
1683643932.121,-22.461,-39.062,-45.898,-22.949
1683643932.125,-24.902,-28.809,-51.758,-23.438
1683643932.129,-42.480,-36.621,-60.059,-36.621
1683643932.133,-37.109,-23.438,-56.641,-39.062
1683643932.137,-26.367,-22.461,-43.457,-23.926
1683643932.141,-25.879,-41.016,-41.992,-17.578
1683643932.144,-38.574,-41.992,-56.152,-29.297
1683643932.148,-40.039,-40.039,-59.082,-35.156
1683643932.152,-39.062,-36.133,-45.898,-36.133
1683643932.156,-40.039,-28.320,-50.781,-33.691
1683643932.160,-35.156,-27.832,-49.805,-29.297
1683643932.177,-28.320,-21.973,-43.457,-28.809
1683643932.181,-28.320,-35.645,-56.152,-28.320
1683643932.185,-32.227,-50.781,-62.012,-27.344
1683643932.189,-41.016,-29.785,-43.457,-32.227
1683643932.193,-49.805,-13.672,-37.109,-32.227
1683643932.197,-45.898,-17.090,-39.551,-33.691
1683643932.201,-38.574,-36.133,-37.109,-37.598
1683643932.204,-34.668,-29.297,-39.551,-32.227
1683643932.208,-31.738,-34.668,-33.203,-26.367
1683643932.212,-21.484,-28.809,-24.902,-14.648
1683643932.216,-19.043,-12.695,-27.344,-23.926
1683643932.220,-32.227,-22.461,-35.645,-43.945
1683643932.222,-42.480,-46.875,-44.434,-46.875
1683643932.226,-45.898,-50.293,-39.551,-44.434
1683643932.230,-35.645,-40.527,-20.508,-37.598
1683643932.234,-31.250,-40.527,-19.531,-32.227
1683643932.238,-36.133,-29.297,-26.855,-27.832
1683643932.242,-38.086,-22.461,-19.043,-26.855
1683643932.246,-36.133,-12.207,-12.695,-27.344
1683643932.249,-32.227,-30.273,-6.348,-21.973
1683643932.253,-36.133,-37.598,-31.250,-26.367
1683643932.257,-35.645,-39.062,-41.016,-31.738
1683643932.261,-32.227,-40.039,-19.531,-33.203
1683643932.265,-31.250,-41.992,-14.648,-35.156
1683643932.267,-28.809,-46.387,-8.789,-39.062
1683643932.271,-31.738,-22.461,-18.555,-43.457
1683643932.275,-30.273,-10.742,-29.297,-38.574
1683643932.279,-34.668,-17.090,-24.902,-32.227
1683643932.283,-35.156,-26.855,-5.371,-31.250
1683643932.287,-37.109,-31.250,-15.625,-38.086
1683643932.291,-41.504,-31.250,-40.039,-39.062
1683643932.294,-46.387,-41.016,-45.898,-39.551
1683643932.298,-48.828,-34.180,-43.945,-43.457
1683643932.302,-45.898,-35.156,-34.180,-33.691
1683643932.306,-36.621,-47.852,-32.715,-23.438
1683643932.310,-35.156,-34.180,-27.344,-23.438
1683643932.267,-28.809,-46.387,-8.789,-39.062
1683643932.271,-31.738,-22.461,-18.555,-43.457
1683643932.275,-30.273,-10.742,-29.297,-38.574
1683643932.279,-34.668,-17.090,-24.902,-32.227
1683643932.283,-35.156,-26.855,-5.371,-31.250
1683643932.287,-37.109,-31.250,-15.625,-38.086
1683643932.291,-41.504,-31.250,-40.039,-39.062
1683643932.294,-46.387,-41.016,-45.898,-39.551
1683643932.298,-48.828,-34.180,-43.945,-43.457
1683643932.302,-45.898,-35.156,-34.180,-33.691
1683643932.306,-36.621,-47.852,-32.715,-23.438
1683643932.310,-35.156,-34.180,-27.344,-23.438
1683643932.312,-41.992,-26.855,-30.273,-27.344
1683643932.316,-41.016,-39.062,-39.062,-29.785
1683643932.320,-41.992,-37.598,-41.504,-37.109
1683643932.324,-38.574,-22.461,-36.621,-38.574
1683643932.328,-31.738,-24.902,-33.203,-34.668
1683643932.332,-33.691,-40.527,-38.574,-38.086
1683643932.336,-28.320,-40.039,-37.109,-32.715
1683643932.339,-33.691,-43.457,-41.016,-37.598
1683643932.343,-49.316,-36.621,-39.062,-48.828
1683643932.347,-42.480,-27.344,-39.551,-41.992
1683643932.351,-37.109,-37.109,-47.363,-34.668
1683643932.355,-37.109,-32.715,-39.551,-34.668
1683643932.357,-34.668,-29.297,-41.504,-38.086
1683643932.361,-37.109,-43.945,-41.016,-42.969
1683643932.365,-38.086,-40.527,-27.832,-44.434
1683643932.369,-32.227,-32.227,-26.367,-40.039
1683643932.373,-32.227,-46.387,-50.293,-41.016
1683643932.377,-31.738,-48.340,-49.316,-43.457
1683643932.381,-25.391,-31.250,-23.438,-40.039
1683643932.384,-30.273,-23.438,-25.879,-39.062
1683643932.388,-34.668,-21.484,-34.180,-38.574
1683643932.392,-31.738,-18.066,-42.480,-37.109
1683643932.396,-33.203,-21.973,-36.133,-29.297
1683643932.400,-30.762,-28.320,-21.484,-23.926
1683643932.402,-28.320,-36.621,-28.320,-30.273
