timestamps,TP9,AF7,AF8,TP10
1680451119,-39.551,-41.016,-35.645,-19.043
1680451119,-44.434,-41.504,-51.27,-42.969
1680451119,-40.039,-40.039,-44.434,-32.227
1680451119,-40.527,-36.621,-27.344,-23.438
1680451119,-50.781,-33.691,-1.465,-30.762
1680451119,-56.641,-35.645,-6.836,-48.828
1680451119,-42.969,-28.32,-18.066,-47.852
1680451119,-36.621,-27.344,-23.926,-35.156
1680451119,-42.969,-32.715,-26.367,-31.738
1680451119,-46.875,-33.691,-29.297,-40.039
1680451119,-51.758,-34.18,-34.18,-53.223
1680451119,-49.805,-32.227,-38.086,-55.664
1680451119,-40.039,-32.715,-32.227,-41.992
1680451119,-39.062,-37.109,-27.344,-30.762
1680451119,-33.203,-31.25,-25.879,-24.902
1680451119,-33.203,-31.738,-30.762,-29.297
1680451119,-30.762,-36.621,-35.645,-43.945
1680451119,-28.32,-28.32,-34.18,-38.574
1680451119,-29.297,-23.438,-26.855,-23.438
1680451119,-30.273,-28.32,-29.297,-23.438
1680451119,-37.109,-31.25,-37.109,-29.297
1680451119,-35.156,-28.809,-34.668,-30.273
1680451119,-32.227,-26.855,-29.297,-22.949
1680451119,-39.062,-27.344,-23.438,-22.461
1680451119,-44.434,-36.133,-30.762,-27.344
1680451119,-43.945,-43.945,-51.758,-34.18
1680451119,-44.434,-39.062,-47.363,-42.48
1680451119,-38.574,-30.762,-35.645,-34.668
1680451119,-30.273,-26.367,-30.273,-20.508
1680451119,-28.809,-20.508,-20.02,-22.949
1680451119,-14.648,-20.508,-18.066,-23.438
1680451119,-29.785,-30.762,-22.461,-40.527
1680451119,-59.57,-44.922,-29.297,-55.176
1680451119,-41.504,-47.363,-24.414,-25.879
1680451119,-30.273,-41.016,-16.602,-19.531
1680451119,-27.344,-36.133,-17.578,-39.062
1680451119,-29.785,-33.203,-18.066,-38.086
1680451119,-41.992,-33.203,-19.043,-29.785
1680451119,-38.086,-37.109,-20.02,-22.949
1680451119,-38.086,-39.062,-22.461,-14.648
1680451119,-36.621,-37.598,-34.18,-21.973
1680451119,-26.855,-35.156,-32.715,-30.762
1680451119,-23.438,-36.621,-16.602,-14.648
1680451119,-29.785,-41.016,-32.715,-12.695
1680451119,-42.969,-50.781,-44.434,-31.738
1680451119,-35.645,-54.199,-30.273,-41.016
1680451119,-29.297,-44.922,-21.973,-49.316
1680451119,-19.043,-35.156,-12.695,-51.758
1680451119,-28.809,-36.133,-25.391,-41.016
1680451119,-39.062,-34.18,-28.32,-17.578
1680451119,-29.297,-29.297,-20.508,-19.531
1680451119,-43.457,-32.715,-28.32,-52.734
1680451119,-43.945,-35.156,-32.227,-52.246
1680451119,-34.18,-30.273,-40.527,-28.809
1680451119,-33.691,-19.531,-45.898,-14.16
1680451119,-46.387,-27.344,-28.809,-22.949
1680451119,-43.945,-30.273,-30.762,-43.945
1680451119,-28.809,-23.926,-39.551,-51.758
1680451119,-27.832,-25.879,-21.484,-42.48
1680451119,-28.809,-29.297,-26.367,-31.738
1680451119,-28.809,-26.367,-37.109,-31.738
1680451119,-35.645,-28.32,-21.973,-42.969
1680451119,-25.879,-29.785,-19.531,-34.18
1680451119,-12.695,-26.855,-28.809,-13.672
1680451119,-20.508,-26.855,-24.414,-18.066
1680451119,-31.738,-29.297,-35.156,-25.879
1680451119,-36.133,-26.367,-34.18,-40.039
1680451119,-42.969,-32.715,-8.789,-45.898
1680451119,-39.551,-41.504,-4.883,-39.062
1680451119,-29.785,-36.133,-14.16,-37.109
1680451119,-24.902,-28.809,-17.578,-29.297
1680451119,-27.832,-25.879,-25.391,-27.344
1680451119,-20.996,-27.832,-36.621,-32.715
1680451119,-15.625,-33.691,-29.785,-35.156
1680451119,-26.367,-36.621,-20.508,-24.902
1680451120,-26.855,-25.879,-23.926,-24.902
1680451120,-13.184,-19.531,-22.461,-30.273
1680451120,-10.254,-14.648,-19.531,-28.809
1680451120,-21.973,-18.555,-22.461,-35.645
1680451120,-28.32,-28.809,-20.02,-38.086
1680451120,-30.762,-29.297,-20.508,-31.25
1680451120,-35.645,-30.762,-18.555,-27.344
1680451120,-40.527,-30.273,-24.902,-43.457
1680451120,-34.668,-26.367,-34.668,-53.711
1680451120,-22.949,-23.438,-30.762,-25.879
1680451120,-25.879,-31.738,-20.508,-4.395
1680451120,-23.438,-37.109,-25.879,-25.879
1680451120,-15.625,-23.926,-38.086,-33.691
1680451120,-8.789,-20.996,-40.039,-21.973
1680451120,-26.855,-34.18,-31.25,-35.645
1680451120,-50.781,-47.363,-23.926,-54.199
1680451120,-44.434,-40.527,-25.391,-50.781
1680451120,-35.156,-31.25,-28.32,-51.27
1680451120,-38.086,-28.809,-37.598,-39.551
1680451120,-40.527,-27.344,-40.039,-20.02
1680451120,-45.898,-36.133,-33.691,-27.832
1680451120,-40.527,-43.945,-36.133,-46.875
1680451120,-29.785,-42.969,-43.457,-61.035
1680451120,-28.32,-38.574,-35.156,-40.527
1680451120,-14.648,-25.391,-33.691,-8.789
1680451120,-19.531,-17.09,-44.922,-25.879
1680451120,-40.527,-19.531,-34.668,-54.199
1680451120,-43.457,-22.949,-50.293,-68.359
1680451120,-33.203,-27.344,-62.5,-51.27
1680451120,-29.785,-31.25,-23.926,-29.785
1680451120,-43.457,-38.574,-6.348,-35.156
1680451120,-44.922,-34.668,-12.695,-41.992
1680451120,-35.156,-25.391,-24.902,-62.012
1680451120,-33.203,-25.391,-30.762,-61.035
1680451120,-24.902,-27.832,-24.902,-34.668
1680451120,-20.02,-27.832,-26.367,-6.836
1680451120,-24.414,-29.785,-28.809,-5.859
1680451120,-27.832,-29.297,-23.438,-30.273
1680451120,-29.785,-26.367,-21.484,-45.41
1680451120,-29.785,-29.297,-30.273,-31.738
1680451120,-25.391,-28.32,-28.809,1.953
1680451120,-28.32,-33.691,-23.438,-14.648
1680451120,-43.945,-40.039,-42.48,-44.434
1680451120,-34.18,-34.18,-43.457,-34.18
1680451120,-25.879,-34.18,-37.109,-22.949
1680451120,-27.832,-38.086,-34.18,-15.625
1680451120,-31.25,-33.691,-22.461,-20.02
1680451120,-39.551,-31.738,-31.25,-36.621
1680451120,-43.457,-32.227,-28.32,-37.109
1680451120,-36.621,-29.785,-28.32,-36.621
1680451120,-38.574,-33.691,-33.203,-44.434
1680451120,-38.086,-29.785,-22.949,-40.527
1680451120,-39.551,-30.273,-26.855,-43.945
1680451120,-42.48,-41.504,-30.273,-59.57
1680451120,-28.809,-38.574,-23.926,-34.668
1680451120,-27.832,-33.203,-40.039,-12.207
1680451120,-37.109,-42.969,-49.805,-28.809
1680451120,-43.457,-38.574,-39.062,-36.621
1680451120,-41.016,-23.438,-24.414,-40.039
1680451120,-42.969,-20.02,-10.742,-40.039
1680451120,-45.898,-21.973,-15.137,-30.762
1680451120,-40.039,-30.762,-33.691,-25.391
1680451120,-40.039,-32.715,-31.738,-27.832
1680451120,-31.25,-27.832,-23.438,-35.156
1680451120,-31.738,-26.855,-20.996,-31.25
1680451120,-42.969,-29.785,-11.719,-25.879
1680451120,-46.875,-30.762,-18.555,-31.738
1680451120,-39.062,-24.902,-29.297,-34.668
1680451120,-22.949,-22.949,-28.32,-47.363
1680451120,-16.113,-20.996,-36.621,-51.27
1680451120,-15.625,-24.902,-45.898,-33.203
1680451120,-19.043,-38.574,-39.062,-23.926
1680451120,-23.438,-39.062,-28.32,-32.715
1680451120,-27.344,-30.273,-27.344,-38.086
1680451120,-29.297,-30.273,-26.367,-36.133
1680451120,-26.855,-25.391,-21.973,-33.203
1680451120,-28.32,-32.715,-13.184,-25.391
1680451120,-35.156,-43.457,-21.484,-18.555
1680451120,-35.645,-34.18,-40.039,-22.461
1680451120,-17.09,-27.832,-32.227,-21.973
1680451120,3.906,-26.367,-28.809,-18.066
1680451120,-18.555,-33.691,-21.973,-26.367
1680451120,-42.969,-41.016,-15.625,-28.809
1680451120,-42.48,-26.367,-21.973,-29.785
1680451120,-42.48,-27.832,-24.414,-28.809
1680451120,-27.832,-30.273,-24.902,-23.926
1680451120,-23.438,-29.785,-31.25,-16.602
1680451120,-36.621,-44.434,-24.414,-18.066
1680451120,-32.715,-34.668,-10.254,-27.832
1680451120,-36.621,-29.297,-17.09,-33.691
1680451120,-44.922,-35.645,-33.203,-36.621
1680451120,-41.016,-32.227,-36.621,-33.203
1680451120,-39.551,-28.809,-38.086,-25.391
1680451120,-33.203,-27.832,-32.227,-23.926
1680451120,-33.203,-29.785,-33.203,-24.414
1680451120,-40.039,-29.297,-44.434,-21.484
1680451120,-36.621,-31.25,-29.785,0.977
1680451120,-38.086,-39.062,-23.438,8.789
1680451120,-32.227,-35.156,-33.691,-38.574
1680451120,-22.949,-25.879,-31.25,-58.105
1680451120,-25.391,-25.879,-19.043,-42.969
1680451120,-26.367,-28.32,-20.508,-31.25
1680451120,-24.902,-23.438,-22.461,-21.973
1680451120,-31.738,-21.484,-16.113,-26.367
1680451120,-39.062,-31.738,-24.414,-41.992
1680451120,-33.691,-40.039,-28.32,-34.668
1680451120,-38.086,-41.016,-26.367,-16.602
1680451120,-41.016,-30.762,-30.273,-16.113
1680451120,-42.969,-22.461,-18.066,-9.766
1680451120,-41.504,-29.297,-16.113,-28.32
1680451120,-20.508,-21.973,-16.602,-41.992
1680451120,-18.066,-17.09,-8.301,-20.996
1680451120,-24.414,-27.344,-31.25,-8.301
1680451120,-22.949,-35.645,-40.527,-19.043
1680451120,-26.367,-42.48,-23.438,-35.645
1680451120,-25.391,-31.25,-22.461,-41.992
1680451120,-29.297,-16.113,-22.949,-32.715
1680451120,-35.645,-22.461,-17.578,-34.18
1680451120,-35.645,-23.438,-20.996,-34.668
1680451120,-32.715,-20.996,-28.32,-28.32
1680451120,-25.391,-25.391,-23.438,-32.715
1680451120,-23.926,-23.926,-27.832,-33.691
1680451120,-33.691,-26.855,-26.367,-32.715
1680451120,-34.18,-30.762,-16.113,-24.902
1680451120,-26.855,-28.32,-30.273,-27.344
1680451120,-25.879,-21.973,-39.551,-33.203
1680451120,-20.02,-22.949,-35.156,-36.621
1680451120,-18.555,-24.414,-19.531,-38.086
1680451120,-30.762,-24.414,-20.02,-25.391
1680451120,-41.504,-26.367,-35.156,-27.832
1680451120,-34.18,-31.738,-31.738,-47.852
1680451120,-18.066,-23.926,-50.293,-38.086
1680451120,-26.855,-20.508,-37.598,-23.926
1680451120,-43.457,-32.715,-6.348,-25.391
1680451120,-39.551,-32.227,-5.371,-33.691
1680451120,-32.715,-26.367,-9.766,-40.527
1680451120,-29.297,-25.879,-24.902,-34.18
1680451120,-29.785,-25.391,-40.527,-21.484
1680451120,-35.156,-30.273,-35.645,-11.719
1680451120,-22.949,-25.391,-25.879,-24.414
1680451120,-20.996,-23.438,-32.227,-42.969
1680451120,-33.691,-28.32,-41.504,-44.434
1680451120,-39.551,-34.668,-30.273,-51.27
1680451120,-26.367,-21.484,-18.066,-43.945
1680451120,-16.602,-11.23,-22.461,-46.875
1680451120,-37.109,-25.391,-24.414,-73.242
1680451120,-47.852,-29.297,-27.832,-71.777
1680451120,-41.016,-26.855,-28.32,-50.293
1680451120,-37.109,-25.391,-25.391,-40.527
1680451120,-42.969,-28.809,-33.203,-34.18
1680451120,-39.551,-25.391,-35.645,-35.645
1680451120,-32.715,-21.484,-34.18,-52.734
1680451120,-27.832,-34.18,-25.391,-49.805
1680451120,-17.578,-30.273,-21.484,-37.598
1680451120,-20.996,-10.742,-21.973,-33.691
1680451120,-41.016,-16.113,-26.855,-44.434
1680451120,-44.922,-33.691,-24.414,-61.523
1680451120,-37.109,-38.086,-13.672,-53.711
1680451120,-32.227,-37.598,-10.254,-27.832
1680451120,-26.855,-32.227,-16.113,-23.438
1680451120,-31.738,-30.762,-34.668,-41.992
1680451120,-31.25,-32.715,-38.086,-39.062
1680451120,-34.668,-37.598,-32.227,-37.598
1680451120,-38.086,-34.18,-23.926,-32.715
1680451120,-27.344,-31.25,-18.555,-28.32
1680451120,-23.438,-39.551,-18.555,-34.668
1680451120,-30.762,-39.551,-26.855,-31.25
1680451120,-30.273,-30.273,-34.18,-35.645
1680451120,-31.25,-26.855,-28.809,-27.344
1680451120,-44.434,-34.18,-29.297,-18.555
1680451120,-35.156,-29.297,-44.922,-21.973
1680451120,-34.18,-30.273,-39.551,-30.273
1680451120,-43.945,-40.527,-4.395,-33.203
1680451120,-40.527,-42.48,0.977,-30.273
1680451120,-44.922,-39.062,-19.531,-30.762
1680451120,-41.016,-33.691,-22.461,-34.668
1680451120,-37.598,-31.738,-21.484,-46.387
1680451120,-40.527,-31.738,-27.344,-39.062
1680451120,-37.109,-33.203,-20.996,-16.113
1680451120,-42.48,-43.457,-26.367,-21.973
1680451120,-42.48,-44.922,-39.551,-25.391
1680451120,-33.691,-40.039,-32.227,-34.668
1680451120,-39.062,-34.668,-15.137,-51.27
1680451120,-31.738,-26.367,-9.766,-31.25
1680451120,-34.668,-31.738,-10.742,-16.113
1680451120,-32.715,-34.668,-14.648,-23.926
1680451120,-26.855,-36.621,-33.691,-31.25
1680451120,-24.902,-31.738,-42.969,-39.551
1680451120,-27.344,-25.879,-35.156,-37.598
1680451120,-35.156,-30.762,-34.18,-32.227
1680451120,-37.109,-35.156,-24.902,-37.598
1680451120,-35.645,-35.156,-25.391,-35.645
1680451120,-33.203,-34.668,-30.273,-26.367
1680451120,-32.227,-37.598,-22.461,-25.391
1680451120,-38.574,-39.062,-22.949,-20.996
1680451120,-41.992,-48.34,-40.039,-22.949
1680451120,-26.367,-47.363,-36.621,-34.668
1680451120,-25.879,-43.945,-28.32,-41.992
1680451120,-26.367,-40.527,-26.367,-28.809
1680451120,-26.367,-35.156,-35.156,-27.344
1680451120,-45.41,-39.551,-45.898,-41.992
1680451120,-41.504,-43.945,-41.016,-42.969
1680451120,-27.344,-44.434,-51.27,-40.527
1680451120,-29.297,-36.133,-43.457,-35.645
1680451120,-21.973,-27.832,-20.02,-10.742
1680451120,-30.762,-33.203,-25.391,-29.785
1680451120,-38.574,-41.504,-41.504,-60.547
1680451120,-19.043,-28.809,-32.715,-41.504
1680451120,-16.113,-21.484,-25.879,-23.438
1680451120,-24.414,-31.738,-29.297,-21.973
1680451120,-20.996,-31.738,-48.34,-22.461
1680451120,-1.465,-22.461,-53.223,-9.766
1680451120,-19.531,-24.902,-27.344,-21.484
1680451120,-32.227,-27.344,-27.344,-40.039
1680451120,-28.809,-36.133,-34.668,-26.855
1680451120,-28.32,-39.551,-21.973,-13.672
1680451120,-30.273,-36.133,-30.762,-25.879
1680451120,-26.367,-34.668,-44.434,-20.02
1680451120,-16.602,-39.062,-26.855,-9.277
1680451120,-30.273,-39.062,-21.973,-20.508
1680451120,-41.016,-27.832,-31.25,-20.508
1680451120,-27.344,-24.902,-32.715,-19.531
1680451120,-13.672,-24.902,-24.414,-30.273
1680451120,-23.926,-26.367,-20.508,-30.273
1680451120,-32.227,-34.668,-26.855,-17.578
1680451120,-32.227,-29.297,-18.066,-0.488
1680451120,-26.855,-24.414,-23.438,-13.184
1680451120,-26.367,-24.414,-29.785,-42.48
1680451120,-23.926,-22.949,-15.625,-34.668
1680451120,-17.09,-28.809,-11.719,-19.531
1680451120,-24.902,-33.691,-18.555,-16.113
1680451120,-31.25,-28.809,-29.297,-17.578
1680451120,-19.043,-26.367,-41.504,-24.414
1680451120,-15.137,-21.973,-34.668,-31.25
1680451120,-18.066,-17.578,-20.996,-12.207
1680451120,-20.02,-21.973,-12.207,-6.348
1680451120,-26.855,-22.461,-9.766,-27.344
1680451120,-23.438,-18.066,-20.508,-38.086
1680451120,-32.715,-22.461,-27.344,-42.48
1680451120,-40.039,-24.902,-33.691,-39.551
1680451120,-36.621,-22.461,-36.621,-29.785
1680451120,-33.691,-33.203,-30.273,-30.273
1680451120,-37.109,-41.016,-21.484,-41.016
1680451120,-28.809,-24.902,-27.832,-35.156
1680451120,-28.32,-20.02,-26.367,-22.461
1680451120,-36.621,-27.832,-23.438,-16.113
1680451120,-25.879,-29.297,-41.504,-11.23
1680451120,-23.926,-28.809,-22.461,-39.551
1680451120,-32.227,-25.879,-6.836,-53.711
1680451120,-29.785,-30.762,-21.484,-36.621
1680451120,-41.504,-38.574,-28.32,-27.832
1680451120,-44.922,-31.738,-19.043,-32.715
1680451120,-30.762,-38.086,-25.391,-35.156
1680451120,-26.855,-49.805,-53.223,-32.715
1680451120,-26.367,-38.574,-41.504,-28.809
1680451120,-38.086,-21.973,-26.855,-33.203
1680451121,-38.086,-16.113,-30.273,-33.691
1680451121,-31.738,-29.785,-7.324,-34.668
1680451121,-33.203,-41.016,-7.324,-45.41
1680451121,-25.391,-34.18,-18.066,-34.18
1680451121,-23.926,-32.715,-20.02,-20.996
1680451121,-29.785,-38.574,-23.438,-27.344
1680451121,-35.156,-37.109,-21.484,-35.156
1680451121,-40.527,-32.227,-36.621,-51.758
1680451121,-29.297,-30.273,-37.109,-54.199
1680451121,-20.508,-28.32,-32.715,-39.062
1680451121,-41.992,-27.344,-42.48,-29.785
1680451121,-46.387,-27.832,-39.062,-30.273
1680451121,-35.156,-34.18,-17.09,-45.41
1680451121,-34.18,-41.016,-28.32,-48.828
1680451121,-24.902,-41.016,-53.711,-26.367
1680451121,-22.949,-32.715,-26.855,-8.301
1680451121,-32.715,-27.344,0,-21.484
1680451121,-30.762,-27.832,-13.184,-48.34
1680451121,-29.297,-29.297,-21.973,-48.828
1680451121,-30.273,-23.926,-7.324,-33.203
1680451121,-33.203,-21.973,-16.113,-35.645
1680451121,-31.738,-22.949,-23.926,-39.062
1680451121,-29.785,-22.949,-28.809,-42.969
1680451121,-37.598,-30.273,-33.203,-53.711
1680451121,-49.316,-38.086,-28.809,-50.293
1680451121,-46.387,-39.062,-32.715,-33.691
1680451121,-33.691,-42.48,-39.551,-26.855
1680451121,-30.273,-38.086,-45.41,-40.039
1680451121,-30.273,-34.18,-37.598,-45.898
1680451121,-45.41,-41.016,-26.855,-36.133
1680451121,-59.57,-45.41,-37.109,-25.879
1680451121,-48.828,-38.574,-37.109,-25.879
1680451121,-38.574,-26.855,-24.414,-44.922
1680451121,-37.109,-26.367,-31.25,-59.57
1680451121,-38.086,-27.832,-29.785,-49.805
1680451121,-31.25,-36.621,-15.137,-37.598
1680451121,-24.414,-41.992,-18.555,-36.621
1680451121,-14.648,-29.785,-41.504,-46.387
1680451121,1.953,-27.832,-39.551,-43.945
1680451121,-29.297,-38.086,-23.926,-41.992
1680451121,-57.129,-44.922,-27.344,-48.828
1680451121,-44.922,-41.992,-18.066,-28.809
1680451121,-33.203,-38.086,-21.484,-13.672
1680451121,-30.273,-34.18,-21.973,-21.484
1680451121,-37.598,-40.527,-14.16,-28.32
1680451121,-44.922,-45.41,-21.484,-26.855
1680451121,-45.41,-35.645,-22.461,-23.438
1680451121,-37.109,-36.621,-14.16,-26.855
1680451121,-33.691,-40.527,-28.809,-33.203
1680451121,-38.086,-41.016,-32.715,-26.367
1680451121,-40.039,-43.457,-21.973,-15.137
1680451121,-36.133,-46.875,-21.973,-22.949
1680451121,-35.645,-46.875,-34.18,-18.066
1680451121,-25.879,-41.992,-40.039,-16.113
1680451121,-26.855,-51.27,-21.484,-32.227
1680451121,-33.691,-49.805,-11.719,-35.645
1680451121,-35.645,-41.016,-14.16,-29.785
1680451121,-37.109,-37.109,-11.23,-30.762
1680451121,-35.156,-28.809,-14.648,-40.527
1680451121,-33.691,-25.879,-22.461,-39.551
1680451121,-34.18,-28.32,-20.996,-32.715
1680451121,-30.273,-30.762,-19.531,-27.832
1680451121,-29.785,-35.645,-8.789,-37.109
1680451121,-28.809,-37.598,-13.672,-47.363
1680451121,-22.949,-27.832,-32.715,-38.086
1680451121,-27.344,-23.438,-29.297,-22.461
1680451121,-27.344,-29.785,-25.879,-22.461
1680451121,-22.949,-25.879,-26.367,-39.062
1680451121,-33.203,-26.855,-28.809,-51.27
1680451121,-35.156,-31.25,-32.715,-51.758
1680451121,-29.785,-26.367,-20.996,-34.668
1680451121,-32.715,-28.32,-16.602,-21.973
1680451121,-36.133,-37.109,-30.273,-34.668
1680451121,-38.086,-43.457,-45.898,-47.852
1680451121,-28.809,-36.133,-40.527,-45.898
1680451121,-21.484,-44.922,-25.879,-18.066
1680451121,-19.043,-42.969,-27.344,-4.395
1680451121,-26.855,-24.414,-27.832,-32.227
1680451121,-44.922,-28.32,-28.809,-59.57
1680451121,-41.016,-35.645,-26.855,-66.895
1680451121,-27.344,-29.297,-15.625,-48.34
1680451121,-27.832,-24.414,-18.555,-32.227
1680451121,-36.133,-28.809,-27.344,-32.715
1680451121,-41.016,-26.367,-35.156,-47.852
1680451121,-31.738,-20.996,-46.875,-54.688
1680451121,-27.832,-28.809,-45.898,-42.969
1680451121,-21.973,-37.598,-30.273,-30.762
1680451121,-12.207,-29.297,-16.113,-22.949
1680451121,-23.438,-27.344,-25.391,-26.367
1680451121,-31.25,-28.809,-33.691,-34.668
1680451121,-30.273,-26.855,-20.996,-41.504
1680451121,-26.367,-27.344,-22.949,-38.086
1680451121,-20.02,-23.438,-33.691,-29.785
1680451121,-25.391,-25.391,-29.785,-34.668
1680451121,-25.879,-31.25,-23.438,-50.293
1680451121,-29.297,-28.32,-25.879,-49.316
1680451121,-32.227,-26.367,-29.297,-39.062
1680451121,-27.344,-34.668,-22.461,-40.527
1680451121,-26.367,-32.715,-32.227,-45.41
1680451121,-18.555,-23.438,-68.848,-54.199
1680451121,-11.719,-19.531,-47.363,-28.32
1680451121,-10.742,-15.137,3.906,-9.277
1680451121,-23.438,-25.391,-8.301,-23.926
1680451121,-35.645,-29.785,-19.531,-38.574
1680451121,-30.762,-19.531,-18.066,-38.574
1680451121,-30.762,-13.672,-21.973,-29.785
1680451121,-29.785,-19.043,-27.832,-29.785
1680451121,-33.203,-22.461,-29.785,-25.879
1680451121,-39.551,-21.484,-16.602,-19.043
1680451121,-31.25,-16.602,-20.996,-32.227
1680451121,-21.484,-22.949,-33.203,-41.504
1680451121,-20.508,-35.156,-22.461,-34.18
1680451121,-41.992,-25.879,-22.949,-36.621
1680451121,-47.363,-14.648,-30.762,-48.34
1680451121,-37.109,-18.555,-33.203,-55.664
1680451121,-33.203,-18.066,-44.434,-48.34
1680451121,-31.25,-16.113,-42.48,-38.086
1680451121,-31.25,-17.09,-25.879,-22.461
1680451121,-35.156,-24.414,-30.273,-21.973
1680451121,-27.832,-31.738,-38.086,-32.715
1680451121,-31.25,-32.227,-27.344,-32.715
1680451121,-43.945,-31.25,-20.508,-21.973
1680451121,-41.016,-32.227,-31.25,-3.906
1680451121,-38.086,-28.32,-28.809,-11.719
1680451121,-40.039,-33.203,-14.648,-42.48
1680451121,-38.086,-38.574,-24.414,-61.035
1680451121,-22.461,-27.344,-37.109,-56.152
1680451121,-22.461,-28.32,-39.062,-41.016
1680451121,-30.762,-33.691,-32.227,-33.203
1680451121,-20.508,-21.973,-24.902,-44.434
1680451121,-21.973,-24.902,-39.062,-55.664
1680451121,-29.297,-30.762,-33.691,-54.688
1680451121,-24.414,-26.367,-12.695,-39.062
1680451121,-30.762,-29.785,-24.902,-30.762
1680451121,-41.992,-26.367,-32.227,-42.969
1680451121,-43.457,-19.531,-22.949,-52.246
1680451121,-39.551,-24.414,-46.875,-43.945
1680451121,-41.992,-31.738,-57.129,-13.184
1680451121,-45.41,-35.645,-28.32,-11.719
1680451121,-39.551,-34.18,-14.648,-50.781
1680451121,-33.691,-25.879,-19.531,-51.758
1680451121,-25.879,-21.484,-26.367,-27.344
1680451121,-21.973,-24.414,-24.902,-18.066
1680451121,-30.273,-31.738,-15.137,-23.438
1680451121,-40.527,-34.18,-21.973,-36.133
1680451121,-37.598,-29.297,-36.133,-48.34
1680451121,-26.855,-27.832,-32.227,-43.945
1680451121,-30.762,-27.832,-30.273,-30.762
1680451121,-41.016,-31.25,-39.062,-30.762
1680451121,-48.828,-33.691,-43.945,-44.922
1680451121,-44.922,-28.809,-42.969,-53.223
1680451121,-41.504,-28.32,-40.527,-46.387
1680451121,-44.434,-27.344,-37.598,-32.715
1680451121,-51.758,-26.855,-29.785,-31.25
1680451121,-54.199,-28.809,-16.602,-40.039
1680451121,-47.852,-24.414,-16.113,-49.805
1680451121,-46.875,-26.367,-30.762,-59.082
1680451121,-37.598,-39.551,-31.738,-41.016
1680451121,-16.602,-36.133,-15.137,-0.977
1680451121,-32.715,-15.137,-20.02,-12.207
1680451121,-64.941,-17.09,-40.039,-64.941
1680451121,-54.199,-23.438,-40.039,-69.824
1680451121,-53.223,-25.391,-37.109,-54.199
1680451121,-68.359,-31.738,-39.062,-48.34
1680451121,-62.5,-30.762,-34.668,-36.133
1680451121,-57.129,-32.227,-36.133,-49.805
1680451121,-51.27,-30.273,-38.086,-62.012
1680451121,-50.293,-29.785,-37.109,-41.016
1680451121,-51.758,-31.25,-38.574,-25.391
1680451121,-43.457,-30.273,-36.621,-27.344
1680451121,-34.668,-32.715,-32.227,-36.621
1680451121,-27.832,-25.879,-34.18,-42.48
1680451121,-30.762,-22.949,-37.598,-42.48
1680451121,-31.738,-21.973,-34.18,-35.645
1680451121,-27.832,-19.043,-34.668,-36.133
1680451121,-27.832,-29.785,-49.805,-38.086
1680451121,-27.832,-32.715,-33.691,-29.785
1680451121,-31.25,-38.086,-22.461,-24.414
1680451121,-27.832,-42.48,-36.621,-23.438
1680451121,-23.926,-35.156,-27.344,-22.461
1680451121,-33.203,-30.273,-19.531,-31.738
1680451121,-35.645,-37.598,-16.113,-47.363
1680451121,-28.32,-42.48,-14.648,-36.133
1680451121,-26.855,-33.691,-20.508,-17.09
1680451121,-41.504,-36.133,-16.602,-23.926
1680451121,-37.109,-46.387,-28.32,-42.969
1680451121,-24.414,-49.316,-38.086,-41.504
1680451121,-30.762,-41.504,-28.809,-28.809
1680451121,-25.879,-34.18,-29.785,-28.809
1680451121,-27.832,-36.133,-35.645,-28.809
1680451121,-42.48,-33.691,-28.809,-39.551
1680451121,-43.457,-32.227,-26.855,-59.082
1680451121,-39.062,-29.297,-31.25,-61.035
1680451121,-38.574,-29.785,-32.715,-50.293
1680451121,-44.434,-30.762,-29.297,-41.504
1680451121,-41.992,-27.344,-25.879,-35.156
1680451121,-37.109,-29.297,-29.785,-39.551
1680451121,-38.574,-28.32,-21.973,-53.711
1680451121,-35.156,-33.203,-26.367,-54.199
1680451121,-34.18,-28.809,-29.297,-42.48
1680451121,-41.016,-27.832,-24.902,-42.48
1680451121,-39.062,-36.621,-31.738,-53.223
1680451121,-29.297,-35.645,-48.34,-48.828
1680451121,-28.809,-30.762,-48.34,-24.414
1680451121,-24.902,-40.527,-30.273,-13.184
1680451121,-15.137,-41.016,-21.484,-14.16
1680451121,-9.277,-27.832,-16.602,-28.32
1680451121,-24.414,-30.273,-16.113,-50.293
1680451121,-32.715,-33.691,-9.766,-35.645
1680451121,-18.066,-31.738,-2.93,1.465
1680451121,-20.508,-26.855,-6.836,13.672
1680451121,-28.32,-36.133,-10.742,1.465
1680451121,-19.043,-36.133,-20.996,-18.555
1680451121,-11.719,-28.32,-39.551,-20.996
1680451121,-20.02,-29.785,-20.508,5.371
1680451121,-33.691,-32.227,-2.441,-0.977
1680451121,-34.18,-37.598,-20.508,-32.715
1680451121,-29.785,-33.691,-29.297,-25.391
1680451121,-31.738,-38.086,-26.367,-13.672
1680451121,-29.785,-38.086,-30.762,-16.113
1680451121,-27.344,-24.414,-12.207,-4.883
1680451121,-32.715,-21.973,2.93,-15.625
1680451121,-27.344,-25.391,-20.02,-46.387
1680451121,-18.066,-19.531,-37.598,-49.316
1680451121,-17.09,-15.625,-23.926,-29.785
1680451121,-25.879,-20.508,-15.625,-22.461
1680451121,-34.18,-20.508,-26.367,-30.273
1680451121,-29.297,-17.578,-20.996,-35.156
1680451121,-23.438,-16.113,-9.277,-32.715
1680451121,-19.531,-19.531,-27.832,-21.484
1680451121,-25.391,-19.531,-36.621,-13.672
1680451121,-33.203,-11.23,-16.113,-16.113
1680451121,-30.273,-14.16,-10.254,-34.18
1680451121,-30.273,-12.207,-17.578,-52.246
1680451121,-29.297,-9.277,-18.555,-43.945
1680451121,-27.344,-11.23,-13.672,-20.02
1680451121,-26.367,-14.16,-25.391,-19.043
1680451121,-30.273,-17.578,-31.738,-46.387
1680451121,-22.949,-13.184,-32.227,-43.945
1680451121,-10.742,-14.16,-26.367,-25.391
1680451121,-15.625,-15.137,-11.23,-15.137
1680451121,-25.879,-16.113,-6.348,-27.344
1680451121,-33.203,-21.484,-19.531,-47.852
1680451121,-27.344,-23.438,-44.922,-33.691
1680451121,-15.625,-18.066,-37.109,-13.184
1680451121,-22.949,-20.996,-7.324,-29.785
1680451121,-36.621,-37.109,-14.16,-52.246
1680451121,-38.086,-37.598,-27.832,-55.176
1680451121,-35.645,-35.156,-33.691,-51.27
1680451121,-30.273,-29.785,-25.879,-39.551
1680451121,-28.32,-27.832,-13.184,-31.738
1680451121,-38.574,-27.832,-9.766,-41.992
1680451121,-41.992,-29.785,-28.809,-53.223
1680451121,-37.598,-40.527,-45.41,-47.363
1680451121,-38.086,-47.363,-34.18,-28.32
1680451121,-26.855,-46.875,-22.461,-23.438
1680451122,-30.273,-42.48,-20.996,-44.922
1680451122,-43.457,-46.387,-26.855,-57.129
1680451122,-37.598,-40.039,-22.461,-49.805
1680451122,-35.645,-27.344,-6.836,-40.527
1680451122,-34.668,-26.855,-3.906,-27.832
1680451122,-33.691,-31.738,-8.789,-24.414
1680451122,-27.344,-28.809,-5.371,-29.297
1680451122,-27.344,-24.902,-21.973,-36.621
1680451122,-31.738,-28.32,-33.203,-46.387
1680451122,-20.508,-28.32,-27.832,-41.016
1680451122,-20.02,-26.367,-26.855,-34.18
1680451122,-23.926,-24.902,-30.762,-45.898
1680451122,-26.367,-27.344,-37.109,-57.617
1680451122,-29.785,-31.25,-41.016,-52.246
1680451122,-26.855,-36.133,-49.316,-22.461
1680451122,-33.691,-31.25,-48.34,-7.324
1680451122,-37.598,-23.926,-49.805,-34.668
1680451122,-31.25,-27.832,-53.711,-50.293
1680451122,-21.973,-21.484,-32.715,-34.668
1680451122,-25.391,-14.16,-12.207,-20.996
1680451122,-44.434,-26.855,-15.137,-22.461
1680451122,-54.199,-42.48,-14.16,-28.809
1680451122,-50.293,-44.922,-16.113,-35.156
1680451122,-38.574,-37.598,-29.785,-33.691
1680451122,-34.668,-28.32,-27.832,-19.043
1680451122,-29.785,-28.32,-19.043,-6.836
1680451122,-28.809,-33.203,-23.438,-10.254
1680451122,-30.273,-28.32,-27.832,-28.809
1680451122,-19.043,-28.809,-25.879,-32.227
1680451122,-6.836,-24.902,-31.738,-9.277
1680451122,-20.996,-20.02,-29.785,-9.277
1680451122,-34.18,-22.461,-19.043,-17.578
1680451122,-32.715,-23.438,-35.156,-32.227
1680451122,-29.785,-23.926,-30.762,-39.062
1680451122,-18.555,-30.762,-14.16,-15.137
1680451122,-34.18,-40.039,-28.32,-11.719
1680451122,-45.41,-29.297,-23.438,-30.273
1680451122,-34.18,-22.949,-16.602,-46.387
1680451122,-33.203,-25.879,-20.02,-51.27
1680451122,-27.344,-21.973,-26.855,-33.691
1680451122,-32.715,-22.461,-32.715,-23.926
1680451122,-41.992,-25.879,-31.25,-32.715
1680451122,-33.203,-19.531,-27.344,-32.227
1680451122,-27.832,-17.09,-32.715,-34.18
1680451122,-33.691,-28.32,-44.922,-44.434
1680451122,-35.645,-36.133,-36.621,-39.062
1680451122,-31.25,-36.621,-22.461,-23.438
1680451122,-39.062,-38.574,-32.715,-26.367
1680451122,-44.922,-40.039,-40.039,-41.504
1680451122,-34.668,-37.109,-26.367,-35.156
1680451122,-31.25,-33.203,-13.184,-21.484
1680451122,-36.621,-35.156,-9.766,-27.344
1680451122,-35.156,-34.18,-8.789,-37.598
1680451122,-36.133,-39.551,-24.414,-41.504
1680451122,-34.18,-38.574,-44.434,-38.086
1680451122,-26.367,-34.668,-41.992,-17.09
1680451122,-24.902,-38.086,-37.109,5.371
1680451122,-27.344,-34.668,-27.344,-20.02
1680451122,-34.18,-32.715,-19.531,-60.547
1680451122,-26.855,-31.738,-24.902,-58.105
1680451122,-24.902,-36.621,-31.738,-38.574
1680451122,-24.902,-30.273,-23.926,-15.137
1680451122,-29.785,-17.578,-29.785,-28.809
1680451122,-61.035,-34.18,-37.109,-70.312
1680451122,-52.246,-36.133,-35.645,-64.453
1680451122,-31.25,-30.762,-50.293,-32.715
1680451122,-33.203,-39.062,-46.875,-5.859
1680451122,-34.18,-31.738,-34.668,-13.184
1680451122,-30.762,-33.203,-35.645,-43.945
1680451122,-22.949,-39.551,-33.203,-41.504
1680451122,-19.043,-26.367,-16.113,-19.531
1680451122,-15.137,-17.578,-25.879,-8.789
1680451122,-1.953,-27.832,-37.598,-2.93
1680451122,-14.648,-43.945,-16.113,-5.371
1680451122,-23.438,-37.598,-20.508,-4.883
1680451122,-9.766,-14.648,-37.109,-11.719
1680451122,-9.277,-18.066,-39.062,-15.137
1680451122,-25.391,-30.762,-21.973,-9.277
1680451122,-21.484,-17.09,-8.301,-15.137
1680451122,-14.648,-15.625,-20.02,-16.113
1680451122,-26.367,-27.832,-14.16,-0.488
1680451122,-22.949,-22.949,-6.836,-4.395
1680451122,-20.02,-25.391,-7.812,-20.02
1680451122,-34.668,-32.715,-17.09,-25.879
1680451122,-34.668,-22.949,-26.367,-31.738
1680451122,-21.973,-16.602,-22.949,-17.09
1680451122,-19.043,-16.602,-25.391,-3.906
1680451122,-27.344,-17.09,-22.461,-14.16
1680451122,-37.109,-24.414,-22.949,-41.992
1680451122,-34.18,-30.273,-24.414,-53.223
1680451122,-33.691,-31.738,-16.602,-49.316
1680451122,-38.574,-27.832,-32.227,-35.645
1680451122,-25.391,-15.137,-33.203,-21.973
1680451122,-18.555,-16.602,-13.672,-33.691
1680451122,-34.668,-36.133,-19.531,-47.852
1680451122,-43.457,-40.039,-33.691,-48.34
1680451122,-45.898,-28.32,-40.039,-39.551
1680451122,-48.34,-31.25,-37.109,-35.156
1680451122,-46.875,-39.551,-29.297,-39.551
1680451122,-40.527,-30.762,-15.137,-40.527
1680451122,-42.48,-27.832,-23.438,-50.781
1680451122,-41.992,-29.785,-25.879,-47.363
1680451122,-40.527,-28.809,-16.602,-40.039
1680451122,-40.527,-31.25,-33.203,-44.922
1680451122,-30.762,-30.762,-51.27,-45.898
1680451122,-28.809,-26.367,-44.922,-45.898
1680451122,-32.715,-34.668,-19.531,-40.527
1680451122,-38.574,-47.852,-6.836,-24.902
1680451122,-39.062,-42.48,-20.02,-33.691
1680451122,-25.879,-26.855,-29.297,-50.781
1680451122,-29.785,-19.531,-31.738,-56.152
1680451122,-61.523,-24.902,-36.621,-74.219
1680451122,-87.402,-33.203,-45.41,-86.914
1680451122,-91.309,-27.344,-56.641,-89.355
1680451122,-91.797,-20.508,-61.035,-96.68
1680451122,-85.449,-27.832,-46.387,-107.91
1680451122,-85.449,-35.645,-40.039,-100.586
1680451122,-84.961,-37.598,-36.621,-80.566
1680451122,-79.102,-30.273,-28.809,-61.035
1680451122,-60.547,-16.602,-43.945,-59.57
1680451122,-48.828,-11.23,-51.758,-63.477
1680451122,-51.27,-12.695,-51.27,-52.246
1680451122,-43.457,-6.836,-43.945,-41.504
1680451122,-38.086,1.953,-41.504,-40.039
1680451122,-39.551,-3.418,-43.457,-52.734
1680451122,-49.316,-12.207,-36.621,-62.5
1680451122,-42.969,-4.395,-26.367,-43.457
1680451122,-38.574,-0.488,-31.738,-18.066
1680451122,-45.41,-6.836,-47.363,-20.508
1680451122,-52.246,-13.184,-35.156,-49.805
1680451122,-49.316,-19.043,-29.785,-59.57
1680451122,-41.504,-17.578,-42.969,-42.969
1680451122,-37.598,-16.602,-45.898,-23.438
1680451122,-40.527,-25.391,-37.598,-22.461
1680451122,-42.48,-30.762,-41.504,-46.387
1680451122,-35.156,-27.832,-45.898,-50.293
1680451122,-33.691,-30.273,-27.832,-33.203
1680451122,-43.457,-35.645,-22.949,-36.621
1680451122,-52.734,-38.086,-33.203,-37.598
1680451122,-47.363,-39.062,-39.062,-21.973
1680451122,-43.945,-44.434,-40.527,-30.762
1680451122,-38.574,-59.57,-26.855,-56.152
1680451122,-38.574,-56.641,-29.297,-44.434
1680451122,-45.898,-53.711,-32.227,-29.297
1680451122,-49.316,-49.805,-19.531,-50.781
1680451122,-59.082,-41.504,-22.949,-67.383
1680451122,-59.57,-39.062,-30.273,-63.965
1680451122,-49.316,-24.414,-31.25,-37.109
1680451122,-58.594,-27.344,-37.109,-22.949
1680451122,-70.312,-42.48,-31.738,-38.574
1680451122,-62.5,-42.48,-24.414,-48.828
1680451122,-44.434,-43.457,-26.367,-51.27
1680451122,-39.062,-45.41,-14.648,-37.109
1680451122,-40.039,-46.875,-13.184,-25.391
1680451122,-32.715,-41.992,-31.25,-30.273
1680451122,-27.344,-34.668,-43.457,-34.668
1680451122,-28.32,-35.645,-52.734,-34.668
1680451122,-33.691,-38.086,-33.691,-22.461
1680451122,-36.133,-40.527,-21.973,-20.02
1680451122,-36.133,-40.527,-13.184,-17.578
1680451122,-37.109,-41.504,-1.465,-23.438
1680451122,-39.551,-42.48,-18.555,-36.133
1680451122,-35.645,-39.062,-27.832,-19.043
1680451122,-43.457,-43.457,-20.02,-17.09
1680451122,-48.34,-46.875,-22.949,-27.832
1680451122,-32.715,-41.992,-18.555,-28.809
1680451122,-22.461,-36.621,-16.113,-37.598
1680451122,-30.762,-35.156,-23.926,-35.645
1680451122,-35.156,-43.457,-19.531,-23.438
1680451122,-33.203,-40.039,-10.742,-21.484
1680451122,-41.992,-35.156,-34.668,-39.551
1680451122,-47.852,-37.598,-44.434,-42.969
1680451122,-38.086,-34.18,-16.602,-21.484
1680451122,-29.785,-36.133,-13.672,-17.09
1680451122,-32.715,-32.715,-23.438,-31.738
1680451122,-48.828,-32.227,-22.949,-43.945
1680451122,-56.152,-43.457,-37.109,-56.152
1680451122,-47.363,-43.457,-45.41,-51.27
1680451122,-37.109,-32.715,-32.715,-28.809
1680451122,-32.227,-29.785,-31.738,-22.949
1680451122,-31.738,-31.25,-31.25,-37.598
1680451122,-37.598,-35.156,-50.781,-48.34
1680451122,-31.25,-37.598,-45.41,-37.109
1680451122,-26.367,-34.668,-28.809,-32.227
1680451122,-31.738,-28.809,-33.203,-33.691
1680451122,-28.809,-27.344,-30.273,-36.621
1680451122,-22.949,-29.297,-22.949,-52.734
1680451122,-21.973,-27.832,-11.23,-45.41
1680451122,-21.484,-33.691,-15.625,-25.391
1680451122,-28.32,-38.574,-20.508,-24.414
1680451122,-28.32,-29.785,-35.156,-37.598
1680451122,-18.066,-25.879,-42.969,-51.27
1680451122,-11.23,-28.809,-30.762,-45.41
1680451122,-13.672,-33.203,-33.203,-36.621
1680451122,-20.996,-36.133,-39.551,-30.762
1680451122,-30.762,-28.809,-26.855,-29.785
1680451122,-30.273,-24.414,-21.484,-40.527
1680451122,-19.531,-35.156,-29.297,-41.992
1680451122,-21.973,-33.691,-35.156,-29.297
1680451122,-31.738,-19.531,-25.391,-24.902
1680451122,-39.551,-29.785,-22.461,-38.574
1680451122,-37.109,-36.621,-38.086,-44.922
1680451122,-35.645,-34.18,-27.832,-48.828
1680451122,-36.621,-33.203,-15.625,-42.969
1680451122,-41.016,-33.691,-26.855,-32.227
1680451122,-45.41,-35.156,-37.109,-31.25
1680451122,-38.574,-36.133,-41.016,-38.574
1680451122,-23.438,-36.133,-34.18,-37.109
1680451122,-4.883,-33.203,-25.879,-6.348
1680451122,-18.066,-36.133,-30.273,-0.488
1680451122,-43.945,-38.574,-31.25,-35.645
1680451122,-51.27,-29.297,-22.461,-55.176
1680451122,-40.039,-30.762,-28.32,-49.316
1680451122,-32.715,-35.156,-32.715,-35.645
1680451122,-43.457,-30.762,-26.367,-29.785
1680451122,-46.875,-27.344,-29.297,-17.09
1680451122,-43.457,-28.32,-34.18,-28.32
1680451122,-42.48,-30.273,-26.855,-42.969
1680451122,-38.574,-33.691,-24.902,-29.785
1680451122,-31.738,-27.832,-30.273,-15.625
1680451122,-32.227,-27.344,-31.25,-12.695
1680451122,-36.621,-40.039,-39.062,-27.344
1680451122,-33.203,-39.062,-29.297,-32.715
1680451122,-34.18,-29.297,-27.344,-27.344
1680451122,-36.621,-28.32,-37.598,-18.555
1680451122,-30.762,-38.086,-25.879,-17.09
1680451122,-20.508,-34.18,-31.738,-14.16
1680451122,-17.578,-22.461,-57.129,-27.832
1680451122,-24.902,-25.391,-36.133,-45.898
1680451122,-28.809,-30.762,-4.883,-29.785
1680451122,-27.832,-29.785,-11.719,-24.414
1680451122,-21.484,-21.973,-14.16,-33.203
1680451122,-21.484,-22.461,-11.23,-45.41
1680451122,-25.391,-31.25,-20.996,-49.805
1680451122,-25.391,-30.273,-23.438,-41.504
1680451122,-27.344,-32.227,-20.508,-36.621
1680451122,-16.113,-28.809,-25.391,-36.621
1680451122,-15.625,-29.785,-41.504,-41.504
1680451122,-17.09,-36.133,-44.434,-36.621
1680451122,-26.367,-34.18,-26.367,-36.133
1680451122,-44.922,-36.621,-20.996,-36.621
1680451122,-37.598,-34.18,-29.785,-23.438
1680451122,-33.203,-30.273,-35.156,-29.297
1680451122,-39.551,-35.156,-32.715,-46.875
1680451122,-30.273,-27.344,-17.578,-40.039
1680451122,-20.508,-29.297,-14.16,-22.949
1680451122,-32.715,-35.645,-30.762,-21.973
1680451122,-36.133,-28.809,-33.203,-31.25
1680451122,-29.785,-32.227,-22.461,-41.504
1680451122,-33.691,-33.691,-24.414,-37.109
1680451122,-35.645,-34.18,-35.156,-29.785
1680451122,-34.18,-29.297,-25.391,-27.832
1680451122,-37.598,-26.367,-25.391,-31.738
1680451122,-28.32,-26.855,-25.391,-41.016
1680451122,-20.02,-25.879,-28.809,-37.109
1680451122,-24.414,-30.273,-41.992,-15.625
1680451123,-29.785,-29.785,-43.945,-12.207
1680451123,-24.902,-23.438,-23.926,-24.414
1680451123,-31.738,-25.879,-14.648,-41.504
1680451123,-33.691,-28.809,-15.625,-35.645
1680451123,-27.832,-30.762,-8.301,-16.113
1680451123,-28.809,-35.645,-17.09,-18.555
1680451123,-31.738,-34.668,-24.902,-20.996
1680451123,-27.344,-25.879,-35.645,-23.926
1680451123,-14.16,-22.949,-36.133,-38.086
1680451123,-12.207,-26.855,-32.227,-31.738
1680451123,-18.555,-16.602,-31.738,-19.531
1680451123,-21.973,-16.113,-25.391,-27.344
1680451123,-20.02,-26.367,-25.879,-33.203
1680451123,-11.23,-20.02,-21.973,-19.531
1680451123,3.418,-9.277,-14.648,5.371
1680451123,-9.766,-29.785,-34.18,-7.812
1680451123,-38.086,-34.18,-38.086,-37.109
1680451123,-36.621,-16.113,-42.969,-52.734
1680451123,-38.574,-25.391,-32.227,-70.312
1680451123,-50.781,-26.855,-22.461,-56.152
1680451123,-50.781,-21.484,-38.574,-42.969
1680451123,-51.758,-25.391,-37.109,-52.246
1680451123,-46.875,-27.832,-35.645,-59.57
1680451123,-33.203,-28.809,-35.156,-54.199
1680451123,-27.832,-31.738,-30.273,-32.715
1680451123,-31.25,-29.785,-32.227,-22.461
1680451123,-32.715,-29.785,-30.762,-35.156
1680451123,-35.645,-29.297,-20.996,-50.781
1680451123,-42.48,-26.855,-26.367,-57.129
1680451123,-42.969,-29.785,-32.227,-45.898
1680451123,-46.387,-37.598,-28.809,-26.855
1680451123,-47.852,-37.109,-25.879,-22.949
1680451123,-41.016,-25.879,-27.344,-39.062
1680451123,-40.039,-25.391,-19.043,-52.734
1680451123,-42.48,-29.297,-16.113,-42.969
1680451123,-41.016,-24.902,-25.879,-28.809
1680451123,-46.387,-30.762,-39.551,-30.762
1680451123,-45.41,-35.156,-36.133,-44.922
1680451123,-31.25,-29.297,-26.855,-46.387
1680451123,-29.297,-32.227,-34.18,-40.527
1680451123,-31.738,-33.203,-20.996,-23.926
1680451123,-38.086,-34.18,-10.742,-22.949
1680451123,-32.715,-37.109,-14.16,-31.25
1680451123,-25.879,-28.32,-17.578,-30.273
1680451123,-27.832,-26.367,-25.391,-38.574
1680451123,-28.32,-25.391,-28.809,-27.344
1680451123,-27.832,-21.973,-32.715,-24.414
1680451123,-25.391,-24.902,-34.18,-36.133
1680451123,-24.902,-28.32,-37.598,-42.969
1680451123,-15.625,-21.973,-27.344,-32.227
1680451123,-4.395,-16.602,-20.02,-8.301
1680451123,-20.02,-21.973,-26.855,-9.277
1680451123,-36.133,-22.949,-23.926,-35.645
1680451123,-25.879,-20.996,-18.066,-51.27
1680451123,-33.203,-23.438,-21.973,-54.199
1680451123,-41.504,-23.438,-37.109,-36.133
1680451123,-38.086,-26.367,-47.363,-16.113
1680451123,-43.945,-32.715,-38.574,-37.598
1680451123,-43.945,-33.691,-28.32,-47.852
1680451123,-40.039,-29.785,-25.879,-36.133
1680451123,-33.691,-26.855,-23.438,-19.531
1680451123,-16.113,-18.555,-22.949,-3.418
1680451123,-26.855,-22.461,-11.719,-21.973
1680451123,-70.312,-40.527,-14.16,-58.105
1680451123,-58.105,-36.133,-26.855,-46.387
1680451123,-37.598,-37.109,-29.785,-18.066
1680451123,-42.48,-40.527,-21.973,6.348
1680451123,-37.109,-22.949,-9.277,4.883
1680451123,-39.551,-32.227,-13.184,-38.574
1680451123,-38.086,-37.598,-24.902,-44.434
1680451123,-37.109,-30.273,-28.32,-27.344
1680451123,-33.203,-30.762,-27.832,-19.043
1680451123,-37.109,-37.598,-25.391,-22.949
1680451123,-40.527,-41.016,-38.574,-30.762
1680451123,-32.227,-39.551,-43.945,-32.715
1680451123,-34.18,-41.016,-46.875,-19.531
1680451123,-35.156,-39.062,-38.086,-15.625
1680451123,-36.621,-41.992,-8.301,-25.391
1680451123,-29.785,-35.156,-14.16,-31.25
1680451123,-21.973,-25.879,-24.414,-36.621
1680451123,-30.273,-31.25,-31.25,-33.691
1680451123,-36.133,-34.18,-34.668,-24.902
1680451123,-39.551,-36.621,-33.203,-14.16
1680451123,-47.363,-34.18,-30.762,-16.602
1680451123,-42.969,-33.203,-29.297,-33.203
1680451123,-38.086,-35.645,-20.02,-27.344
1680451123,-35.645,-27.344,-21.484,-14.648
1680451123,-40.039,-21.973,-22.461,-21.484
1680451123,-40.527,-30.273,-19.531,-26.855
1680451123,-25.879,-35.156,-21.973,-28.809
1680451123,-20.996,-27.832,-17.09,-34.18
1680451123,-25.879,-23.926,-20.02,-30.762
1680451123,-31.738,-28.809,-15.137,-24.414
1680451123,-29.785,-27.832,-25.391,-35.156
1680451123,-22.461,-26.855,-38.086,-38.574
1680451123,-21.484,-28.809,-28.809,-18.066
1680451123,-32.227,-34.668,-19.531,-8.789
1680451123,-43.457,-43.945,-25.391,-18.066
1680451123,-41.016,-28.809,-16.113,-24.414
1680451123,-33.203,-21.973,-11.23,-33.691
1680451123,-32.227,-31.25,-27.832,-34.668
1680451123,-33.203,-32.227,-22.949,-17.578
1680451123,-24.414,-25.391,-13.672,-11.23
1680451123,-34.18,-26.367,-21.484,-34.18
1680451123,-43.457,-27.344,-37.109,-56.641
1680451123,-34.668,-25.391,-35.645,-47.852
1680451123,-26.367,-22.461,-18.066,-34.18
1680451123,-32.227,-20.996,-17.578,-28.809
1680451123,-35.156,-25.391,-28.809,-36.133
1680451123,-25.879,-16.113,-54.688,-49.805
1680451123,-20.02,-13.184,-48.34,-48.34
1680451123,-19.043,-23.926,-20.996,-33.203
1680451123,-20.996,-19.531,-18.555,-19.043
1680451123,-25.879,-16.113,-15.137,-12.695
1680451123,-24.902,-18.555,-20.02,-20.996
1680451123,-27.344,-21.973,-28.32,-40.527
1680451123,-31.25,-26.367,-24.414,-39.062
1680451123,-25.879,-21.973,-15.137,-21.973
1680451123,-21.484,-24.414,-16.113,-19.043
1680451123,-24.414,-23.926,-28.809,-28.32
1680451123,-23.438,-22.949,-30.762,-28.809
1680451123,-15.625,-20.508,-30.762,-15.137
1680451123,-19.043,-20.02,-35.645,-9.277
1680451123,-30.762,-26.855,-24.902,-20.996
1680451123,-27.832,-24.414,-20.508,-38.574
1680451123,-33.691,-24.414,-33.691,-35.645
1680451123,-34.18,-20.02,-40.039,-20.02
1680451123,-31.738,-24.414,-35.156,-28.32
1680451123,-38.086,-30.762,-35.156,-35.645
1680451123,-34.668,-22.461,-32.715,-40.527
1680451123,-29.297,-32.227,-19.043,-48.828
1680451123,-22.461,-39.062,-11.719,-39.551
1680451123,-30.273,-32.715,-7.324,-27.344
1680451123,-41.992,-36.621,-16.113,-32.227
1680451123,-38.574,-31.738,-30.273,-41.992
1680451123,-29.785,-30.762,-30.762,-40.527
1680451123,-27.344,-38.574,-37.598,-33.203
1680451123,-26.855,-35.645,-33.691,-25.879
1680451123,-29.297,-35.645,-18.066,-23.926
1680451123,-28.32,-34.668,-21.973,-28.809
1680451123,-16.113,-32.227,-31.25,-33.691
1680451123,-14.16,-37.598,-28.32,-28.809
1680451123,-23.926,-41.016,-14.16,-17.09
1680451123,-34.18,-37.109,-20.996,-21.973
1680451123,-34.18,-34.18,-21.484,-38.574
1680451123,-20.02,-31.738,-25.879,-36.133
1680451123,-23.926,-30.762,-32.227,-17.578
1680451123,-28.32,-31.25,-23.438,-11.719
1680451123,-27.832,-33.203,-21.484,-25.879
1680451123,-36.133,-41.992,-13.184,-41.504
1680451123,-38.086,-41.992,-21.484,-52.246
1680451123,-26.367,-31.25,-35.645,-39.062
1680451123,-16.113,-37.109,-28.32,-21.484
1680451123,-27.832,-38.574,-19.043,-30.273
1680451123,-37.109,-32.227,-17.578,-38.574
1680451123,-29.297,-28.809,-15.137,-38.086
1680451123,-26.855,-28.809,-18.066,-45.898
1680451123,-27.832,-30.273,-22.949,-44.434
1680451123,-32.227,-25.879,-22.461,-27.832
1680451123,-24.414,-21.973,-21.484,-36.621
1680451123,-28.809,-27.344,-22.461,-59.082
1680451123,-36.133,-32.227,-34.18,-56.152
1680451123,-26.855,-26.367,-32.715,-32.715
1680451123,-37.598,-27.832,-25.391,-21.484
1680451123,-43.945,-33.691,-32.227,-31.25
1680451123,-37.598,-32.227,-39.062,-47.852
1680451123,-31.738,-36.133,-36.621,-47.852
1680451123,-29.785,-41.992,-29.785,-37.598
1680451123,-34.18,-37.598,-27.832,-31.738
1680451123,-41.504,-37.598,-27.832,-25.879
1680451123,-46.387,-45.41,-29.785,-40.039
1680451123,-47.363,-44.922,-35.156,-54.199
1680451123,-43.457,-48.828,-29.297,-48.34
1680451123,-44.922,-55.664,-24.414,-34.668
1680451123,-40.039,-47.852,-20.508,-25.391
1680451123,-34.668,-39.062,-19.531,-39.551
1680451123,-35.645,-34.18,-31.25,-61.523
1680451123,-41.504,-37.598,-45.41,-61.035
1680451123,-40.527,-38.086,-38.574,-35.156
1680451123,-22.949,-31.25,-33.203,-11.23
1680451123,-29.297,-40.527,-26.855,-25.879
1680451123,-41.504,-47.363,-33.691,-55.664
1680451123,-34.668,-38.574,-40.039,-59.57
1680451123,-40.039,-41.504,-17.09,-38.574
1680451123,-57.129,-49.805,-11.719,-34.668
1680451123,-67.383,-49.805,-17.578,-55.664
1680451123,-57.129,-44.922,-14.16,-54.199
1680451123,-45.898,-42.48,-13.672,-50.293
1680451123,-63.965,-49.805,-23.926,-46.387
1680451123,-76.66,-56.641,-21.973,-51.27
1680451123,-69.336,-49.805,-25.391,-75.195
1680451123,-53.223,-44.922,-29.785,-70.801
1680451123,-45.41,-49.316,-38.086,-60.547
1680451123,-46.875,-41.016,-37.598,-47.363
1680451123,-43.457,-40.039,-33.691,-39.062
1680451123,-43.457,-50.781,-30.273,-47.363
1680451123,-34.18,-40.039,-27.832,-44.434
1680451123,-24.902,-28.32,-32.715,-36.621
1680451123,-32.715,-35.645,-22.949,-35.156
1680451123,-42.969,-40.039,-24.902,-30.762
1680451123,-47.363,-41.992,-25.391,-34.18
1680451123,-41.992,-36.133,-24.414,-44.922
1680451123,-43.945,-37.109,-44.922,-42.969
1680451123,-47.852,-36.621,-36.133,-38.574
1680451123,-46.875,-38.086,-20.508,-29.297
1680451123,-43.457,-39.551,-28.32,-27.832
1680451123,-41.992,-32.715,-22.461,-42.969
1680451123,-46.875,-40.039,-15.137,-46.875
1680451123,-44.922,-36.133,-15.625,-27.832
1680451123,-36.621,-30.762,-23.926,-11.23
1680451123,-39.062,-33.691,-23.926,-27.344
1680451123,-41.992,-31.738,-14.16,-43.457
1680451123,-38.086,-32.715,-23.926,-43.945
1680451123,-27.832,-34.18,-44.922,-30.762
1680451123,-37.598,-34.668,-40.039,-16.113
1680451123,-51.27,-40.039,-16.602,-22.461
1680451123,-47.852,-37.109,-24.902,-46.875
1680451123,-44.434,-37.598,-52.246,-59.082
1680451123,-44.922,-41.992,-34.668,-38.086
1680451123,-42.969,-43.457,-12.695,-5.859
1680451123,-41.504,-42.48,-14.648,-6.836
1680451123,-41.992,-40.527,-18.066,-39.062
1680451123,-35.645,-42.48,-22.949,-42.48
1680451123,-28.32,-41.992,-23.438,-23.926
1680451123,-29.297,-43.457,-28.809,-12.695
1680451123,-29.785,-36.133,-11.719,-11.719
1680451123,-31.738,-35.645,-4.883,-34.668
1680451123,-30.762,-38.086,-15.137,-50.293
1680451123,-32.715,-34.668,-30.762,-38.086
1680451123,-41.992,-33.203,-47.363,-23.926
1680451123,-33.203,-29.785,-39.062,-27.344
1680451123,-31.25,-30.273,-24.902,-40.527
1680451123,-36.621,-23.438,-19.531,-45.898
1680451123,-26.855,-26.367,-20.508,-28.32
1680451123,-32.227,-41.016,-21.973,-13.672
1680451123,-36.621,-42.48,-14.648,-24.414
1680451123,-27.832,-46.875,-16.602,-16.602
1680451123,-20.02,-41.016,-19.043,-6.348
1680451123,-16.113,-33.691,-9.766,-20.508
1680451123,-19.043,-35.645,-10.742,-16.113
1680451123,-23.438,-35.156,-10.254,1.953
1680451123,-23.438,-35.156,-11.719,-5.371
1680451123,-28.809,-28.32,-18.066,-21.484
1680451123,-26.367,-22.949,-34.668,-26.855
1680451123,-14.648,-26.855,-40.527,-13.184
1680451123,-0.488,-39.551,-24.414,3.906
1680451123,-9.277,-48.34,-3.906,-11.719
1680451123,-27.344,-31.738,-2.93,-22.949
1680451123,-20.508,-20.996,-21.973,-18.555
1680451123,-20.508,-35.645,-28.809,-19.043
1680451123,-21.973,-36.621,-14.16,-12.695
1680451123,-21.973,-25.879,-8.789,-16.602
1680451123,-16.602,-23.926,-14.648,-19.531
1680451123,-8.301,-22.461,-13.672,-12.695
1680451123,-14.16,-23.926,-10.742,-12.695
1680451123,-25.391,-30.273,-19.531,-17.09
1680451124,-27.344,-31.25,-30.762,-12.695
1680451124,-20.508,-29.785,-19.043,-19.531
1680451124,-17.578,-31.25,-23.926,-36.621
1680451124,-20.02,-33.203,-25.879,-33.203
1680451124,-26.855,-28.32,-3.906,-8.301
1680451124,-41.504,-30.273,-7.324,-7.812
1680451124,-49.316,-36.133,-19.043,-32.715
1680451124,-35.645,-30.273,-21.484,-36.133
1680451124,-30.762,-28.809,-14.16,-21.973
1680451124,-40.039,-32.227,-19.043,-8.301
1680451124,-42.969,-24.902,-18.555,-13.672
1680451124,-33.691,-19.043,-18.066,-31.738
1680451124,-22.949,-20.996,-31.25,-35.645
1680451124,-20.996,-27.344,-29.297,-30.273
1680451124,-25.879,-28.32,-20.02,-22.461
1680451124,-20.996,-15.625,-21.973,-17.578
1680451124,-18.066,-19.531,-27.832,-29.785
1680451124,-14.16,-32.227,-27.344,-30.273
1680451124,-9.277,-21.973,-10.254,-24.902
1680451124,0,-10.254,-7.812,-9.277
1680451124,1.465,-12.695,-14.16,1.465
1680451124,-20.996,-26.855,-21.973,-31.738
1680451124,-34.668,-29.785,-25.391,-59.57
1680451124,-28.32,-23.438,-20.508,-55.176
1680451124,-12.207,-27.344,-18.555,-34.18
1680451124,-22.461,-27.832,-20.996,-21.973
1680451124,-26.367,-31.25,-25.391,-26.367
1680451124,-12.695,-32.227,-29.297,-33.691
1680451124,-14.16,-24.902,-27.344,-39.551
1680451124,-9.766,-20.996,-17.578,-24.414
1680451124,-9.277,-15.625,-13.184,-3.906
1680451124,-16.602,-16.602,-27.344,-0.977
1680451124,-16.113,-19.531,-35.645,-7.324
1680451124,-16.113,-17.09,-14.648,-27.344
1680451124,-22.461,-20.02,-9.277,-25.879
1680451124,-19.531,-13.672,-5.371,0.488
1680451124,-25.879,-21.973,-10.742,-10.254
1680451124,-42.48,-37.598,-40.039,-34.668
1680451124,-22.949,-30.762,-35.156,-28.32
1680451124,-14.16,-25.879,-28.809,-11.719
1680451124,-35.645,-37.598,-36.133,3.906
1680451124,-24.902,-39.062,-25.391,-2.441
1680451124,-26.367,-35.645,-14.16,-24.902
1680451124,-32.227,-40.039,-30.762,-20.996
1680451124,-27.344,-35.645,-33.203,-12.695
1680451124,-36.621,-33.203,-29.785,-16.113
1680451124,-36.133,-33.203,-51.27,-15.625
1680451124,-24.414,-34.18,-33.691,-29.297
1680451124,-22.949,-34.668,-6.348,-35.156
1680451124,-26.855,-30.762,-17.09,-31.25
1680451124,-29.785,-21.973,-27.344,-17.09
1680451124,-32.227,-22.949,-18.066,-4.395
1680451124,-34.18,-32.227,-17.578,-22.949
1680451124,-29.297,-26.855,-25.879,-40.039
1680451124,-29.297,-26.367,-30.273,-42.969
1680451124,-33.691,-27.344,-29.785,-33.203
1680451124,-36.621,-22.461,-20.508,-19.531
1680451124,-37.598,-25.879,-37.598,-24.414
1680451124,-15.625,-30.273,-31.738,-30.762
1680451124,-16.602,-33.691,-6.348,-32.227
1680451124,-34.18,-34.18,-17.578,-29.297
1680451124,-38.086,-36.133,-28.32,-24.414
1680451124,-25.879,-35.645,-29.785,-7.324
1680451124,-14.648,-19.531,-26.367,-2.93
1680451124,-37.109,-12.695,-45.898,-44.434
1680451124,-42.969,-16.602,-41.992,-50.293
1680451124,-40.039,-13.672,-21.973,-25.879
1680451124,-39.062,-12.695,-42.48,-41.016
1680451124,-35.156,-15.137,-62.012,-59.57
1680451124,-30.273,-14.16,-42.48,-40.039
1680451124,-28.32,-20.996,-35.156,-29.785
1680451124,-41.016,-25.391,-39.551,-34.18
1680451124,-37.598,-20.996,-49.805,-51.27
1680451124,-22.461,-21.973,-63.965,-52.734
1680451124,-28.32,-17.578,-35.156,-30.762
1680451124,-20.996,-12.207,-10.742,-24.902
1680451124,-25.879,-16.113,-22.949,-33.203
1680451124,-37.598,-19.531,-40.039,-38.086
1680451124,-34.18,-24.414,-42.48,-46.387
1680451124,-26.855,-24.902,-37.109,-48.34
1680451124,-18.066,-15.625,-34.18,-32.715
1680451124,-27.344,-24.414,-30.762,-27.344
1680451124,-33.691,-26.367,-23.926,-28.809
1680451124,-27.832,-18.066,-27.832,-28.32
1680451124,-27.344,-17.578,-28.809,-43.945
1680451124,-29.785,-25.391,-37.598,-45.898
1680451124,-32.227,-34.18,-43.945,-27.832
1680451124,-25.391,-33.203,-44.434,-21.484
1680451124,-19.043,-34.668,-41.992,-40.039
1680451124,-26.855,-41.992,-25.879,-52.246
1680451124,-39.062,-40.039,-20.508,-32.715
1680451124,-32.715,-30.762,-11.23,-10.742
1680451124,-11.719,-27.832,0,-9.277
1680451124,-35.156,-35.645,-21.973,-38.086
1680451124,-53.711,-39.551,-37.598,-58.594
1680451124,-42.969,-38.086,-34.18,-40.039
1680451124,-41.504,-34.668,-25.391,-21.973
1680451124,-43.457,-34.668,-22.461,-20.508
1680451124,-43.945,-32.715,-49.316,-22.461
1680451124,-34.18,-27.832,-47.852,-33.691
1680451124,-23.926,-27.832,-26.855,-41.504
1680451124,-32.227,-34.668,-29.297,-32.227
1680451124,-43.457,-40.039,-34.18,-30.273
1680451124,-38.086,-35.645,-28.32,-37.109
1680451124,-35.156,-36.621,-27.344,-39.551
1680451124,-35.156,-42.48,-39.551,-38.574
1680451124,-24.902,-36.133,-30.273,-4.395
1680451124,-26.855,-21.973,-20.02,12.207
1680451124,-44.434,-26.367,-18.066,-33.203
1680451124,-37.598,-38.086,-27.832,-66.895
1680451124,-18.555,-35.645,-40.527,-64.941
1680451124,-22.949,-23.926,-23.438,-45.41
1680451124,-32.715,-18.066,-25.879,-36.621
1680451124,-29.297,-6.348,-39.551,-42.969
1680451124,-33.203,-2.93,-28.32,-47.363
1680451124,-26.855,-8.789,-25.879,-28.809
1680451124,-20.02,0.977,-32.715,-17.09
1680451124,-32.715,-0.488,-24.414,-30.273
1680451124,-42.48,-11.23,-24.414,-33.691
1680451124,-49.316,-14.648,-32.227,-40.039
1680451124,-41.016,-20.02,-14.648,-46.875
1680451124,-36.621,-20.996,-11.719,-29.297
1680451124,-38.086,-24.902,-23.438,-8.301
1680451124,-32.227,-34.668,-27.832,-24.902
1680451124,-34.18,-31.25,-35.156,-43.945
1680451124,-33.691,-22.461,-41.016,-38.574
1680451124,-30.273,-26.855,-40.527,-36.133
1680451124,-32.715,-36.621,-22.949,-27.344
1680451124,-31.738,-36.621,-13.184,-29.785
1680451124,-21.484,-30.762,-20.508,-44.922
1680451124,-23.926,-32.715,-24.414,-43.457
1680451124,-33.203,-35.156,-17.578,-38.086
1680451124,-30.762,-32.715,-16.113,-32.227
1680451124,-26.367,-34.668,-27.344,-21.973
1680451124,-29.297,-33.203,-34.668,-27.832
1680451124,-32.227,-37.109,-37.109,-48.828
1680451124,-18.555,-39.062,-30.762,-38.574
1680451124,-20.996,-37.598,-34.668,-14.16
1680451124,-40.527,-38.574,-31.25,-23.926
1680451124,-27.344,-36.621,-13.184,-27.832
1680451124,-0.488,-28.809,-22.949,-17.578
1680451124,-22.461,-21.484,-39.062,-35.645
1680451124,-48.34,-21.484,-31.738,-49.805
1680451124,-25.879,-25.391,-24.414,-25.391
1680451124,-8.789,-19.531,-23.926,-19.043
1680451124,-20.996,-20.508,-36.133,-38.574
1680451124,-27.832,-23.438,-34.18,-34.18
1680451124,-30.273,-19.531,-32.715,-24.902
1680451124,-24.414,-17.578,-38.086,-16.113
1680451124,-31.738,-21.484,-43.457,-25.879
1680451124,-36.621,-27.344,-38.574,-43.945
1680451124,-26.855,-20.02,-31.25,-45.41
1680451124,-22.949,-19.531,-28.809,-43.457
1680451124,-29.785,-26.855,-29.297,-36.621
1680451124,-35.645,-25.391,-34.18,-35.156
1680451124,-26.367,-17.09,-37.109,-34.668
1680451124,-14.16,-12.695,-42.48,-25.391
1680451124,-11.719,-20.996,-31.738,-23.926
1680451124,-17.09,-27.344,-31.25,-30.762
1680451124,-20.508,-29.297,-32.227,-30.762
1680451124,-12.207,-30.273,-21.973,-32.715
1680451124,3.418,-20.996,-20.996,-29.785
1680451124,1.953,-21.484,-17.578,-27.832
1680451124,-13.672,-25.391,-14.648,-24.902
1680451124,-16.113,-19.043,-20.508,-31.738
1680451124,-13.672,-21.484,-37.109,-47.363
1680451124,-15.625,-22.949,-41.016,-47.363
1680451124,-29.297,-31.25,-26.367,-36.133
1680451124,-42.969,-35.156,-20.508,-30.273
1680451124,-43.457,-26.855,-30.762,-28.32
1680451124,-43.945,-28.809,-35.156,-33.691
1680451124,-39.062,-22.949,-34.18,-30.762
1680451124,-31.25,-17.578,-37.598,-9.766
1680451124,-30.273,-27.832,-31.25,-6.836
1680451124,-32.715,-22.949,-14.648,-22.949
1680451124,-37.598,-12.207,-18.555,-47.852
1680451124,-40.527,-11.719,-25.391,-58.594
1680451124,-35.156,-5.371,-22.949,-44.434
1680451124,-37.598,-0.488,-17.09,-26.855
1680451124,-46.387,0.488,-15.625,-27.832
1680451124,-43.457,-5.371,-37.598,-41.504
1680451124,-38.574,-8.301,-30.762,-43.945
1680451124,-44.922,-9.766,-14.16,-31.25
1680451124,-41.992,-8.301,-36.621,-25.879
1680451124,-36.133,-7.324,-30.762,-29.785
1680451124,-39.551,-8.301,-15.137,-30.273
1680451124,-35.156,-3.418,-31.25,-53.223
1680451124,-30.273,-1.465,-34.668,-57.617
1680451124,-37.598,-0.977,-19.531,-28.809
1680451124,-39.062,3.418,-22.949,-19.531
1680451124,-34.18,5.371,-23.926,-26.367
1680451124,-31.738,-3.906,-22.949,-41.992
1680451124,-28.32,-6.348,-34.18,-40.039
1680451124,-13.184,-0.977,-32.227,-14.648
1680451124,-1.465,-4.395,-12.207,0
1680451124,-38.574,-20.02,-30.762,-24.414
1680451124,-64.453,-26.367,-44.434,-55.176
1680451124,-49.316,-19.043,-9.277,-50.293
1680451124,-54.688,-18.066,-2.441,-39.551
1680451124,-66.895,-24.414,-17.578,-31.738
1680451124,-74.219,-37.109,-23.438,-51.27
1680451124,-69.336,-38.086,-21.973,-67.383
1680451124,-48.34,-36.621,-21.973,-49.805
1680451124,-57.129,-44.434,-30.762,-39.062
1680451124,-66.406,-49.316,-24.414,-32.715
1680451124,-44.434,-52.246,-13.184,-31.738
1680451124,-34.668,-46.387,-31.25,-40.039
1680451124,-38.574,-44.922,-45.898,-44.922
1680451124,-38.086,-47.852,-35.645,-37.598
1680451124,-33.691,-43.457,-37.109,-25.391
1680451124,-25.879,-38.574,-49.316,-27.832
1680451124,-32.227,-42.969,-25.391,-45.41
1680451124,-35.645,-55.664,-9.277,-47.363
1680451124,-31.25,-53.223,-22.949,-32.715
1680451124,-23.926,-43.457,-25.391,-30.762
1680451124,-22.949,-39.062,-14.648,-37.598
1680451124,-34.18,-40.527,-16.113,-46.387
1680451124,-30.273,-41.016,-28.32,-54.688
1680451124,-31.25,-42.48,-31.25,-40.039
1680451124,-34.668,-42.48,-20.996,-24.414
1680451124,-33.203,-40.527,-18.066,-25.879
1680451124,-35.645,-45.898,-24.902,-37.598
1680451124,-34.18,-50.781,-33.203,-36.621
1680451124,-25.391,-41.504,-21.973,-20.02
1680451124,-17.09,-40.527,-16.602,-16.113
1680451124,-26.855,-48.828,-29.297,-20.996
1680451124,-32.227,-47.363,-34.668,-29.785
1680451124,-30.762,-44.922,-37.109,-49.805
1680451124,-33.691,-41.504,-35.156,-51.758
1680451124,-41.992,-43.945,-34.668,-40.039
1680451124,-40.039,-51.758,-25.879,-35.156
1680451124,-29.785,-46.875,-22.949,-35.645
1680451124,-30.762,-40.527,-39.062,-40.527
1680451124,-34.668,-40.039,-44.434,-42.969
1680451124,-36.621,-47.363,-35.645,-40.527
1680451124,-38.086,-49.805,-41.992,-34.18
1680451124,-44.434,-43.945,-46.875,-37.598
1680451124,-44.434,-43.457,-39.551,-51.27
1680451124,-31.738,-40.039,-27.832,-47.852
1680451124,-32.715,-42.48,-29.297,-33.691
1680451124,-36.621,-43.945,-36.133,-33.203
1680451124,-33.691,-41.504,-46.387,-34.18
1680451124,-29.297,-44.434,-46.387,-33.203
1680451124,-29.297,-36.621,-24.902,-42.48
1680451124,-37.109,-34.668,-25.879,-42.48
1680451124,-47.363,-44.434,-31.25,-28.809
1680451124,-38.574,-41.504,-33.691,-31.738
1680451124,-26.367,-33.203,-33.691,-50.293
1680451124,-28.32,-38.574,-33.691,-52.734
1680451124,-27.344,-41.504,-37.109,-32.715
1680451124,-32.227,-38.086,-31.738,-23.926
1680451124,-43.945,-39.062,-36.621,-24.902
1680451124,-38.574,-34.18,-40.039,-23.926
1680451124,-31.738,-34.18,-25.879,-36.133
1680451124,-32.227,-32.715,-22.461,-32.227
1680451124,-27.344,-25.391,-33.203,-15.137
1680451125,-32.227,-26.855,-21.973,-26.367
1680451125,-40.527,-26.367,-14.16,-48.828
1680451125,-35.156,-20.508,-34.668,-50.781
1680451125,-29.297,-20.508,-35.156,-43.457
1680451125,-29.297,-23.926,-16.113,-30.273
1680451125,-32.227,-21.484,-14.648,-18.066
1680451125,-28.809,-17.09,-25.879,-26.855
1680451125,-14.648,-11.719,-26.367,-33.203
1680451125,-14.648,-10.254,-19.531,-32.715
1680451125,-36.133,-14.16,-20.996,-28.32
1680451125,-44.434,-14.648,-23.926,-22.949
1680451125,-44.922,-5.859,-42.969,-31.738
1680451125,-38.574,5.859,-45.898,-43.945
1680451125,-28.32,8.301,-25.391,-45.41
1680451125,-30.762,12.695,-16.602,-30.273
1680451125,-42.969,20.508,-20.02,-31.25
1680451125,-47.852,23.926,-27.832,-53.223
1680451125,-43.945,21.973,-31.25,-58.594
1680451125,-37.109,18.066,-38.574,-47.363
1680451125,-33.691,20.996,-30.762,-34.668
1680451125,-45.898,9.766,-22.461,-33.203
1680451125,-33.691,-6.348,-26.855,-34.668
1680451125,-14.16,-13.672,-21.484,-29.785
1680451125,-42.48,-19.043,-26.855,-40.039
1680451125,-44.434,-20.996,-29.785,-34.668
1680451125,-32.227,-30.273,-15.137,-12.695
1680451125,-40.039,-40.039,-14.648,-20.996
1680451125,-20.996,-39.062,-19.043,-33.203
1680451125,-7.324,-36.133,-12.207,-27.344
1680451125,-13.672,-37.598,-18.066,-16.602
1680451125,-9.277,-41.504,-19.531,-7.812
1680451125,-10.254,-46.387,-17.09,-10.742
1680451125,-15.137,-43.457,-25.391,-22.949
1680451125,-10.254,-41.016,-21.973,-24.902
1680451125,-13.184,-39.062,-21.973,-15.137
1680451125,-23.926,-37.598,-26.367,3.418
1680451125,-29.785,-49.805,-33.203,-13.672
1680451125,-21.973,-50.293,-29.297,-39.551
1680451125,-10.254,-42.969,-22.949,-26.367
1680451125,-14.648,-45.898,-20.996,-12.207
1680451125,-18.066,-44.922,-11.23,-5.371
1680451125,-20.996,-46.875,-15.137,-21.973
1680451125,-23.438,-44.434,-23.438,-29.297
1680451125,-14.16,-33.691,-24.414,-15.625
1680451125,-13.672,-36.621,-22.461,-13.184
1680451125,-11.23,-40.039,-19.531,-13.672
1680451125,-12.695,-40.527,-23.926,-20.02
1680451125,-31.738,-42.969,-42.969,-33.691
1680451125,-23.926,-41.016,-45.41,-30.762
1680451125,-20.02,-47.852,-24.902,-17.578
1680451125,-35.645,-51.27,-35.156,-16.113
1680451125,-41.992,-47.363,-42.48,-24.902
1680451125,-41.016,-41.016,-27.344,-38.086
1680451125,-32.715,-26.855,-21.484,-49.316
1680451125,-33.691,-26.367,-22.461,-42.48
1680451125,-32.715,-33.691,-27.344,-27.832
1680451125,-35.156,-38.574,-13.184,-29.297
1680451125,-44.434,-36.133,-15.625,-41.992
1680451125,-42.969,-36.621,-36.621,-49.316
1680451125,-33.691,-38.086,-33.691,-46.875
1680451125,-25.879,-38.574,-28.32,-21.484
1680451125,-25.391,-39.062,-23.926,-1.465
1680451125,-36.621,-41.504,-21.973,-31.738
1680451125,-30.273,-34.18,-23.926,-59.57
1680451125,-23.926,-31.25,-28.809,-39.551
1680451125,-5.371,-31.738,-20.508,-2.441
1680451125,-2.93,-27.344,-21.484,-10.742
1680451125,-28.32,-28.32,-37.109,-44.434
1680451125,-23.438,-25.391,-42.48,-46.387
1680451125,-9.277,-19.531,-39.551,-35.156
1680451125,-9.277,-23.926,-25.391,-17.09
1680451125,-26.367,-32.227,-32.715,-16.602
1680451125,-35.645,-31.738,-41.504,-36.621
1680451125,-36.133,-32.227,-31.25,-44.434
1680451125,-36.133,-39.062,-29.297,-43.945
1680451125,-21.973,-34.18,-25.391,-26.855
1680451125,-19.531,-37.598,-33.203,-19.531
1680451125,-32.715,-46.387,-38.086,-26.855
1680451125,-31.25,-41.992,-39.551,-23.438
1680451125,-17.578,-33.691,-31.25,-35.645
1680451125,-24.902,-29.785,-21.973,-36.133
1680451125,-33.203,-26.855,-30.762,-27.344
1680451125,-35.645,-35.156,-36.621,-37.109
1680451125,-21.484,-39.062,-31.738,-20.02
1680451125,-11.23,-33.691,-22.461,-11.719
1680451125,-29.785,-30.762,-20.02,-26.367
1680451125,-29.785,-28.32,-11.23,-28.809
1680451125,-29.785,-32.227,-17.09,-45.898
1680451125,-38.086,-34.18,-24.902,-49.316
1680451125,-31.25,-37.109,-24.902,-43.945
1680451125,-25.391,-34.668,-17.578,-29.785
1680451125,-21.973,-32.715,-7.812,-18.555
1680451125,-26.855,-33.203,-22.461,-20.02
1680451125,-36.621,-30.273,-41.992,-33.203
1680451125,-29.785,-32.715,-52.246,-39.062
1680451125,-20.996,-29.297,-42.969,-19.531
1680451125,-23.438,-27.344,-38.574,-8.301
1680451125,-23.926,-30.273,-26.855,-12.207
1680451125,-33.691,-38.086,-20.02,-21.484
1680451125,-35.645,-41.504,-28.809,-35.156
1680451125,-27.344,-37.109,-28.32,-46.875
1680451125,-44.434,-36.621,-35.156,-42.969
1680451125,-47.852,-35.156,-26.855,-41.504
1680451125,-41.016,-32.715,-19.043,-50.781
1680451125,-38.086,-41.016,-27.832,-56.641
1680451125,-28.809,-34.668,-35.645,-46.387
1680451125,-19.043,-29.297,-43.457,-21.973
1680451125,-22.461,-34.18,-33.203,-4.883
1680451125,-27.832,-31.25,-13.672,-14.648
1680451125,-28.32,-35.645,-8.301,-39.551
1680451125,-35.156,-42.48,-20.02,-46.387
1680451125,-24.902,-40.039,-29.297,-19.531
1680451125,-28.809,-36.621,-29.785,-5.859
1680451125,-40.039,-32.715,-20.508,-32.227
1680451125,-41.992,-30.762,-21.484,-49.805
1680451125,-29.785,-37.598,-26.367,-35.156
1680451125,-16.602,-37.598,-36.133,-13.184
1680451125,-24.414,-35.645,-37.598,-6.348
1680451125,-34.668,-38.086,-24.414,-20.02
1680451125,-29.785,-38.086,-29.785,-43.945
1680451125,-10.742,-41.016,-16.602,-43.945
1680451125,3.418,-36.621,-10.742,-10.742
1680451125,-20.02,-36.621,-14.648,4.883
1680451125,-55.664,-43.945,-7.324,-31.738
1680451125,-64.941,-44.434,-13.672,-66.406
1680451125,-57.129,-44.922,-26.367,-63.477
1680451125,-46.387,-46.387,-30.273,-48.34
1680451125,-43.945,-43.945,-31.738,-42.969
1680451125,-49.805,-41.504,-32.227,-43.945
1680451125,-45.898,-39.062,-15.625,-43.457
1680451125,-39.551,-36.133,-12.207,-48.828
1680451125,-48.34,-41.504,-27.344,-51.758
1680451125,-53.223,-44.922,-24.902,-44.434
1680451125,-42.48,-43.457,-33.203,-41.992
1680451125,-31.25,-41.504,-44.922,-51.27
1680451125,-15.137,-39.551,-33.691,-57.129
1680451125,-13.672,-35.156,-34.18,-46.875
1680451125,-19.531,-36.133,-37.598,-42.969
1680451125,-27.832,-35.156,-24.902,-31.738
1680451125,-36.133,-45.41,-25.879,-24.414
1680451125,-37.109,-58.594,-23.926,-42.969
1680451125,-41.504,-45.898,-6.836,-42.969
1680451125,-46.875,-36.621,-8.301,-28.809
1680451125,-43.457,-37.109,-16.113,-27.832
1680451125,-42.48,-34.668,-37.109,-40.039
1680451125,-39.551,-34.18,-45.898,-40.039
1680451125,-26.367,-32.715,-33.203,-25.391
1680451125,-31.738,-37.598,-22.949,-24.414
1680451125,-37.109,-36.621,-22.949,-32.227
1680451125,-39.551,-38.086,-28.809,-39.551
1680451125,-46.875,-34.18,-28.32,-41.016
1680451125,-37.598,-27.344,-40.527,-30.762
1680451125,-33.691,-29.785,-37.109,-9.766
1680451125,-34.18,-31.738,-20.02,-6.836
1680451125,-36.621,-36.621,-24.414,-28.32
1680451125,-42.48,-32.715,-26.367,-34.668
1680451125,-41.504,-31.25,-26.855,-33.203
1680451125,-32.227,-28.809,-30.762,-23.438
1680451125,-40.527,-33.691,-27.344,-25.391
1680451125,-44.922,-33.691,-37.109,-31.738
1680451125,-23.438,-28.809,-41.504,-31.25
1680451125,-19.043,-28.32,-27.832,-40.039
1680451125,-28.809,-27.344,-30.762,-33.203
1680451125,-32.227,-32.715,-23.438,-17.578
1680451125,-35.645,-41.992,-20.02,-17.09
1680451125,-29.297,-36.621,-31.25,-22.461
1680451125,-15.137,-24.902,-36.621,-28.32
1680451125,-18.066,-27.832,-38.574,-33.691
1680451125,-29.785,-32.715,-29.297,-29.297
1680451125,-18.555,-30.273,-28.32,-25.879
1680451125,-12.207,-28.809,-30.273,-29.297
1680451125,-31.25,-31.25,-17.09,-38.574
1680451125,-53.223,-35.156,-15.625,-49.316
1680451125,-54.199,-42.969,-21.973,-38.574
1680451125,-40.039,-37.598,-21.973,-20.996
1680451125,-45.41,-34.18,-16.602,-47.363
1680451125,-37.598,-43.457,-18.555,-56.641
1680451125,-25.879,-45.898,-47.363,-31.25
1680451125,-29.785,-43.945,-57.617,-32.715
1680451125,-38.086,-36.133,-28.32,-45.898
1680451125,-39.062,-35.645,-19.531,-39.551
1680451125,-24.902,-36.133,-28.809,-27.344
1680451125,-23.926,-34.18,-27.344,-35.645
1680451125,-34.668,-36.621,-25.879,-39.551
1680451125,-37.109,-41.016,-31.25,-34.18
1680451125,-30.762,-45.41,-31.25,-39.062
1680451125,-29.785,-40.527,-28.809,-33.203
1680451125,-20.508,-31.25,-17.09,-17.578
1680451125,-16.602,-27.832,-24.902,-20.996
1680451125,-29.297,-35.645,-38.574,-33.691
1680451125,-30.273,-38.574,-39.551,-43.945
1680451125,-21.973,-29.297,-38.574,-44.922
1680451125,-28.32,-25.879,-27.344,-37.109
1680451125,-33.691,-20.996,-22.461,-23.438
1680451125,-32.227,-20.02,-25.879,-4.883
1680451125,-35.645,-27.344,-31.738,-23.438
1680451125,-42.48,-25.391,-39.551,-62.012
1680451125,-39.062,-20.02,-37.598,-50.293
1680451125,-29.297,-20.02,-19.043,-11.23
1680451125,-22.461,-27.832,-10.742,-12.695
1680451125,-17.578,-23.926,-33.691,-29.785
1680451125,-23.438,-8.789,-36.621,-38.086
1680451125,-27.832,-10.254,-6.836,-38.086
1680451125,-30.762,-18.066,-8.789,-34.668
1680451125,-36.133,-14.16,-33.203,-30.762
1680451125,-40.527,-10.742,-25.879,-30.273
1680451125,-45.898,-14.16,-15.137,-49.316
1680451125,-38.086,-14.648,-20.508,-48.34
1680451125,-32.227,-14.648,-26.367,-31.738
1680451125,-36.621,-23.438,-29.785,-23.926
1680451125,-37.109,-23.438,-34.668,-29.785
1680451125,-33.203,-14.648,-35.645,-35.645
1680451125,-21.973,-11.719,-29.785,-27.344
1680451125,-12.207,-16.113,-20.996,-26.855
1680451125,-15.625,-16.602,-12.207,-18.066
1680451125,-19.043,-10.254,-34.668,-18.555
1680451125,-23.926,-13.184,-42.969,-40.527
1680451125,-19.043,-19.043,-20.02,-20.996
1680451125,3.418,-6.348,-9.766,11.23
1680451125,-20.996,6.836,-22.461,-10.254
1680451125,-48.34,-3.418,-28.809,-27.832
1680451125,-42.48,-0.977,-29.785,-35.645
1680451125,-46.387,1.465,-37.598,-59.57
1680451125,-31.738,1.953,-39.551,-52.246
1680451125,-40.039,-2.441,-47.852,-49.316
1680451125,-62.012,-18.066,-54.199,-56.641
1680451125,-57.129,-17.578,-50.293,-55.176
1680451125,-59.57,-15.137,-61.523,-62.5
1680451125,-53.711,-17.578,-67.871,-49.805
1680451125,-40.527,-15.625,-44.434,-33.691
1680451125,-44.922,-20.508,-36.621,-56.152
1680451125,-51.27,-25.391,-53.223,-77.637
1680451125,-37.109,-24.414,-52.734,-72.266
1680451125,-42.969,-30.762,-36.133,-64.941
1680451125,-57.129,-32.227,-41.992,-54.688
1680451125,-52.734,-20.02,-55.176,-40.039
1680451125,-50.781,-23.438,-30.273,-40.527
1680451125,-48.34,-29.297,-16.602,-57.129
1680451125,-42.969,-29.297,-33.203,-57.129
1680451125,-37.598,-31.25,-31.25,-29.297
1680451125,-29.785,-21.973,-24.902,-21.484
1680451125,-36.621,-22.949,-28.32,-44.922
1680451125,-45.898,-33.691,-31.25,-48.34
1680451125,-47.852,-35.645,-25.391,-44.434
1680451125,-38.574,-30.273,-28.809,-49.316
1680451125,-23.926,-27.344,-27.832,-45.898
1680451125,-31.738,-25.391,-20.02,-50.293
1680451125,-45.41,-30.273,-28.809,-62.012
1680451125,-47.363,-36.621,-32.715,-58.105
1680451125,-41.992,-35.156,-20.996,-45.41
1680451125,-45.41,-30.273,-32.227,-40.527
1680451125,-48.828,-29.785,-38.086,-41.504
1680451125,-46.387,-31.738,-29.785,-54.688
1680451125,-46.875,-29.297,-25.391,-56.641
1680451125,-39.062,-32.227,-28.32,-34.668
1680451125,-41.992,-34.668,-40.527,-29.785
1680451126,-56.152,-35.645,-30.762,-43.457
1680451126,-52.734,-33.691,-19.531,-56.152
1680451126,-41.504,-28.32,-20.508,-50.781
1680451126,-38.574,-33.691,-8.301,-35.645
1680451126,-34.18,-34.18,-6.836,-17.578
1680451126,-41.016,-33.203,-25.391,-20.02
1680451126,-39.062,-35.156,-30.273,-29.297
1680451126,-28.809,-29.297,-20.996,-31.25
1680451126,-29.785,-29.297,-25.879,-37.598
1680451126,-23.926,-30.273,-29.297,-29.297
1680451126,-21.484,-29.297,-20.02,-31.738
1680451126,-30.762,-30.762,-20.02,-45.898
1680451126,-34.18,-33.691,-22.949,-53.711
1680451126,-33.203,-32.715,-26.855,-42.969
1680451126,-30.273,-26.855,-45.898,-29.785
1680451126,-31.738,-27.832,-42.48,-40.527
1680451126,-30.273,-27.832,-16.602,-49.805
1680451126,-22.461,-25.391,-18.555,-49.316
1680451126,-19.043,-29.785,-27.344,-48.828
1680451126,-29.297,-30.273,-24.902,-32.715
1680451126,-38.086,-33.203,-21.484,-30.762
1680451126,-37.109,-38.574,-26.367,-55.664
1680451126,-36.133,-38.574,-28.32,-59.57
1680451126,-31.25,-33.203,-26.367,-49.316
1680451126,-29.785,-28.809,-29.785,-40.527
1680451126,-31.25,-31.25,-37.109,-30.273
1680451126,-21.484,-22.949,-28.32,-21.484
1680451126,-16.113,-13.672,-18.066,-20.02
1680451126,-28.809,-25.391,-46.387,-50.781
1680451126,-42.969,-35.156,-36.621,-56.641
1680451126,-45.898,-32.227,-17.578,-36.621
1680451126,-47.852,-29.785,-24.414,-42.969
1680451126,-45.898,-31.25,-23.926,-62.988
1680451126,-40.039,-31.25,-29.297,-55.664
1680451126,-37.109,-29.785,-35.156,-33.203
1680451126,-39.551,-27.832,-31.25,-28.32
1680451126,-32.715,-32.227,-25.391,-51.27
1680451126,-32.227,-34.668,-33.203,-60.059
1680451126,-43.457,-29.297,-36.133,-54.688
1680451126,-39.062,-28.809,-26.855,-46.387
1680451126,-36.133,-28.32,-28.32,-26.855
1680451126,-24.902,-17.578,-29.785,-10.742
1680451126,-26.367,-16.602,-20.508,-30.762
1680451126,-45.41,-25.391,-27.832,-58.105
1680451126,-31.25,-24.414,-31.738,-36.133
1680451126,-9.277,-17.09,-29.785,-4.883
1680451126,-25.391,-22.461,-26.855,-9.766
1680451126,-44.434,-30.273,-34.18,-35.156
1680451126,-30.762,-32.227,-38.574,-31.25
1680451126,-15.625,-28.809,-18.555,-15.137
1680451126,-20.508,-26.367,-11.23,-14.648
1680451126,-17.578,-26.855,-1.953,-6.836
1680451126,-8.789,-31.25,-6.836,-16.113
1680451126,-12.207,-40.527,-13.672,-23.926
1680451126,-17.09,-39.062,-16.602,-8.789
1680451126,-19.043,-27.344,-24.902,4.395
1680451126,-16.602,-26.855,-5.859,0.977
1680451126,-12.695,-31.25,-1.465,-12.207
1680451126,-18.555,-36.133,-20.02,-21.484
1680451126,-17.578,-33.203,-17.578,-13.672
1680451126,-17.578,-32.715,-13.672,1.953
1680451126,-24.902,-41.016,-20.02,-4.883
1680451126,-22.949,-37.109,-25.391,-26.367
1680451126,-18.066,-31.738,-29.297,-29.785
1680451126,-15.625,-23.438,-10.254,-19.531
1680451126,-20.996,-20.02,1.465,-10.254
1680451126,-31.25,-20.508,-4.395,0
1680451126,-28.809,-14.16,-9.766,-0.977
1680451126,-22.461,-15.625,-12.695,-20.02
1680451126,-17.578,-18.555,-18.066,-34.668
1680451126,-24.414,-25.879,-27.832,-30.273
1680451126,-35.645,-27.344,-22.949,-22.461
1680451126,-33.203,-17.578,-20.02,-28.809
1680451126,-27.832,-18.555,-21.973,-35.645
1680451126,-22.461,-23.438,-32.715,-35.156
1680451126,-19.043,-20.508,-31.738,-22.949
1680451126,-25.879,-21.973,-19.531,-8.301
1680451126,-22.461,-29.297,-32.227,-24.902
1680451126,-18.066,-31.25,-38.574,-36.133
1680451126,-16.113,-33.691,-35.645,-25.879
1680451126,-16.113,-33.203,-30.762,-27.344
1680451126,-23.438,-31.25,-21.484,-26.855
1680451126,-21.973,-32.715,-22.949,-32.715
1680451126,-19.531,-32.227,-22.949,-41.016
1680451126,-28.809,-29.785,-23.438,-41.992
1680451126,-29.785,-33.691,-20.996,-30.273
1680451126,-20.996,-32.227,-23.438,-5.859
1680451126,-26.367,-32.715,-30.273,-12.207
1680451126,-26.367,-41.504,-21.484,-36.133
1680451126,-19.043,-41.504,-20.02,-34.18
1680451126,-25.391,-35.156,-19.043,-28.32
1680451126,-39.062,-33.691,-17.578,-24.414
1680451126,-45.41,-31.25,-20.02,-24.414
1680451126,-36.133,-28.809,-16.113,-32.227
1680451126,-33.691,-31.738,-20.02,-41.504
1680451126,-31.738,-30.762,-38.086,-26.367
1680451126,-30.273,-37.109,-33.691,-18.555
1680451126,-32.715,-42.969,-29.297,-28.809
1680451126,-40.527,-35.645,-30.273,-41.504
1680451126,-47.363,-34.18,-17.578,-47.363
1680451126,-47.852,-41.992,-25.391,-47.363
1680451126,-36.621,-41.016,-35.156,-34.668
1680451126,-21.973,-37.598,-32.715,-20.996
1680451126,-36.133,-39.551,-32.715,-35.645
1680451126,-44.434,-36.133,-27.344,-36.621
1680451126,-29.297,-30.273,-28.32,-20.02
1680451126,-22.461,-32.227,-27.832,-30.273
1680451126,-31.738,-31.738,-28.809,-29.785
1680451126,-44.434,-34.668,-38.574,-35.156
1680451126,-37.109,-35.645,-34.668,-57.129
1680451126,-25.879,-26.855,-26.367,-49.805
1680451126,-20.508,-23.438,-17.578,-34.18
1680451126,-11.23,-25.879,-20.02,-30.762
1680451126,-18.555,-19.531,-36.133,-36.133
1680451126,-32.227,-22.461,-33.203,-49.316
1680451126,-26.367,-27.344,-26.855,-42.969
1680451126,-23.926,-27.832,-37.109,-20.996
1680451126,-31.25,-30.273,-39.062,-15.137
1680451126,-36.133,-30.273,-34.668,-40.527
1680451126,-30.762,-27.344,-26.367,-57.129
1680451126,-33.691,-34.668,-26.855,-41.016
1680451126,-33.691,-38.086,-39.551,-21.973
1680451126,-26.855,-29.297,-44.922,-14.648
1680451126,-32.715,-23.926,-42.969,-23.438
1680451126,-26.367,-13.672,-39.062,-27.832
1680451126,-22.461,-20.02,-30.762,-22.949
1680451126,-38.086,-36.621,-12.207,-29.785
1680451126,-42.48,-37.109,-8.301,-25.391
1680451126,-41.992,-30.762,-14.648,-19.531
1680451126,-38.086,-29.297,-17.578,-43.945
1680451126,-31.738,-31.25,-24.902,-55.176
1680451126,-30.273,-27.832,-24.902,-35.156
1680451126,-31.25,-36.133,-21.484,-3.906
1680451126,-38.574,-46.875,-23.438,-17.09
1680451126,-41.016,-39.062,-33.203,-44.434
1680451126,-36.133,-33.691,-42.969,-33.691
1680451126,-41.016,-36.133,-55.664,-30.273
1680451126,-41.016,-29.785,-48.828,-29.785
1680451126,-43.457,-31.25,-22.461,-31.738
1680451126,-46.387,-37.598,-15.625,-47.363
1680451126,-41.504,-37.109,-23.926,-50.781
1680451126,-40.039,-37.109,-31.738,-40.039
1680451126,-28.32,-28.809,-30.762,-15.625
1680451126,-21.484,-20.508,-27.832,-9.766
1680451126,-22.949,-25.879,-35.156,-27.832
1680451126,-24.414,-26.367,-35.645,-35.156
1680451126,-22.461,-19.531,-31.738,-24.414
1680451126,-18.066,-19.531,-38.574,-9.277
1680451126,-18.555,-19.043,-30.762,-7.324
1680451126,-15.137,-20.996,-21.484,-17.578
1680451126,-20.508,-27.344,-33.203,-37.598
1680451126,-27.832,-25.391,-41.992,-35.645
1680451126,-20.996,-22.949,-37.598,-8.789
1680451126,-28.809,-21.973,-35.645,-1.953
1680451126,-38.086,-21.973,-25.391,-31.738
1680451126,-26.367,-21.973,-18.066,-54.199
1680451126,-21.973,-20.02,-22.461,-43.945
1680451126,-27.832,-20.508,-19.043,-28.809
1680451126,-35.645,-18.066,-14.648,-18.555
1680451126,-31.25,-19.043,-22.949,-23.926
1680451126,-28.32,-22.461,-30.273,-32.227
1680451126,-30.273,-26.855,-20.02,-24.902
1680451126,-32.227,-28.32,-21.484,-25.391
1680451126,-38.574,-20.508,-28.809,-30.273
1680451126,-37.598,-21.484,-24.414,-31.738
1680451126,-32.227,-22.461,-20.996,-38.574
1680451126,-33.691,-24.902,-30.762,-43.457
1680451126,-34.18,-27.832,-37.109,-34.668
1680451126,-15.137,-16.113,-22.949,-11.719
1680451126,-26.367,-18.066,-11.719,-15.137
1680451126,-60.059,-37.598,-15.625,-55.664
1680451126,-48.828,-35.645,-16.602,-58.594
1680451126,-30.273,-32.227,-1.953,-27.832
1680451126,-32.715,-39.551,4.883,-22.949
1680451126,-38.574,-34.668,-17.578,-40.039
1680451126,-34.668,-28.32,-22.461,-46.875
1680451126,-32.227,-30.273,-17.578,-39.551
1680451126,-37.109,-28.32,-20.996,-39.551
1680451126,-39.551,-29.785,-24.902,-39.551
1680451126,-33.203,-32.715,-27.832,-36.621
1680451126,-31.25,-33.203,-27.344,-35.645
1680451126,-25.879,-29.785,-24.902,-35.645
1680451126,-19.043,-23.438,-24.414,-32.715
1680451126,-33.691,-29.297,-29.297,-21.973
1680451126,-44.922,-36.133,-22.461,-27.344
1680451126,-40.527,-30.762,-20.996,-46.387
1680451126,-30.762,-26.367,-33.203,-53.711
1680451126,-23.438,-22.461,-36.621,-49.805
1680451126,-27.344,-19.531,-32.715,-36.133
1680451126,-24.902,-19.043,-32.227,-25.879
1680451126,-27.832,-23.438,-35.156,-33.203
1680451126,-27.832,-24.902,-35.156,-35.645
1680451126,-12.695,-26.367,-26.855,-24.414
1680451126,-10.254,-26.855,-28.809,-14.16
1680451126,-17.578,-21.484,-43.457,-12.207
1680451126,-28.32,-20.02,-25.879,-17.578
1680451126,-35.156,-26.367,-12.695,-30.273
1680451126,-29.297,-25.391,-20.996,-31.25
1680451126,-29.297,-19.043,-20.996,-14.648
1680451126,-34.18,-25.391,-28.809,-14.648
1680451126,-36.621,-30.273,-21.484,-27.832
1680451126,-32.715,-24.902,-13.184,-34.18
1680451126,-27.832,-27.344,-26.367,-29.785
1680451126,-30.762,-29.785,-30.762,-13.184
1680451126,-32.227,-31.25,-26.855,3.418
1680451126,-18.066,-39.551,-23.926,2.441
1680451126,-4.883,-29.297,-13.184,-14.16
1680451126,-32.227,-21.484,-21.973,-49.805
1680451126,-63.477,-29.297,-30.273,-62.988
1680451126,-54.199,-24.902,-22.461,-42.48
1680451126,-46.387,-20.02,-37.109,-48.828
1680451126,-58.105,-21.973,-33.691,-67.383
1680451126,-63.477,-29.297,-30.273,-72.754
1680451126,-63.477,-32.227,-43.457,-65.918
1680451126,-61.523,-34.668,-36.621,-45.898
1680451126,-47.852,-34.18,-32.715,-36.133
1680451126,-35.156,-33.691,-39.062,-44.922
1680451126,-25.879,-32.715,-44.434,-48.34
1680451126,-20.996,-28.32,-41.016,-37.598
1680451126,-34.668,-30.273,-31.25,-22.461
1680451126,-34.668,-32.227,-28.32,-19.043
1680451126,-26.855,-34.668,-45.41,-46.387
1680451126,-35.645,-41.992,-31.738,-68.848
1680451126,-29.297,-40.527,-15.625,-51.27
1680451126,-27.832,-35.156,-26.367,-33.203
1680451126,-38.086,-34.18,-38.086,-39.062
1680451126,-34.668,-31.25,-46.875,-50.781
1680451126,-31.25,-28.809,-32.715,-46.875
1680451126,-34.668,-28.32,-22.461,-41.992
1680451126,-35.645,-27.832,-19.531,-26.367
1680451126,-38.086,-31.25,-17.09,-19.531
1680451126,-47.363,-38.086,-30.273,-42.969
1680451126,-42.48,-40.527,-39.551,-50.293
1680451126,-31.738,-35.156,-29.785,-44.434
1680451126,-39.551,-35.156,-22.461,-38.574
1680451126,-47.363,-29.785,-25.879,-26.855
1680451126,-48.828,-25.879,-30.762,-36.621
1680451126,-34.668,-29.785,-23.926,-47.852
1680451126,-31.25,-28.32,-24.902,-41.504
1680451126,-39.062,-30.762,-38.574,-38.574
1680451126,-44.922,-23.926,-31.738,-41.016
1680451126,-44.434,-17.578,-21.973,-45.41
1680451126,-35.645,-20.996,-31.25,-42.48
1680451126,-28.32,-21.973,-32.227,-31.738
1680451126,-32.227,-19.531,-29.785,-28.32
1680451126,-43.945,-26.855,-18.066,-26.367
1680451126,-43.945,-33.203,-23.926,-32.715
1680451126,-35.156,-25.391,-32.715,-30.762
1680451126,-26.855,-27.832,-31.738,-19.043
1680451126,-33.203,-30.273,-32.715,-22.461
1680451126,-44.434,-34.18,-31.738,-36.133
1680451126,-28.809,-27.832,-28.32,-38.086
1680451126,-13.672,-7.812,-15.137,-34.668
1680451126,-27.832,-13.672,-17.578,-45.41
1680451126,-39.551,-22.949,-17.09,-32.227
1680451126,-48.828,-24.414,-12.207,-11.23
1680451127,-40.039,-29.785,-26.367,-22.461
1680451127,-30.273,-31.25,-20.508,-37.109
1680451127,-27.344,-28.809,-2.93,-35.156
1680451127,-27.344,-23.438,-19.043,-22.949
1680451127,-31.738,-24.902,-34.668,-8.301
1680451127,-31.738,-25.391,-21.484,-14.648
1680451127,-31.738,-26.367,-16.602,-33.691
1680451127,-31.25,-31.25,-22.461,-24.902
1680451127,-34.18,-30.273,-21.973,-6.836
1680451127,-34.668,-27.832,-18.066,-5.371
1680451127,-31.738,-22.949,-18.555,-3.906
1680451127,-30.273,-20.02,-21.484,-19.531
1680451127,-23.438,-23.926,-17.578,-38.086
1680451127,-17.09,-27.832,-17.578,-30.273
1680451127,-23.438,-26.855,-20.02,-14.648
1680451127,-27.344,-24.902,-18.066,-11.23
1680451127,-21.973,-27.344,-24.902,-30.273
1680451127,-19.531,-33.203,-27.832,-41.016
1680451127,-24.414,-32.227,-25.391,-29.785
1680451127,-25.879,-27.344,-26.855,-29.297
1680451127,-37.598,-28.809,-22.949,-34.668
1680451127,-43.945,-30.762,-21.484,-39.551
1680451127,-29.785,-20.996,-23.438,-44.922
1680451127,-26.367,-19.531,-20.02,-38.574
1680451127,-32.227,-26.855,-4.395,-28.32
1680451127,-46.387,-27.344,-3.906,-26.855
1680451127,-47.363,-31.738,-23.926,-24.414
1680451127,-36.133,-36.133,-26.855,-23.926
1680451127,-33.203,-34.18,-21.484,-26.367
1680451127,-31.738,-34.18,-17.09,-30.762
1680451127,-34.668,-34.18,-15.625,-33.691
1680451127,-33.691,-28.32,-16.113,-28.809
1680451127,-34.18,-30.762,-20.996,-43.945
1680451127,-36.621,-28.809,-25.879,-46.387
1680451127,-38.574,-28.32,-26.855,-28.32
1680451127,-36.133,-32.715,-13.672,-23.926
1680451127,-32.227,-33.203,-2.441,-34.668
1680451127,-30.762,-35.156,-25.391,-41.504
1680451127,-24.414,-38.086,-31.738,-38.086
1680451127,-18.555,-31.738,-16.602,-28.809
1680451127,-27.344,-25.879,-14.16,-16.602
1680451127,-34.18,-34.18,-17.09,-20.508
1680451127,-39.062,-36.133,-20.02,-35.645
1680451127,-40.039,-31.738,-23.438,-36.621
1680451127,-33.691,-33.691,-19.531,-34.668
1680451127,-32.227,-33.203,-25.879,-34.668
1680451127,-24.902,-25.391,-37.598,-29.785
1680451127,-23.438,-22.949,-18.555,-25.879
1680451127,-25.391,-27.344,-14.648,-38.574
1680451127,-27.344,-26.367,-29.297,-47.852
1680451127,-39.551,-30.762,-28.32,-34.668
1680451127,-35.645,-34.18,-26.855,-32.227
1680451127,-36.133,-30.273,-27.832,-53.223
1680451127,-43.457,-29.297,-28.32,-63.965
1680451127,-45.41,-31.25,-28.809,-52.246
1680451127,-45.898,-26.855,-26.855,-25.879
1680451127,-44.434,-27.832,-23.926,-23.438
1680451127,-52.734,-31.738,-25.879,-58.594
1680451127,-34.668,-28.809,-24.902,-55.176
1680451127,-21.973,-20.996,-26.855,-43.457
1680451127,-49.805,-18.066,-36.133,-65.43
1680451127,-65.918,-17.578,-39.551,-70.312
1680451127,-63.965,-20.996,-46.875,-72.266
1680451127,-66.895,-22.949,-50.293,-77.637
1680451127,-71.289,-25.391,-50.293,-76.172
1680451127,-69.824,-32.715,-43.457,-62.988
1680451127,-65.918,-31.25,-35.156,-50.781
1680451127,-62.012,-27.344,-36.133,-59.57
1680451127,-55.176,-30.762,-33.691,-66.895
1680451127,-48.828,-32.227,-31.738,-57.617
1680451127,-42.48,-31.25,-33.691,-43.945
1680451127,-36.133,-32.715,-31.25,-30.273
1680451127,-38.574,-33.691,-31.738,-28.809
1680451127,-39.551,-40.039,-32.715,-53.711
1680451127,-35.156,-41.992,-33.203,-60.547
1680451127,-23.438,-34.18,-36.621,-43.945
1680451127,-24.414,-33.691,-39.551,-27.832
1680451127,-30.762,-35.645,-37.598,-33.691
1680451127,-19.531,-33.203,-31.25,-46.875
1680451127,-11.23,-35.645,-25.879,-39.062
1680451127,-18.066,-38.574,-34.18,-35.156
1680451127,-18.555,-36.621,-33.203,-30.273
1680451127,-19.043,-37.598,-36.133,-23.438
1680451127,-22.949,-33.691,-45.898,-22.461
1680451127,-23.926,-35.645,-38.574,-25.879
1680451127,-31.25,-40.039,-19.531,-21.973
1680451127,-41.504,-42.969,-11.719,-9.766
1680451127,-40.527,-36.133,-24.902,-14.16
1680451127,-39.062,-30.273,-32.715,-34.18
1680451127,-44.434,-32.227,-31.738,-44.434
1680451127,-38.574,-33.203,-24.414,-34.668
1680451127,-33.203,-33.691,-26.855,-23.926
1680451127,-35.156,-31.738,-32.715,-22.949
1680451127,-39.062,-33.203,-25.879,-30.762
1680451127,-32.227,-30.273,-23.438,-30.273
1680451127,-21.973,-22.949,-21.484,-9.766
1680451127,-25.879,-25.879,-20.996,-10.254
1680451127,-27.832,-32.715,-15.625,-24.414
1680451127,-24.414,-30.762,-13.672,-29.785
1680451127,-23.438,-27.344,-23.926,-30.273
1680451127,-19.043,-30.273,-31.738,-23.926
1680451127,-21.484,-33.691,-29.785,-8.789
1680451127,-22.461,-29.297,-24.414,-9.766
1680451127,-24.902,-23.926,-29.785,-26.367
1680451127,-27.344,-22.461,-30.273,-25.391
1680451127,-24.414,-25.391,-23.926,-16.113
1680451127,-29.785,-23.926,-19.531,-11.23
1680451127,-28.809,-17.578,-22.461,-16.113
1680451127,-21.973,-18.555,-28.32,-30.762
1680451127,-27.344,-24.902,-27.344,-48.34
1680451127,-32.715,-26.855,-23.926,-31.25
1680451127,-30.762,-18.555,-28.809,-9.277
1680451127,-23.926,-11.23,-26.855,-19.531
1680451127,-27.832,-18.066,-20.996,-41.504
1680451127,-31.25,-21.484,-32.227,-55.664
1680451127,-20.996,-10.742,-30.762,-44.434
1680451127,-24.414,-11.719,-28.809,-27.344
1680451127,-22.461,-17.578,-28.809,-17.09
1680451127,-22.949,-19.043,-26.855,-27.832
1680451127,-27.832,-16.602,-26.855,-40.039
1680451127,-32.227,-24.414,-32.227,-41.504
1680451127,-32.227,-28.32,-29.785,-30.762
1680451127,-30.273,-21.484,-22.461,-17.578
1680451127,-28.32,-20.996,-26.855,-15.625
1680451127,-24.902,-15.625,-24.414,-18.066
1680451127,-27.344,-11.719,-21.484,-34.668
1680451127,-21.484,-12.207,-24.414,-40.039
1680451127,-11.719,-10.742,-19.531,-18.555
1680451127,-16.113,-16.113,-17.09,-18.555
1680451127,-22.949,-19.043,-20.508,-35.645
1680451127,-20.996,-19.531,-23.926,-41.992
1680451127,-20.508,-17.578,-20.996,-34.18
1680451127,-22.461,-20.02,-15.625,-26.367
1680451127,-25.879,-21.973,-20.996,-37.109
1680451127,-29.785,-20.02,-23.926,-52.734
1680451127,-27.832,-16.602,-27.344,-46.875
1680451127,-21.973,-16.602,-29.785,-34.18
1680451127,-27.344,-18.066,-22.461,-41.992
1680451127,-35.645,-20.02,-12.695,-42.969
1680451127,-38.086,-18.555,-14.16,-45.41
1680451127,-31.738,-14.648,-20.02,-46.875
1680451127,-20.996,-16.113,-21.973,-32.715
1680451127,-26.855,-18.066,-29.297,-20.508
1680451127,-33.691,-18.555,-23.926,-25.879
1680451127,-36.621,-22.461,-23.926,-52.246
1680451127,-32.715,-22.461,-32.227,-62.988
1680451127,-30.762,-20.508,-32.715,-47.363
1680451127,-40.527,-25.391,-39.062,-28.32
1680451127,-31.25,-26.855,-37.109,-18.555
1680451127,-26.855,-22.461,-26.855,-41.992
1680451127,-41.016,-23.926,-20.996,-63.477
1680451127,-32.715,-21.973,-25.391,-48.828
1680451127,-29.297,-22.949,-22.461,-31.738
1680451127,-40.039,-27.832,-21.484,-40.039
1680451127,-23.926,-20.996,-22.461,-39.551
1680451127,-0.488,-9.277,-17.09,-23.438
1680451127,-18.066,-18.066,-19.043,-34.668
1680451127,-54.199,-36.133,-21.973,-44.434
1680451127,-53.711,-39.551,-17.578,-27.832
1680451127,-33.691,-37.598,-20.508,-30.762
1680451127,-37.109,-39.062,-27.832,-44.434
1680451127,-43.945,-42.969,-29.785,-41.992
1680451127,-36.621,-46.387,-29.785,-35.156
1680451127,-38.574,-43.945,-14.16,-26.855
1680451127,-44.922,-36.621,-24.902,-30.762
1680451127,-44.434,-39.551,-40.039,-45.898
1680451127,-38.086,-39.551,-30.273,-37.109
1680451127,-31.738,-36.621,-38.086,-14.16
1680451127,-31.25,-37.109,-36.133,-9.277
1680451127,-27.832,-31.738,-18.066,-25.391
1680451127,-20.508,-31.738,-11.719,-34.18
1680451127,-13.184,-34.18,-13.184,-36.133
1680451127,-19.531,-39.062,-20.02,-34.18
1680451127,-29.297,-39.062,-22.461,-18.066
1680451127,-30.273,-38.086,-22.949,-22.461
1680451127,-36.621,-42.969,-18.066,-37.598
1680451127,-39.062,-42.48,-18.555,-33.203
1680451127,-36.133,-42.969,-21.973,-21.973
1680451127,-40.039,-42.48,-22.461,-16.113
1680451127,-40.039,-33.691,-16.602,-17.09
1680451127,-34.668,-32.715,-22.949,-28.809
1680451127,-23.438,-34.668,-23.926,-25.391
1680451127,-25.879,-33.203,-17.578,-14.648
1680451127,-27.344,-31.738,-22.949,-5.371
1680451127,-25.879,-30.273,-20.996,-4.883
1680451127,-32.227,-34.18,-19.043,-27.832
1680451127,-36.133,-36.133,-23.926,-36.133
1680451127,-36.621,-33.203,-27.832,-16.113
1680451127,-36.621,-35.645,-31.738,-12.207
1680451127,-36.133,-32.715,-27.832,-13.184
1680451127,-39.062,-27.344,-18.066,-26.367
1680451127,-38.086,-26.855,-21.973,-45.898
1680451127,-18.555,-25.879,-28.32,-33.691
1680451127,-18.555,-28.32,-27.344,-18.066
1680451127,-41.992,-35.645,-27.344,-27.344
1680451127,-41.016,-37.109,-36.621,-36.621
1680451127,-33.203,-31.738,-41.016,-37.598
1680451127,-27.832,-29.297,-32.715,-32.227
1680451127,-25.391,-33.691,-18.066,-23.926
1680451127,-25.391,-34.668,-19.531,-32.715
1680451127,-32.227,-36.621,-28.32,-40.527
1680451127,-34.18,-43.945,-22.461,-44.922
1680451127,-29.785,-46.387,-20.996,-44.434
1680451127,-35.156,-42.48,-21.484,-24.902
1680451127,-44.434,-41.504,-25.391,-19.043
1680451127,-42.48,-42.48,-27.832,-22.461
1680451127,-36.621,-42.48,-23.438,-28.809
1680451127,-34.18,-38.574,-35.156,-42.969
1680451127,-33.691,-37.598,-54.199,-36.133
1680451127,-41.504,-45.41,-40.527,-27.832
1680451127,-44.922,-45.898,-29.297,-31.738
1680451127,-44.434,-43.945,-34.18,-47.852
1680451127,-40.527,-45.41,-17.09,-52.734
1680451127,-36.133,-47.363,-13.672,-27.832
1680451127,-35.645,-44.922,-38.086,-11.719
1680451127,-33.203,-41.992,-34.18,-22.949
1680451127,-39.551,-48.34,-14.648,-47.363
1680451127,-46.387,-53.711,-17.578,-54.688
1680451127,-34.668,-41.992,-23.926,-34.668
1680451127,-30.273,-29.785,-18.555,-21.484
1680451127,-38.574,-30.273,-18.555,-28.32
1680451127,-41.016,-31.738,-23.438,-36.133
1680451127,-36.621,-32.715,-27.832,-35.645
1680451127,-30.273,-31.738,-32.715,-35.156
1680451127,-25.391,-23.926,-31.25,-24.902
1680451127,-30.273,-28.32,-37.109,-15.625
1680451127,-28.809,-22.461,-39.062,-23.438
1680451127,-22.461,-16.113,-26.855,-36.621
1680451127,-17.578,-30.273,-26.367,-32.715
1680451127,-15.625,-30.762,-21.973,-14.648
1680451127,-18.066,-25.879,-16.113,-10.254
1680451127,-13.672,-18.066,-10.742,-16.113
1680451127,-7.812,-16.602,-11.23,-29.297
1680451127,-6.836,-21.484,-24.414,-29.785
1680451127,-19.043,-23.438,-26.367,-17.09
1680451127,-39.062,-23.926,-21.973,-14.16
1680451127,-39.551,-24.414,-35.156,-22.461
1680451127,-29.785,-28.32,-48.828,-32.715
1680451127,-21.973,-17.578,-26.855,-31.25
1680451127,-13.184,-20.02,3.418,-20.02
1680451127,-13.672,-31.25,3.418,-0.488
1680451127,-19.531,-25.391,-9.766,-15.137
1680451127,-25.391,-28.32,-29.785,-38.086
1680451127,-23.926,-34.18,-41.992,-29.297
1680451127,-21.484,-35.156,-23.438,-25.391
1680451127,-26.367,-32.227,-14.648,-15.625
1680451127,-26.367,-31.738,-15.137,-15.137
1680451127,-30.762,-33.691,-21.973,-32.227
1680451127,-36.621,-36.133,-29.297,-34.668
1680451127,-36.133,-38.574,-24.902,-29.297
1680451127,-30.273,-36.133,-20.508,-21.484
1680451127,-35.156,-33.203,-22.949,-25.391
1680451127,-33.691,-32.715,-30.273,-36.621
1680451127,-20.996,-36.621,-34.18,-35.156
1680451127,-15.137,-36.621,-27.832,-23.926
1680451127,-16.113,-26.367,-16.602,-8.789
1680451128,-20.996,-21.484,-12.207,-10.254
1680451128,-36.133,-36.621,-28.32,-41.992
1680451128,-40.039,-34.18,-30.762,-49.316
1680451128,-22.949,-19.043,-5.371,-21.973
1680451128,-37.109,-20.02,-28.32,-36.133
1680451128,-41.504,-5.371,-44.922,-47.363
1680451128,-40.527,-9.277,-19.531,-49.805
1680451128,-60.547,-28.32,-31.738,-70.801
1680451128,-72.266,-16.113,-42.969,-77.637
1680451128,-88.379,1.953,-23.438,-68.848
1680451128,-102.539,16.113,-29.785,-84.961
1680451128,-125,7.324,-62.5,-130.859
1680451128,-138.184,4.395,-68.359,-147.949
1680451128,-137.695,16.602,-73.242,-153.32
1680451128,-147.949,18.555,-60.547,-161.133
1680451128,-165.039,17.578,-26.367,-177.734
1680451128,-171.875,10.742,-8.789,-194.824
1680451128,-158.691,6.836,-16.602,-191.406
1680451128,-153.809,5.859,-21.973,-177.734
1680451128,-146.484,5.859,-28.809,-154.297
1680451128,-126.953,2.93,-38.086,-118.652
1680451128,-119.141,-16.602,-66.895,-107.422
1680451128,-97.656,-7.324,-100.098,-97.168
1680451128,-79.102,3.906,-62.5,-95.215
1680451128,-95.703,-29.785,-8.301,-113.77
1680451128,-81.055,-43.945,1.953,-97.168
1680451128,-52.246,-36.133,-12.695,-75.195
1680451128,-33.691,-32.715,-23.926,-63.965
1680451128,-20.996,-38.086,-31.738,-41.992
1680451128,-15.625,-40.527,-45.898,-17.578
1680451128,-7.812,-46.875,-48.34,-8.789
1680451128,-8.301,-54.688,-29.297,-12.695
1680451128,-1.953,-52.246,-29.297,-16.113
1680451128,8.789,-50.781,-33.203,0.977
1680451128,19.043,-49.805,-24.902,30.273
1680451128,22.949,-42.48,-20.996,39.551
1680451128,19.531,-41.016,-26.855,36.133
1680451128,27.344,-38.574,-20.02,36.133
1680451128,43.457,-39.551,-39.551,32.227
1680451128,33.691,-52.246,-52.246,45.41
1680451128,21.973,-51.27,-5.859,50.293
1680451128,20.02,-45.898,5.859,22.461
1680451128,17.578,-48.34,-9.766,9.766
1680451128,24.902,-43.945,-12.695,19.043
1680451128,31.738,-41.504,-15.137,22.949
1680451128,25.391,-52.734,-22.461,29.297
1680451128,18.066,-49.805,-24.902,36.621
1680451128,23.926,-41.504,-29.297,38.574
1680451128,16.113,-49.805,-24.902,26.367
1680451128,6.348,-51.758,-14.16,15.625
1680451128,3.906,-46.875,-14.648,19.531
1680451128,4.883,-41.504,-22.461,20.02
1680451128,9.766,-37.598,-28.32,8.301
1680451128,5.859,-42.48,-26.367,-0.488
1680451128,9.277,-43.945,-19.043,14.16
1680451128,15.625,-40.527,-19.531,16.113
1680451128,11.719,-44.922,-31.25,10.254
1680451128,15.137,-49.316,-37.109,5.371
1680451128,33.203,-41.992,-66.406,7.812
1680451128,26.855,-32.715,-52.734,0.977
1680451128,3.906,-34.668,2.93,-15.137
1680451128,-6.348,-39.062,3.418,-17.578
1680451128,-9.766,-40.527,-4.395,-12.695
1680451128,-1.953,-34.18,-11.719,-10.254
1680451128,2.93,-33.691,-33.691,-11.719
1680451128,0.488,-34.668,-34.18,-0.977
1680451128,-3.418,-28.32,-26.855,-1.465
1680451128,-6.348,-30.762,-25.879,-10.254
1680451128,-1.465,-36.621,-41.992,-17.578
1680451128,-7.812,-39.062,-50.293,-24.414
1680451128,-12.695,-41.504,-30.273,-20.508
1680451128,-22.461,-45.41,-34.668,-22.461
1680451128,-26.855,-41.504,-50.293,-23.926
1680451128,-11.719,-34.668,-45.41,-27.832
1680451128,-5.371,-38.574,-29.297,-42.969
1680451128,-16.113,-36.133,-18.555,-29.297
1680451128,-21.973,-33.203,-16.113,-12.695
1680451128,-20.508,-43.457,-41.504,-12.695
1680451128,-24.414,-40.527,-52.246,-20.996
1680451128,-35.156,-34.18,-21.484,-39.062
1680451128,-29.297,-34.668,-18.555,-29.297
1680451128,-17.578,-31.738,-32.227,-9.766
1680451128,-13.672,-29.785,-36.621,-11.719
1680451128,-10.254,-24.902,-23.438,-23.438
1680451128,-22.461,-27.832,-12.207,-30.273
1680451128,-35.645,-24.414,-20.508,-22.461
1680451128,-40.039,-22.949,-36.621,-25.879
1680451128,-50.293,-26.855,-46.387,-39.062
1680451128,-42.48,-20.508,-41.504,-26.367
1680451128,-26.367,-19.043,-38.574,-20.02
1680451128,-23.926,-24.902,-33.691,-37.598
1680451128,-31.25,-29.785,-15.137,-33.691
1680451128,-41.504,-35.156,-15.625,-39.062
1680451128,-39.551,-36.133,-28.32,-55.176
1680451128,-36.621,-41.504,-27.344,-53.711
1680451128,-37.109,-40.527,-19.043,-31.738
1680451128,-25.879,-32.715,-33.691,-11.23
1680451128,-24.902,-33.691,-42.969,-19.043
1680451128,-28.32,-34.18,-34.668,-40.527
1680451128,-19.531,-22.461,-27.832,-39.551
1680451128,-18.066,-20.996,-11.719,-27.832
1680451128,-20.02,-29.297,-13.672,-25.391
1680451128,-18.066,-28.809,-30.273,-24.414
1680451128,-17.09,-25.391,-37.598,-25.879
1680451128,-19.043,-28.32,-30.273,-25.391
1680451128,-18.066,-28.809,-22.949,-14.648
1680451128,-16.113,-24.414,-11.719,-3.418
1680451128,-19.531,-23.438,-6.836,-18.066
1680451128,-17.578,-25.391,-20.02,-39.062
1680451128,-20.02,-22.461,-19.043,-34.668
1680451128,-24.414,-24.414,-24.902,-26.855
1680451128,-15.625,-18.066,-26.367,-8.789
1680451128,-14.648,-11.23,-20.508,-11.23
1680451128,-21.484,-20.996,-34.18,-29.297
1680451128,-21.484,-27.832,-35.645,-27.832
1680451128,-15.137,-24.902,-27.832,-38.574
1680451128,-11.719,-22.461,-24.414,-46.387
1680451128,-21.484,-27.832,-18.066,-46.875
1680451128,-24.414,-24.902,-10.742,-48.34
1680451128,-20.508,-17.09,-14.16,-49.805
1680451128,-21.484,-21.973,-20.02,-51.27
1680451128,-22.949,-26.367,-23.926,-38.574
1680451128,-25.879,-26.855,-21.484,-24.414
1680451128,-28.32,-28.32,-28.32,-31.25
1680451128,-33.691,-24.414,-33.203,-42.969
1680451128,-33.203,-28.32,-21.973,-41.504
1680451128,-23.926,-28.32,-27.344,-22.461
1680451128,-24.902,-21.484,-31.738,-14.16
1680451128,-31.738,-27.344,-32.715,-40.527
1680451128,-22.461,-29.297,-27.832,-54.199
1680451128,-15.625,-26.367,-19.531,-48.828
1680451128,-30.273,-31.25,-20.02,-42.48
1680451128,-43.457,-35.156,-31.738,-26.855
1680451128,-39.062,-30.762,-36.133,-43.945
1680451128,-40.039,-30.762,-17.09,-68.359
1680451128,-37.598,-34.668,-15.625,-65.918
1680451128,-40.527,-35.156,-23.438,-59.57
1680451128,-49.805,-31.25,-15.137,-41.504
1680451128,-50.293,-28.32,-21.973,-41.504
1680451128,-43.457,-21.484,-27.832,-47.363
1680451128,-30.762,-14.16,-18.555,-51.758
1680451128,-29.297,-21.973,-10.742,-50.293
1680451128,-27.832,-23.438,-12.207,-33.691
1680451128,-25.879,-22.461,-41.016,-33.691
1680451128,-23.926,-23.926,-52.734,-30.762
1680451128,-18.555,-23.438,-27.832,-28.32
1680451128,-13.672,-19.531,-13.672,-19.531
1680451128,-16.602,-18.555,-15.137,13.184
1680451128,-22.949,-20.996,-37.109,1.465
1680451128,-13.672,-25.879,-28.809,-28.32
1680451128,-13.672,-28.32,-8.301,-26.367
1680451128,-22.461,-33.691,-16.602,-18.555
1680451128,-14.648,-40.527,-23.438,-12.695
1680451128,-20.508,-40.527,-31.25,-7.324
1680451128,-41.016,-40.527,-44.922,-30.273
1680451128,-41.992,-42.48,-39.062,-48.828
1680451128,-29.297,-36.133,-23.438,-31.25
1680451128,-28.809,-32.715,-26.367,-21.484
1680451128,-34.668,-30.273,-27.832,-25.879
1680451128,-36.133,-26.855,-30.762,-33.691
1680451128,-31.738,-29.297,-46.875,-41.992
1680451128,-27.344,-29.785,-51.758,-43.945
1680451128,-34.668,-31.25,-36.621,-40.039
1680451128,-41.016,-31.25,-25.391,-29.297
1680451128,-35.645,-30.273,-25.391,-26.855
1680451128,-21.973,-31.25,-39.062,-31.25
1680451128,-12.695,-33.691,-41.016,-17.09
1680451128,-16.113,-34.668,-18.555,-0.488
1680451128,-24.902,-31.738,-14.16,2.93
1680451128,-19.531,-29.785,-19.531,-0.977
1680451128,-17.578,-30.273,-16.113,-13.672
1680451128,-10.254,-24.902,-19.043,-11.23
1680451128,-2.93,-21.973,-12.695,7.324
1680451128,-32.715,-36.133,-15.625,-4.883
1680451128,-55.176,-45.41,-22.949,-31.738
1680451128,-29.785,-40.527,-7.324,-30.762
1680451128,-16.113,-39.062,-5.371,-30.273
1680451128,-33.203,-41.504,-22.461,-31.25
1680451128,-36.621,-39.062,-38.086,-23.438
1680451128,-29.297,-29.785,-42.48,-28.809
1680451128,-27.344,-25.879,-31.738,-36.621
1680451128,-26.855,-29.297,-23.438,-38.086
1680451128,-26.855,-34.18,-32.227,-22.949
1680451128,-31.25,-33.203,-40.039,1.953
1680451128,-41.016,-33.691,-31.738,-12.207
1680451128,-36.621,-36.621,-31.738,-45.898
1680451128,-21.973,-30.762,-27.832,-51.758
1680451128,-18.066,-31.738,-22.461,-31.738
1680451128,-20.508,-28.809,-32.227,-10.254
1680451128,-14.648,-22.461,-31.25,5.859
1680451128,-5.859,-18.066,-20.02,-6.836
1680451128,-1.465,-17.09,-24.414,-39.062
1680451128,1.465,-23.926,-24.902,-35.156
1680451128,-2.93,-19.531,-10.742,-5.859
1680451128,-6.348,-19.043,-3.418,10.742
1680451128,-13.184,-26.855,-12.207,-11.23
1680451128,-19.531,-28.809,-18.066,-28.809
1680451128,-13.672,-29.785,-18.066,-25.391
1680451128,-20.02,-26.367,-20.508,-15.625
1680451128,-27.832,-28.809,-21.973,-12.207
1680451128,-26.855,-36.133,-28.809,-21.484
1680451128,-24.414,-34.668,-31.25,-33.691
1680451128,-17.09,-31.738,-35.645,-30.762
1680451128,-11.719,-25.391,-28.32,-10.742
1680451128,-18.066,-30.273,-11.23,-8.789
1680451128,-22.461,-33.203,-27.344,-19.531
1680451128,-17.09,-37.598,-39.062,-31.738
1680451128,-16.113,-41.992,-28.32,-35.156
1680451128,-24.414,-35.645,-26.855,-19.043
1680451128,-23.926,-31.25,-24.414,-7.812
1680451128,-29.297,-27.344,-25.391,-23.438
1680451128,-28.32,-31.25,-31.738,-36.133
1680451128,-20.02,-30.273,-27.344,-25.391
1680451128,-20.508,-29.785,-13.672,-11.719
1680451128,-17.578,-30.273,-7.324,-5.371
1680451128,-12.207,-27.344,-13.672,-7.812
1680451128,-1.953,-25.879,-13.184,-18.066
1680451128,-1.465,-24.902,-14.648,-20.02
1680451128,-11.23,-28.32,-24.902,-13.672
1680451128,-17.578,-26.855,-23.926,-5.859
1680451128,-26.855,-29.297,-20.02,-20.508
1680451128,-32.227,-35.645,-26.855,-41.016
1680451128,-31.25,-30.762,-25.391,-44.922
1680451128,-39.551,-32.227,-23.438,-41.504
1680451128,-48.828,-32.227,-28.809,-38.086
1680451128,-47.363,-32.715,-19.531,-37.598
1680451128,-50.781,-36.133,-16.113,-44.434
1680451128,-56.152,-27.832,-27.832,-52.246
1680451128,-52.246,-28.809,-30.762,-49.805
1680451128,-54.688,-32.715,-27.832,-41.504
1680451128,-56.152,-35.156,-30.273,-40.527
1680451128,-52.734,-33.691,-47.852,-56.152
1680451128,-45.41,-31.738,-40.039,-65.43
1680451128,-41.016,-42.48,-31.25,-47.852
1680451128,-43.457,-38.086,-40.039,-26.855
1680451128,-45.898,-31.738,-24.414,-15.137
1680451128,-46.387,-38.574,-19.531,-25.879
1680451128,-33.691,-32.227,-10.254,-34.18
1680451128,-15.625,-17.09,-9.277,-21.973
1680451128,-10.742,-13.184,-12.695,-11.719
1680451128,-13.672,-16.602,-0.977,-6.836
1680451128,-13.184,-20.508,-2.441,-13.672
1680451128,-10.254,-24.902,-13.672,-21.484
1680451128,-10.254,-25.391,-32.715,-23.438
1680451128,-10.254,-20.508,-41.016,-19.531
1680451128,-26.367,-22.461,-30.273,-17.578
1680451128,-46.387,-32.227,-30.273,-33.203
1680451128,-44.434,-33.203,-35.645,-42.969
1680451128,-44.922,-35.645,-34.18,-40.527
1680451128,-40.527,-32.715,-27.832,-36.621
1680451128,-35.156,-24.902,-26.367,-36.621
1680451128,-41.504,-26.367,-26.855,-52.734
1680451128,-42.969,-24.414,-38.574,-71.777
1680451128,-37.109,-29.297,-50.293,-72.754
1680451128,-33.691,-28.809,-39.062,-54.688
1680451128,-46.387,-33.691,-31.738,-34.668
1680451129,-62.012,-41.016,-34.668,-37.109
1680451129,-59.082,-34.668,-25.391,-56.152
1680451129,-56.641,-36.133,-23.438,-63.477
1680451129,-58.594,-35.645,-15.625,-40.527
1680451129,-58.594,-36.621,-11.23,-21.484
1680451129,-56.641,-41.504,-28.809,-24.902
1680451129,-55.176,-38.574,-20.02,-34.18
1680451129,-54.688,-36.621,-10.254,-41.992
1680451129,-47.363,-35.156,-12.207,-28.809
1680451129,-36.133,-27.344,-12.207,-13.184
1680451129,-28.809,-18.066,-10.742,-14.648
1680451129,-15.625,-17.09,-20.508,-27.344
1680451129,-8.301,-16.602,-27.344,-26.367
1680451129,-14.16,-18.555,-26.367,-13.184
1680451129,-14.648,-17.578,-30.273,-10.742
1680451129,-19.531,-23.438,-34.18,-26.367
1680451129,-20.996,-32.715,-31.738,-43.945
1680451129,-19.043,-31.25,-26.367,-49.316
1680451129,-22.461,-29.785,-28.32,-44.434
1680451129,-25.879,-25.879,-28.809,-34.668
1680451129,-33.691,-26.855,-31.25,-35.645
1680451129,-33.691,-28.809,-37.598,-46.387
1680451129,-27.832,-23.438,-41.504,-57.617
1680451129,-29.297,-20.508,-33.691,-56.152
1680451129,-31.738,-25.879,-24.902,-38.574
1680451129,-40.527,-28.32,-21.973,-31.738
1680451129,-44.922,-23.926,-28.32,-44.434
1680451129,-42.969,-26.855,-33.203,-48.34
1680451129,-36.621,-27.344,-29.297,-31.738
1680451129,-31.25,-31.738,-24.902,-18.555
1680451129,-38.574,-37.598,-18.555,-17.09
1680451129,-34.668,-31.738,-15.625,-25.391
1680451129,-29.297,-27.344,-23.926,-40.039
1680451129,-31.738,-26.367,-25.391,-41.504
1680451129,-28.809,-29.785,-15.625,-30.762
1680451129,-29.297,-28.809,-21.973,-32.227
1680451129,-30.273,-19.043,-31.25,-37.598
1680451129,-24.414,-17.09,-28.32,-45.898
1680451129,-14.648,-17.09,-22.461,-49.805
1680451129,-14.16,-20.02,-33.691,-37.598
1680451129,-16.113,-17.09,-37.598,-28.809
1680451129,-19.531,-14.648,-24.414,-44.434
1680451129,-21.973,-23.438,-26.855,-59.57
1680451129,-26.855,-26.367,-27.344,-49.805
1680451129,-37.109,-32.227,-29.297,-32.227
1680451129,-41.504,-41.504,-32.715,-18.555
1680451129,-44.434,-34.668,-26.367,-22.949
1680451129,-43.945,-27.832,-28.32,-37.109
1680451129,-41.016,-27.832,-31.25,-36.621
1680451129,-32.227,-24.414,-30.273,-12.695
1680451129,-27.832,-25.391,-31.25,-2.441
1680451129,-29.785,-23.438,-16.602,-22.949
1680451129,-27.832,-21.484,-9.277,-42.969
1680451129,-30.273,-28.809,-19.043,-41.992
1680451129,-33.691,-32.715,-17.578,-30.273
1680451129,-33.691,-27.344,-21.484,-24.902
1680451129,-38.574,-25.879,-29.785,-28.32
1680451129,-38.086,-26.367,-30.273,-35.645
1680451129,-29.785,-23.926,-37.109,-40.039
1680451129,-27.832,-20.996,-36.621,-33.691
1680451129,-33.691,-20.996,-29.785,-26.855
1680451129,-39.551,-20.02,-20.508,-21.973
1680451129,-37.598,-20.508,-13.184,-36.133
1680451129,-30.762,-19.043,-18.555,-48.34
1680451129,-29.785,-18.066,-20.996,-34.668
1680451129,-28.32,-18.555,-11.23,-18.066
1680451129,-32.715,-12.207,-16.602,-25.879
1680451129,-32.227,-9.277,-24.902,-41.504
1680451129,-29.297,-14.648,-18.555,-42.48
1680451129,-35.156,-19.531,-19.531,-36.621
1680451129,-36.133,-20.508,-30.762,-35.156
1680451129,-38.574,-17.578,-33.203,-35.156
1680451129,-34.668,-14.648,-24.902,-41.504
1680451129,-31.25,-17.578,-30.273,-55.176
1680451129,-33.203,-24.414,-35.645,-55.176
1680451129,-30.273,-14.16,-37.598,-41.016
1680451129,-35.645,-11.719,-41.016,-34.18
1680451129,-36.133,-23.438,-27.344,-39.551
1680451129,-33.691,-21.484,-25.879,-39.551
1680451129,-26.367,-17.09,-27.832,-22.461
1680451129,-23.438,-19.531,-26.367,-16.602
1680451129,-32.227,-24.414,-31.738,-30.273
1680451129,-34.668,-26.367,-31.738,-44.434
1680451129,-27.832,-27.832,-31.738,-48.34
1680451129,-20.996,-28.32,-45.41,-30.762
1680451129,-32.715,-26.367,-34.668,-31.25
1680451129,-33.691,-20.02,-13.672,-35.645
1680451129,-29.297,-23.438,-23.438,-31.25
1680451129,-43.457,-41.504,-28.32,-58.594
1680451129,-37.598,-37.598,-18.066,-59.57
1680451129,-26.855,-23.926,-19.043,-34.668
1680451129,-32.227,-26.855,-24.414,-30.273
1680451129,-32.227,-30.762,-24.414,-40.527
1680451129,-38.574,-33.203,-33.203,-53.711
1680451129,-44.434,-38.574,-47.363,-33.203
1680451129,-38.574,-36.133,-50.293,-12.695
1680451129,-36.621,-30.762,-37.109,-23.438
1680451129,-42.48,-38.574,-21.973,-44.434
1680451129,-38.086,-36.621,-18.555,-47.363
1680451129,-31.25,-32.715,-14.648,-45.898
1680451129,-38.086,-34.668,-24.414,-46.875
1680451129,-37.109,-36.621,-39.551,-29.785
1680451129,-30.762,-42.48,-28.32,-23.438
1680451129,-38.574,-34.668,-22.461,-43.457
1680451129,-44.434,-34.668,-18.066,-52.246
1680451129,-41.992,-40.039,-19.531,-36.621
1680451129,-39.551,-33.691,-27.832,-18.555
1680451129,-37.109,-28.809,-30.762,-19.531
1680451129,-37.109,-27.832,-43.457,-40.039
1680451129,-33.203,-28.32,-37.109,-43.945
1680451129,-36.621,-29.297,-26.367,-34.668
1680451129,-45.41,-33.203,-20.02,-27.344
1680451129,-36.621,-37.109,-8.301,-31.25
1680451129,-37.109,-33.203,-15.137,-49.316
1680451129,-47.852,-35.156,-22.949,-56.152
1680451129,-41.016,-38.086,-25.879,-38.086
1680451129,-37.109,-40.527,-31.738,-19.531
1680451129,-40.039,-47.363,-31.738,-18.555
1680451129,-32.227,-44.922,-25.879,-19.043
1680451129,-30.762,-32.227,-32.227,-28.809
1680451129,-28.809,-29.297,-23.926,-32.227
1680451129,-25.879,-29.785,-7.812,-11.719
1680451129,-38.086,-32.227,-12.695,-0.488
1680451129,-49.805,-34.18,-12.695,-20.508
1680451129,-47.852,-35.156,-16.602,-42.969
1680451129,-42.48,-40.039,-30.273,-38.086
1680451129,-35.156,-39.551,-26.855,-16.113
1680451129,-36.621,-41.992,-13.184,-14.16
1680451129,-42.48,-43.945,-15.625,-36.133
1680451129,-40.039,-40.039,-27.832,-57.129
1680451129,-43.945,-39.062,-33.203,-49.316
1680451129,-46.387,-40.527,-41.504,-30.762
1680451129,-37.598,-34.18,-39.551,-18.066
1680451129,-37.598,-33.691,-29.297,-29.297
1680451129,-33.691,-36.621,-26.855,-42.969
1680451129,-22.949,-33.691,-26.855,-31.25
1680451129,-29.297,-28.32,-29.297,-26.367
1680451129,-33.203,-26.367,-34.18,-25.391
1680451129,-29.297,-29.785,-18.066,-26.367
1680451129,-32.227,-31.738,-9.277,-31.738
1680451129,-37.109,-32.715,-24.414,-27.832
1680451129,-33.691,-34.18,-31.25,-23.438
1680451129,-31.25,-31.738,-34.668,-19.531
1680451129,-32.715,-30.273,-34.668,-17.09
1680451129,-31.25,-33.691,-39.062,-21.973
1680451129,-28.809,-34.668,-29.297,-24.902
1680451129,-31.738,-31.25,-19.531,-35.645
1680451129,-38.574,-26.855,-18.555,-25.879
1680451129,-35.156,-28.32,-23.438,-16.113
1680451129,-30.762,-28.809,-18.066,-27.344
1680451129,-29.785,-30.273,-12.207,-34.18
1680451129,-26.855,-26.855,-24.414,-28.809
1680451129,-28.809,-22.949,-25.391,-16.602
1680451129,-33.203,-25.879,-22.461,-19.531
1680451129,-34.18,-26.855,-26.855,-35.645
1680451129,-32.227,-23.438,-27.832,-41.016
1680451129,-30.273,-23.926,-25.391,-32.715
1680451129,-29.785,-29.785,-30.273,-24.902
1680451129,-33.691,-29.785,-42.48,-25.391
1680451129,-30.762,-27.344,-44.434,-20.996
1680451129,-20.02,-30.273,-29.297,-24.414
1680451129,-16.602,-31.25,-6.836,-32.227
1680451129,-20.508,-35.645,-14.648,-26.367
1680451129,-21.973,-32.715,-35.156,-18.555
1680451129,-26.367,-26.855,-29.297,-23.438
1680451129,-24.902,-32.715,-31.25,-37.109
1680451129,-14.16,-29.297,-30.762,-30.273
1680451129,-17.578,-24.902,-26.367,-14.648
1680451129,-26.367,-26.855,-29.297,-9.766
1680451129,-23.438,-23.926,-33.691,-20.996
1680451129,-20.508,-26.855,-41.016,-39.062
1680451129,-19.531,-21.484,-39.551,-30.762
1680451129,-19.043,-20.02,-32.227,-9.766
1680451129,-25.879,-33.691,-28.32,-12.695
1680451129,-33.203,-38.574,-37.598,-38.086
1680451129,-33.691,-30.273,-37.109,-48.34
1680451129,-34.668,-20.996,-30.762,-35.645
1680451129,-34.668,-20.02,-30.762,-23.438
1680451129,-30.762,-22.949,-31.738,-24.902
1680451129,-39.062,-27.832,-36.621,-41.504
1680451129,-41.992,-29.297,-30.762,-49.316
1680451129,-32.227,-27.832,-31.25,-46.875
1680451129,-33.203,-26.855,-34.18,-38.574
1680451129,-33.691,-28.32,-30.762,-29.297
1680451129,-32.227,-32.715,-24.902,-33.691
1680451129,-31.738,-32.227,-23.926,-41.016
1680451129,-24.902,-30.762,-26.367,-35.645
1680451129,-23.438,-26.367,-27.344,-23.926
1680451129,-28.32,-26.367,-38.086,-17.09
1680451129,-26.367,-30.273,-23.438,-20.996
1680451129,-25.391,-30.273,-7.324,-39.062
1680451129,-28.809,-33.203,-21.484,-41.992
1680451129,-17.09,-26.855,-36.621,-13.672
1680451129,-17.578,-24.414,-33.203,-0.488
1680451129,-36.133,-33.691,-22.461,-18.555
1680451129,-44.434,-38.574,-16.602,-39.551
1680451129,-31.738,-39.551,-14.648,-38.574
1680451129,-14.648,-38.086,-23.926,-20.02
1680451129,-12.207,-36.133,-23.438,-3.906
1680451129,-15.625,-29.297,-16.602,0.977
1680451129,-7.324,-25.879,-14.648,-1.953
1680451129,-8.301,-24.902,-21.484,-14.16
1680451129,-5.859,-23.438,-30.273,-4.395
1680451129,-5.371,-28.32,-25.391,4.395
1680451129,-18.555,-30.273,-23.926,0.488
1680451129,-19.531,-29.297,-24.414,-8.789
1680451129,-13.184,-29.785,-41.504,-32.715
1680451129,-15.137,-33.691,-26.855,-34.668
1680451129,-17.578,-31.25,-8.789,-18.555
1680451129,-15.625,-24.902,-26.855,-20.02
1680451129,-22.949,-33.203,-22.461,-34.18
1680451129,-20.996,-38.574,-22.949,-35.156
1680451129,-20.996,-39.062,-25.879,-26.367
1680451129,-17.578,-36.133,-26.855,-15.137
1680451129,-18.066,-34.668,-37.109,-16.602
1680451129,-25.391,-31.738,-41.504,-30.273
1680451129,-22.461,-26.367,-38.086,-41.016
1680451129,-15.137,-24.414,-25.879,-36.133
1680451129,-14.16,-24.414,-7.812,-22.461
1680451129,-22.949,-26.855,-9.277,-17.09
1680451129,-20.02,-22.949,-30.273,-21.484
1680451129,-21.973,-26.367,-41.504,-36.133
1680451129,-24.902,-31.25,-29.785,-37.109
1680451129,-27.344,-24.414,-15.625,-17.578
1680451129,-33.691,-26.855,-17.09,-17.578
1680451129,-35.156,-31.25,-34.18,-22.461
1680451129,-35.156,-25.879,-31.25,-23.926
1680451129,-33.203,-23.438,-20.996,-36.133
1680451129,-27.832,-20.996,-26.367,-28.809
1680451129,-19.043,-20.996,-21.973,-3.906
1680451129,-28.32,-23.438,-29.785,-8.789
1680451129,-27.344,-27.832,-34.668,-30.273
1680451129,-16.602,-27.832,-28.809,-41.992
1680451129,-18.066,-21.484,-35.645,-26.367
1680451129,-20.508,-29.785,-32.227,0.488
1680451129,-35.156,-41.016,-16.113,-17.578
1680451129,-41.016,-41.504,-8.789,-44.434
1680451129,-32.227,-39.551,-15.625,-52.246
1680451129,-26.855,-37.598,-22.461,-40.527
1680451129,-24.414,-31.738,-29.785,-20.508
1680451129,-32.715,-30.273,-33.203,-26.367
1680451129,-35.156,-37.598,-26.855,-37.109
1680451129,-23.926,-38.574,-30.762,-42.969
1680451129,-24.414,-30.273,-41.016,-40.039
1680451129,-32.227,-35.156,-39.551,-31.25
1680451129,-39.062,-43.945,-41.992,-32.715
1680451129,-36.621,-42.969,-36.133,-41.016
1680451129,-34.18,-33.203,-37.109,-47.852
1680451129,-41.016,-30.273,-37.598,-50.781
1680451129,-35.645,-32.715,-27.344,-41.016
1680451129,-33.691,-29.297,-22.461,-36.133
1680451129,-32.227,-26.855,-17.09,-51.758
1680451129,-29.785,-28.32,-28.809,-59.57
1680451129,-27.344,-32.715,-32.715,-50.293
1680451129,-33.691,-32.227,-20.508,-28.32
1680451129,-35.645,-26.855,-30.762,-25.879
1680451130,-38.574,-32.715,-33.691,-53.711
1680451130,-39.062,-35.645,-20.996,-62.5
1680451130,-20.508,-32.715,-24.414,-47.363
1680451130,-16.602,-26.855,-23.926,-41.992
1680451130,-24.414,-26.855,-22.461,-49.805
1680451130,-20.02,-24.414,-23.926,-51.758
1680451130,-18.555,-21.484,-23.438,-55.664
1680451130,-17.578,-26.855,-27.832,-58.594
1680451130,-28.809,-30.762,-31.25,-51.758
1680451130,-41.504,-25.391,-31.25,-37.598
1680451130,-36.133,-26.855,-28.32,-39.062
1680451130,-38.574,-31.738,-22.949,-50.781
1680451130,-46.387,-31.25,-21.973,-49.316
1680451130,-41.992,-33.203,-17.09,-39.551
1680451130,-46.875,-32.715,-25.391,-24.414
1680451130,-58.594,-32.227,-35.156,-29.785
1680451130,-59.082,-36.133,-27.344,-50.781
1680451130,-45.41,-32.227,-23.438,-47.363
1680451130,-36.133,-31.738,-25.879,-35.156
1680451130,-42.48,-35.645,-30.762,-30.762
1680451130,-36.621,-39.062,-13.672,-27.832
1680451130,-19.043,-38.574,-1.465,-30.762
1680451130,-26.855,-26.855,-4.883,-36.133
1680451130,-50.293,-20.996,-17.578,-43.457
1680451130,-51.27,-26.367,-21.484,-33.691
1680451130,-42.969,-27.344,-15.625,-18.066
1680451130,-48.828,-24.902,-22.949,-30.273
1680451130,-46.387,-26.855,-29.785,-53.711
1680451130,-41.992,-26.855,-36.621,-57.617
1680451130,-37.598,-26.367,-41.016,-30.762
1680451130,-36.133,-31.25,-44.434,-21.973
1680451130,-44.434,-35.156,-39.062,-59.082
1680451130,-33.203,-30.762,-35.156,-62.012
1680451130,-28.32,-34.18,-35.156,-44.922
1680451130,-33.691,-33.203,-37.598,-32.715
1680451130,-37.598,-30.762,-39.062,-25.879
1680451130,-41.016,-39.062,-38.574,-36.133
1680451130,-37.598,-34.18,-37.109,-41.504
1680451130,-36.621,-32.715,-42.48,-39.062
1680451130,-29.785,-32.715,-32.715,-24.414
1680451130,-25.391,-29.297,-22.461,-18.555
1680451130,-32.715,-33.691,-37.109,-29.785
1680451130,-33.203,-34.18,-37.598,-29.297
1680451130,-22.949,-36.133,-27.344,-19.531
1680451130,-20.996,-33.691,-27.344,-11.719
1680451130,-26.855,-30.762,-29.785,-10.742
1680451130,-28.809,-26.855,-26.855,-23.438
1680451130,-27.832,-25.879,-16.113,-44.434
1680451130,-33.203,-34.18,-16.602,-47.852
1680451130,-33.691,-31.738,-32.715,-33.691
1680451130,-35.156,-35.645,-35.645,-29.297
1680451130,-42.48,-37.598,-37.109,-36.133
1680451130,-39.551,-33.691,-38.574,-56.152
1680451130,-37.598,-25.879,-39.062,-65.918
1680451130,-37.109,-31.738,-32.227,-59.082
1680451130,-33.691,-39.062,-21.973,-41.504
1680451130,-32.227,-34.18,-24.902,-33.203
1680451130,-37.109,-33.203,-36.621,-49.316
1680451130,-30.273,-32.227,-33.203,-57.129
1680451130,-25.879,-25.879,-27.344,-46.387
1680451130,-29.785,-24.414,-44.434,-25.391
1680451130,-29.297,-29.297,-43.945,-13.184
1680451130,-22.949,-20.508,-35.156,-21.973
1680451130,-17.578,-12.695,-41.504,-35.645
1680451130,-24.414,-14.16,-32.227,-41.504
1680451130,-15.625,-15.137,-33.691,-31.25
1680451130,-29.297,-22.461,-38.086,-29.297
1680451130,-51.758,-27.344,-30.273,-46.875
1680451130,-37.109,-25.879,-28.32,-56.641
1680451130,-23.926,-20.996,-32.227,-43.457
1680451130,-25.879,-20.02,-35.645,-28.809
1680451130,-31.738,-22.461,-30.273,-24.902
1680451130,-34.668,-27.344,-38.574,-34.668
1680451130,-22.949,-20.508,-44.922,-42.48
1680451130,-17.09,-20.996,-40.527,-24.414
1680451130,-32.227,-30.762,-31.738,-17.09
1680451130,-23.438,-26.367,-41.504,-31.25
1680451130,-17.578,-29.297,-38.574,-37.598
1680451130,-48.828,-35.645,-6.348,-56.641
1680451130,-62.012,-30.762,-6.348,-68.848
1680451130,-49.316,-28.32,-12.695,-39.551
1680451130,-53.711,-41.504,-17.578,-20.02
1680451130,-61.035,-54.199,-20.996,-39.062
1680451130,-57.129,-44.434,-19.531,-53.223
1680451130,-49.805,-40.039,-22.949,-43.945
1680451130,-49.316,-47.852,-30.273,-32.715
1680451130,-52.246,-45.41,-33.203,-37.598
1680451130,-42.48,-29.297,-64.453,-28.32
1680451130,-33.203,-23.926,-45.898,-13.184
1680451130,-44.922,-39.062,-1.953,-47.852
1680451130,-51.27,-47.363,-5.371,-59.082
1680451130,-45.41,-44.434,-11.719,-35.156
1680451130,-52.246,-41.016,-11.719,-37.109
1680451130,-50.293,-39.062,-9.766,-53.711
1680451130,-41.992,-36.133,-4.883,-48.34
1680451130,-42.48,-35.645,-15.625,-23.926
1680451130,-35.645,-32.227,-36.621,-16.113
1680451130,-37.109,-33.691,-27.832,-33.203
1680451130,-45.898,-38.574,-15.625,-49.805
1680451130,-31.25,-32.715,-9.277,-42.969
1680451130,-32.227,-32.227,-7.324,-28.32
1680451130,-41.992,-33.691,-17.578,-8.789
1680451130,-43.457,-30.273,-45.898,-3.906
1680451130,-37.109,-28.32,-35.156,-14.648
1680451130,-9.766,-27.832,-4.883,-24.902
1680451130,-4.883,-28.32,-22.461,-18.555
1680451130,-13.672,-29.297,-12.695,-14.648
1680451130,-21.973,-27.344,-3.906,-31.25
1680451130,-34.18,-33.691,-9.766,-40.527
1680451130,-30.762,-37.598,-3.418,-38.086
1680451130,-26.855,-28.809,-19.043,-35.156
1680451130,-33.691,-28.809,-21.973,-23.438
1680451130,-39.551,-36.621,-27.832,-17.578
1680451130,-34.668,-37.109,-35.156,-28.32
1680451130,-29.785,-39.551,-23.926,-39.551
1680451130,-25.879,-36.621,-30.273,-29.785
1680451130,-27.344,-34.18,-33.203,-14.16
1680451130,-34.18,-38.086,-30.762,-20.02
1680451130,-32.227,-34.18,-29.785,-29.297
1680451130,-33.203,-26.855,-29.297,-27.344
1680451130,-39.551,-36.621,-21.484,-35.156
1680451130,-36.133,-39.551,-12.207,-41.504
1680451130,-41.504,-34.668,-23.438,-37.109
1680451130,-47.852,-34.668,-45.898,-40.039
1680451130,-31.738,-30.762,-38.574,-38.574
1680451130,-26.367,-38.086,-20.02,-34.668
1680451130,-26.855,-41.016,-18.066,-4.883
1680451130,-32.227,-34.18,-23.926,4.883
1680451130,-32.715,-30.273,-27.344,-36.133
1680451130,-31.738,-27.344,-25.391,-58.105
1680451130,-32.715,-23.926,-37.109,-42.48
1680451130,-32.715,-22.461,-41.992,-23.926
1680451130,-25.879,-22.461,-20.508,-18.066
1680451130,-26.855,-20.508,-20.508,-23.438
1680451130,-34.668,-25.879,-35.645,-44.434
1680451130,-36.133,-39.551,-29.297,-53.223
1680451130,-34.668,-35.645,-32.715,-35.156
1680451130,-31.738,-25.391,-41.016,-18.555
1680451130,-30.762,-30.273,-27.344,-29.297
1680451130,-34.668,-27.344,-19.043,-41.504
1680451130,-31.25,-21.484,-20.02,-41.504
1680451130,-30.273,-22.949,-44.922,-35.156
1680451130,-38.086,-24.902,-60.547,-19.531
1680451130,-38.086,-32.715,-23.926,-22.461
1680451130,-34.668,-33.691,-10.254,-42.969
1680451130,-22.949,-28.32,-15.625,-37.598
1680451130,-16.602,-31.25,-22.461,-10.742
1680451130,-26.367,-28.32,-25.391,-1.465
1680451130,-35.645,-20.02,-16.113,-25.879
1680451130,-42.969,-25.391,-25.879,-49.805
1680451130,-41.016,-30.762,-24.902,-56.641
1680451130,-35.156,-22.461,-28.32,-44.434
1680451130,-33.691,-19.531,-27.344,-23.438
1680451130,-34.18,-24.414,-18.066,-13.184
1680451130,-43.457,-25.391,-24.414,-30.273
1680451130,-41.504,-21.973,-26.855,-38.574
1680451130,-40.039,-24.902,-30.273,-28.809
1680451130,-44.922,-32.715,-29.297,-35.645
1680451130,-48.828,-33.203,-24.902,-46.875
1680451130,-50.781,-29.785,-22.461,-53.223
1680451130,-37.598,-33.691,-33.203,-51.27
1680451130,-25.879,-29.785,-30.762,-39.062
1680451130,-32.715,-28.809,-14.648,-26.367
1680451130,-41.504,-37.109,-10.254,-21.973
1680451130,-41.504,-38.086,-25.391,-31.25
1680451130,-40.527,-40.527,-44.922,-43.945
1680451130,-44.434,-41.016,-29.297,-38.086
1680451130,-45.41,-36.621,-32.227,-35.645
1680451130,-42.969,-35.156,-47.363,-38.086
1680451130,-37.109,-32.715,-28.809,-18.555
1680451130,-33.203,-35.645,-38.086,-20.508
1680451130,-32.227,-38.574,-28.809,-31.25
1680451130,-28.32,-41.992,-10.254,-28.32
1680451130,-25.879,-41.504,-19.531,-30.273
1680451130,-9.277,-18.066,-20.02,-6.836
1680451130,-25.879,-19.043,-9.766,-19.043
1680451130,-62.988,-39.551,-17.09,-66.406
1680451130,-53.711,-39.062,-22.461,-61.523
1680451130,-47.852,-36.133,-19.043,-37.598
1680451130,-52.246,-41.504,-29.785,-38.574
1680451130,-41.992,-43.457,-21.973,-41.504
1680451130,-32.227,-39.551,-14.648,-34.18
1680451130,-27.344,-36.133,-43.945,-28.809
1680451130,-27.832,-28.809,-40.527,-24.902
1680451130,-37.598,-29.785,-19.043,-37.598
1680451130,-45.41,-35.645,-25.391,-30.762
1680451130,-35.645,-32.227,-20.508,-18.066
1680451130,-29.785,-38.086,-13.184,-43.457
1680451130,-34.668,-45.898,-28.32,-42.48
1680451130,-36.133,-44.922,-39.062,-31.738
1680451130,-40.039,-39.062,-33.691,-39.551
1680451130,-45.898,-33.691,-18.555,-43.945
1680451130,-36.133,-31.25,-21.484,-35.645
1680451130,-35.645,-37.109,-26.367,-30.273
1680451130,-41.992,-36.621,-10.742,-25.391
1680451130,-35.645,-25.879,-13.184,-26.367
1680451130,-29.785,-34.18,-45.898,-31.25
