timestamps,TP9,AF7,AF8,TP10
1683642570.502,-7.812,-18.555,-30.762,-1.465
1683642570.506,-33.691,-35.645,-48.340,-45.410
1683642570.510,-57.129,-41.992,-44.922,-82.520
1683642570.514,-52.734,-37.598,-29.297,-65.430
1683642570.518,-24.902,-28.320,-18.066,-14.160
1683642570.522,-15.137,-22.461,-24.902,0.977
1683642570.526,-35.645,-29.297,-41.016,-42.969
1683642570.529,-54.688,-34.180,-41.992,-84.473
1683642570.533,-50.293,-40.039,-31.250,-75.684
1683642570.537,-28.809,-37.109,-27.832,-30.273
1683642570.541,-19.043,-26.855,-36.133,-14.648
1683642570.545,-40.527,-35.645,-51.270,-52.246
1683642570.546,-65.918,-50.781,-51.758,-88.379
1683642570.550,-61.523,-50.293,-33.691,-75.195
1683642570.554,-40.039,-33.691,-14.160,-25.391
1683642570.558,-23.438,-24.414,-15.137,5.859
1683642570.562,-33.203,-35.156,-36.133,-20.020
1683642570.566,-52.246,-41.992,-37.109,-58.594
1683642570.570,-49.805,-33.203,-17.090,-52.246
1683642570.573,-26.367,-20.996,-4.883,-11.719
1683642570.577,-9.277,-17.578,-13.672,11.719
1683642570.581,-22.949,-35.156,-39.551,-18.555
1683642570.585,-49.805,-44.434,-49.805,-69.824
1683642570.589,-58.105,-43.945,-40.039,-78.613
1683642570.546,-65.918,-50.781,-51.758,-88.379
1683642570.550,-61.523,-50.293,-33.691,-75.195
1683642570.554,-40.039,-33.691,-14.160,-25.391
1683642570.558,-23.438,-24.414,-15.137,5.859
1683642570.562,-33.203,-35.156,-36.133,-20.020
1683642570.566,-52.246,-41.992,-37.109,-58.594
1683642570.570,-49.805,-33.203,-17.090,-52.246
1683642570.573,-26.367,-20.996,-4.883,-11.719
1683642570.577,-9.277,-17.578,-13.672,11.719
1683642570.581,-22.949,-35.156,-39.551,-18.555
1683642570.585,-49.805,-44.434,-49.805,-69.824
1683642570.589,-58.105,-43.945,-40.039,-78.613
1683642571.057,-24.414,-31.738,-34.668,-16.602
1683642571.061,-47.852,-44.922,-42.480,-65.430
1683642571.065,-47.363,-37.598,-26.855,-66.895
1683642571.069,-23.438,-22.461,-17.578,-21.973
1683642571.073,-6.836,-20.508,-26.367,8.301
1683642571.077,-19.043,-31.250,-38.086,-15.137
1683642571.081,-42.480,-33.691,-41.016,-63.965
1683642571.084,-44.434,-35.645,-36.133,-70.801
1683642571.088,-23.926,-30.762,-16.602,-24.902
1683642571.092,-0.488,-16.602,-11.719,15.625
1683642571.096,-0.488,-13.672,-30.273,-1.465
1683642571.100,-27.344,-26.855,-44.922,-54.199
1683642570.546,-65.918,-50.781,-51.758,-88.379
1683642570.550,-61.523,-50.293,-33.691,-75.195
1683642570.554,-40.039,-33.691,-14.160,-25.391
1683642570.558,-23.438,-24.414,-15.137,5.859
1683642570.562,-33.203,-35.156,-36.133,-20.020
1683642570.566,-52.246,-41.992,-37.109,-58.594
1683642570.570,-49.805,-33.203,-17.090,-52.246
1683642570.573,-26.367,-20.996,-4.883,-11.719
1683642570.577,-9.277,-17.578,-13.672,11.719
1683642570.581,-22.949,-35.156,-39.551,-18.555
1683642570.585,-49.805,-44.434,-49.805,-69.824
1683642570.589,-58.105,-43.945,-40.039,-78.613
1683642570.591,-31.250,-36.133,-23.438,-30.273
1683642570.595,-14.648,-29.297,-19.531,4.395
1683642570.599,-22.461,-30.273,-35.645,-17.578
1683642570.603,-41.992,-37.598,-42.480,-63.965
1683642570.607,-49.805,-43.457,-29.785,-76.660
1683642570.611,-32.227,-31.738,-11.230,-38.574
1683642570.615,-19.531,-11.230,-6.836,-1.465
1683642570.618,-27.832,-20.508,-31.250,-11.719
1683642570.622,-50.293,-47.363,-48.828,-60.059
1683642570.626,-62.012,-49.316,-37.109,-83.496
1683642570.630,-45.410,-30.273,-14.648,-45.898
1683642570.634,-20.508,-21.484,-10.254,1.953
1683642570.591,-31.250,-36.133,-23.438,-30.273
1683642570.595,-14.648,-29.297,-19.531,4.395
1683642570.599,-22.461,-30.273,-35.645,-17.578
1683642570.603,-41.992,-37.598,-42.480,-63.965
1683642570.607,-49.805,-43.457,-29.785,-76.660
1683642570.611,-32.227,-31.738,-11.230,-38.574
1683642570.615,-19.531,-11.230,-6.836,-1.465
1683642570.618,-27.832,-20.508,-31.250,-11.719
1683642570.622,-50.293,-47.363,-48.828,-60.059
1683642570.626,-62.012,-49.316,-37.109,-83.496
1683642570.630,-45.410,-30.273,-14.648,-45.898
1683642570.634,-20.508,-21.484,-10.254,1.953
1683642570.636,-19.043,-26.855,-26.367,-1.465
1683642570.640,-40.527,-43.457,-41.504,-50.781
1683642570.644,-57.129,-44.434,-37.598,-77.637
1683642570.648,-46.875,-32.227,-22.461,-52.246
1683642570.652,-27.344,-26.855,-20.020,-15.625
1683642570.656,-25.391,-19.531,-28.320,-7.812
1683642570.660,-41.016,-22.461,-37.598,-41.016
1683642570.663,-56.152,-35.645,-40.039,-76.172
1683642570.667,-53.711,-45.898,-31.738,-59.082
1683642570.671,-31.738,-34.668,-16.113,-7.324
1683642570.675,-23.438,-23.438,-21.484,10.254
1683642570.679,-36.621,-34.668,-39.551,-30.273
1683642570.681,-57.617,-40.527,-39.062,-70.801
1683642570.685,-58.594,-34.180,-27.832,-52.734
1683642570.689,-27.344,-17.090,-10.742,-0.977
1683642570.693,-10.254,-7.324,-13.672,19.043
1683642570.697,-34.180,-26.855,-39.062,-21.973
1683642570.701,-62.500,-36.621,-41.016,-69.336
1683642570.705,-50.781,-24.414,-23.438,-56.641
1683642570.708,-15.625,-19.531,-21.973,-7.324
1683642570.712,4.395,-14.648,-32.227,21.973
1683642570.716,-14.160,-24.414,-37.109,1.465
1683642570.720,-57.617,-47.852,-33.691,-53.223
1683642570.724,-69.336,-45.898,-20.020,-64.941
1683642570.726,-34.668,-27.344,-4.395,-13.672
1683642570.730,-17.578,-26.367,-8.789,17.578
1683642570.734,-36.133,-32.227,-27.344,-19.531
1683642570.738,-54.688,-37.109,-35.156,-64.453
1683642570.742,-53.711,-45.898,-26.855,-66.406
1683642570.746,-41.504,-40.527,-5.371,-32.227
1683642570.750,-35.156,-33.691,-2.930,-7.812
1683642570.753,-37.598,-43.945,-27.832,-26.855
1683642570.757,-55.664,-59.570,-35.645,-67.871
1683642570.761,-70.312,-63.477,-21.484,-83.008
1683642570.765,-56.641,-45.898,-7.324,-52.734
1683642570.769,-33.203,-35.156,-13.184,-11.230
1683642570.771,-32.227,-42.480,-31.250,-17.578
1683642570.775,-53.223,-56.152,-40.039,-64.453
1683642570.779,-59.082,-52.246,-29.785,-79.590
1683642570.783,-37.598,-38.574,-14.160,-42.969
1683642570.787,-15.625,-33.203,-13.672,5.371
1683642570.791,-13.672,-32.227,-23.438,4.395
1683642570.795,-39.551,-38.574,-31.738,-44.922
1683642570.798,-58.105,-51.270,-31.250,-72.754
1683642570.802,-44.434,-47.363,-20.508,-43.945
1683642570.806,-21.973,-33.691,-12.207,0.977
1683642570.810,-19.043,-29.785,-22.949,3.906
1683642570.814,-38.574,-39.551,-40.039,-40.527
1683642570.816,-54.688,-48.828,-33.691,-73.242
1683642570.820,-43.457,-42.969,-12.695,-48.340
1683642570.824,-22.949,-30.273,-4.395,-1.465
1683642570.828,-20.996,-32.715,-22.461,2.930
1683642570.832,-41.992,-42.969,-43.457,-39.062
1683642570.836,-57.129,-43.457,-39.062,-71.289
1683642570.840,-48.828,-33.691,-20.020,-52.734
1683642570.843,-22.461,-22.461,-9.277,-4.395
1683642570.847,-7.324,-26.855,-20.996,12.207
1683642570.851,-24.414,-43.945,-34.180,-24.902
1683642570.855,-50.781,-50.293,-30.273,-66.895
1683642570.859,-49.805,-45.898,-19.043,-60.547
1683642570.876,-20.508,-26.855,-9.766,-11.230
1683642570.880,-6.348,-16.113,-20.508,16.113
1683642570.884,-25.391,-29.297,-37.109,-16.602
1683642570.888,-50.293,-38.574,-36.621,-59.082
1683642570.892,-52.734,-33.203,-21.484,-52.246
1683642570.896,-27.832,-17.090,-7.812,-2.930
1683642570.900,-9.766,-15.137,-14.648,24.902
1683642570.903,-26.367,-35.156,-33.691,-6.836
1683642570.907,-51.270,-52.734,-40.039,-54.199
1683642570.911,-55.664,-53.711,-28.809,-59.570
1683642570.915,-44.434,-38.086,-15.137,-24.414
1683642570.919,-33.203,-31.250,-16.602,4.395
1683642570.876,-20.508,-26.855,-9.766,-11.230
1683642570.880,-6.348,-16.113,-20.508,16.113
1683642570.884,-25.391,-29.297,-37.109,-16.602
1683642570.888,-50.293,-38.574,-36.621,-59.082
1683642570.892,-52.734,-33.203,-21.484,-52.246
1683642570.896,-27.832,-17.090,-7.812,-2.930
1683642570.900,-9.766,-15.137,-14.648,24.902
1683642570.903,-26.367,-35.156,-33.691,-6.836
1683642570.907,-51.270,-52.734,-40.039,-54.199
1683642570.911,-55.664,-53.711,-28.809,-59.570
1683642570.915,-44.434,-38.086,-15.137,-24.414
1683642570.919,-33.203,-31.250,-16.602,4.395
1683642570.921,-43.457,-41.504,-33.203,-16.602
1683642570.925,-65.430,-52.246,-39.062,-60.059
1683642570.929,-73.242,-50.781,-26.855,-73.242
1683642570.933,-60.059,-41.016,-12.207,-41.504
1683642570.937,-45.898,-36.133,-8.301,-4.883
1683642570.941,-52.734,-38.086,-27.344,-20.508
1683642570.945,-73.242,-49.316,-41.992,-68.848
1683642570.948,-82.031,-54.688,-28.320,-86.914
1683642570.952,-63.965,-52.246,-15.625,-51.758
1683642570.956,-39.551,-43.457,-12.695,-5.371
1683642570.960,-40.039,-36.133,-22.949,-7.812
1683642570.964,-59.082,-45.410,-37.598,-50.781
1683642570.966,-71.289,-41.992,-30.762,-74.707
1683642570.970,-55.664,-32.227,-14.648,-42.480
1683642570.974,-28.320,-22.461,-8.789,3.906
1683642570.978,-22.461,-16.113,-24.902,5.859
1683642570.982,-37.598,-35.156,-41.992,-32.227
1683642570.986,-54.199,-40.527,-31.250,-63.477
1683642570.990,-38.086,-22.949,-9.277,-34.668
1683642570.993,-5.371,-12.207,0.488,21.484
1683642570.997,0.488,-22.949,-17.578,22.949
1683642571.001,-22.461,-40.039,-39.062,-29.297
1683642571.005,-47.852,-45.410,-35.645,-66.895
1683642571.009,-45.410,-39.062,-19.531,-48.340
1683642571.012,-20.996,-26.855,-8.789,-2.930
1683642571.016,-10.742,-24.902,-19.043,8.301
1683642571.020,-31.738,-35.156,-35.645,-37.109
1683642571.024,-57.129,-44.434,-36.133,-81.055
1683642571.028,-50.293,-48.828,-22.949,-69.336
1683642571.032,-27.344,-28.320,-7.324,-20.996
1683642571.036,-23.438,-8.789,-13.184,-0.488
1683642571.039,-38.574,-25.879,-38.086,-39.551
1683642571.043,-60.547,-52.246,-45.410,-86.914
1683642571.047,-60.547,-52.246,-25.391,-78.125
1683642571.051,-38.086,-33.691,-9.277,-26.367
1683642571.055,-18.555,-24.414,-13.672,6.836
1683642571.102,-45.898,-37.598,-35.645,-70.801
1683642571.106,-33.691,-26.367,-13.184,-29.297
1683642571.110,-16.113,-13.184,-8.789,8.789
1683642571.114,-23.438,-21.484,-27.344,-7.324
1683642571.118,-49.316,-41.992,-44.922,-55.664
1683642571.122,-61.523,-41.504,-35.645,-78.613
1683642571.126,-51.270,-29.297,-18.066,-50.781
1683642571.129,-26.367,-21.484,-17.578,-6.348
1683642571.133,-19.531,-19.531,-33.203,-0.488
1683642571.137,-47.852,-38.086,-49.316,-48.340
1683642571.141,-70.801,-48.828,-43.457,-89.355
1683642571.145,-56.641,-41.504,-22.949,-62.500
1683642571.146,-31.738,-30.273,-16.113,-9.277
1683642571.150,-24.414,-21.973,-27.832,-0.977
1683642571.154,-35.645,-30.273,-44.922,-42.480
1683642571.158,-50.293,-36.621,-42.480,-73.242
1683642571.162,-45.898,-38.086,-29.297,-53.223
1683642571.166,-27.344,-28.320,-18.066,-7.324
1683642571.170,-15.137,-12.207,-22.949,12.207
1683642571.173,-26.367,-27.344,-39.062,-23.926
1683642571.177,-41.504,-41.504,-39.551,-62.012
1683642571.181,-35.645,-32.715,-21.973,-48.828
1683642571.185,-15.137,-14.648,-7.324,-2.930
1683642571.189,-6.348,-14.160,-17.090,18.555
1683642571.146,-31.738,-30.273,-16.113,-9.277
1683642571.150,-24.414,-21.973,-27.832,-0.977
1683642571.154,-35.645,-30.273,-44.922,-42.480
1683642571.158,-50.293,-36.621,-42.480,-73.242
1683642571.162,-45.898,-38.086,-29.297,-53.223
1683642571.166,-27.344,-28.320,-18.066,-7.324
1683642571.170,-15.137,-12.207,-22.949,12.207
1683642571.173,-26.367,-27.344,-39.062,-23.926
1683642571.177,-41.504,-41.504,-39.551,-62.012
1683642571.181,-35.645,-32.715,-21.973,-48.828
1683642571.185,-15.137,-14.648,-7.324,-2.930
1683642571.189,-6.348,-14.160,-17.090,18.555
1683642571.192,-18.066,-25.391,-37.109,-17.090
1683642571.196,-41.504,-41.016,-47.363,-65.430
1683642571.200,-51.270,-41.016,-35.156,-67.383
1683642571.204,-38.086,-30.762,-21.973,-24.414
1683642571.208,-23.438,-29.297,-28.320,9.766
1683642571.212,-32.715,-33.691,-45.898,-12.695
1683642571.216,-58.105,-43.945,-50.781,-62.988
1683642571.219,-62.500,-48.828,-35.156,-72.266
1683642571.223,-42.480,-49.316,-22.461,-31.250
1683642571.227,-27.832,-42.480,-24.414,1.953
1683642571.231,-39.062,-39.551,-35.156,-17.578
1683642571.235,-63.477,-49.805,-43.457,-64.941
1683642571.251,-64.453,-46.875,-26.855,-74.707
1683642571.255,-41.016,-34.180,-13.672,-35.156
1683642571.259,-17.578,-27.344,-15.625,1.465
1683642571.263,-15.625,-35.645,-27.832,-11.719
1683642571.267,-43.457,-51.758,-42.969,-60.059
1683642571.271,-57.129,-49.316,-34.668,-78.613
1683642571.275,-38.574,-31.738,-18.555,-36.133
1683642571.278,-16.602,-26.367,-17.578,10.742
1683642571.282,-19.531,-36.621,-30.273,4.883
1683642571.286,-41.992,-46.387,-40.527,-43.945
1683642571.290,-56.641,-41.992,-30.273,-70.801
1683642571.294,-45.898,-32.227,-14.648,-38.574
1683642571.296,-18.066,-22.461,-14.160,3.906
1683642571.300,-15.625,-26.855,-34.180,-0.977
1683642571.304,-36.621,-38.086,-48.340,-47.363
1683642571.308,-43.457,-34.180,-40.039,-73.730
1683642571.312,-33.691,-28.809,-24.414,-48.828
1683642571.316,-10.742,-18.066,-13.184,-7.812
1683642571.320,-4.883,-12.695,-23.926,-4.883
1683642571.323,-35.156,-28.320,-41.992,-55.664
1683642571.327,-62.012,-49.316,-47.852,-98.633
1683642571.331,-55.664,-48.340,-33.203,-84.473
1683642571.335,-25.879,-24.902,-15.625,-36.621
1683642571.339,-14.160,-25.391,-29.785,-18.066
1683642571.341,-33.691,-42.480,-49.316,-56.641
1683642571.345,-55.176,-47.852,-48.828,-92.285
1683642571.349,-48.340,-43.457,-29.785,-76.172
1683642571.353,-22.949,-34.180,-17.090,-27.344
1683642571.357,-10.742,-31.738,-31.250,-5.371
1683642571.361,-29.297,-38.086,-42.969,-33.691
1683642571.365,-60.059,-42.480,-45.410,-75.195
1683642571.368,-59.570,-41.992,-36.133,-72.266
1683642571.372,-28.809,-34.668,-24.414,-22.949
1683642571.376,-9.766,-26.367,-32.715,11.230
1683642571.380,-25.879,-28.809,-46.387,-13.184
1683642571.384,-43.945,-34.668,-45.410,-57.129
1683642571.387,-41.504,-35.156,-34.180,-58.105
1683642571.391,-25.391,-23.438,-16.113,-10.742
1683642571.395,-8.789,-12.695,-13.672,23.926
1683642571.399,-17.578,-25.879,-34.668,-3.418
1683642571.403,-51.270,-41.016,-46.387,-57.129
1683642571.407,-60.547,-38.086,-30.762,-69.336
1683642571.411,-35.645,-22.461,-11.230,-22.461
1683642571.414,-20.020,-20.508,-15.625,10.742
1683642571.418,-36.621,-31.738,-36.133,-9.766
1683642571.422,-62.500,-47.852,-44.434,-56.152
1683642571.426,-66.895,-49.316,-27.344,-78.125
1683642571.430,-51.270,-41.504,-16.602,-50.293
1683642571.431,-31.738,-31.250,-16.113,-6.348
1683642571.435,-29.297,-29.297,-21.484,-6.836
1683642571.439,-50.293,-37.598,-32.227,-55.176
1683642571.443,-62.500,-44.434,-32.715,-80.078
1683642571.447,-39.551,-33.203,-18.555,-42.480
1683642571.451,-20.020,-21.484,-10.254,5.859
1683642571.455,-29.297,-21.484,-23.926,1.465
1683642571.458,-54.688,-40.039,-40.527,-48.828
1683642571.462,-75.195,-57.129,-39.551,-81.055
1683642571.466,-60.059,-44.922,-20.996,-50.781
1683642571.470,-31.250,-27.344,-13.672,-1.953
1683642571.474,-22.461,-24.414,-27.832,4.395
1683642571.476,-41.504,-35.645,-41.504,-41.016
1683642571.480,-58.594,-45.898,-39.551,-75.195
1683642571.484,-42.969,-33.691,-15.625,-47.852
1683642571.488,-16.602,-19.043,-3.906,5.371
1683642571.492,-5.859,-19.531,-18.066,20.508
1683642571.496,-26.367,-26.367,-34.668,-23.438
1683642571.500,-53.711,-32.227,-38.574,-67.383
1683642571.503,-45.898,-32.715,-24.902,-57.617
1683642571.507,-19.043,-30.762,-19.043,-15.625
1683642571.511,-12.695,-29.785,-28.809,-4.395
1683642571.515,-31.250,-26.855,-41.992,-46.387
1683642571.519,-55.176,-35.645,-49.805,-93.750
1683642571.521,-58.594,-35.645,-35.156,-91.309
1683642571.525,-41.016,-22.949,-14.648,-43.945
1683642571.529,-19.043,-16.113,-13.184,-11.230
1683642571.533,-33.691,-25.879,-35.645,-44.434
1683642571.537,-62.988,-42.969,-47.852,-97.168
1683642571.541,-62.012,-42.480,-31.250,-98.145
1683642571.545,-39.551,-26.367,-20.020,-49.316
1683642571.548,-22.461,-20.996,-25.879,-16.602
1683642571.552,-34.180,-34.668,-37.598,-39.062
1683642571.556,-60.059,-47.363,-39.551,-80.078
1683642571.560,-67.383,-43.457,-31.250,-84.961
1683642571.564,-44.922,-26.855,-17.090,-39.062
1683642571.567,-21.973,-17.090,-17.090,-1.465
1683642571.571,-25.879,-26.855,-37.109,-20.508
1683642571.575,-46.387,-40.039,-42.480,-64.453
1683642571.579,-57.129,-40.527,-35.156,-79.102
1683642571.583,-39.551,-31.738,-29.297,-43.945
1683642571.587,-20.508,-19.043,-26.367,-5.859
1683642571.591,-21.484,-20.020,-41.992,-17.578
1683642571.594,-42.480,-40.039,-58.105,-67.871
1683642571.598,-56.641,-54.199,-49.805,-91.797
1683642571.602,-34.180,-42.480,-26.855,-53.223
1683642571.606,-9.766,-20.508,-23.926,-8.789
1683642571.610,-10.742,-22.949,-45.898,-15.625
1683642571.626,-35.156,-45.410,-59.570,-63.477
1683642571.630,-61.523,-57.617,-49.316,-96.680
1683642571.634,-51.270,-45.898,-27.344,-72.266
1683642571.638,-28.320,-24.414,-21.484,-26.855
1683642571.642,-25.879,-19.531,-37.598,-27.344
1683642571.646,-43.457,-25.391,-48.340,-67.383
1683642571.650,-60.547,-27.832,-44.922,-99.609
1683642571.653,-50.781,-30.762,-32.227,-82.520
1683642571.657,-25.391,-25.391,-20.508,-34.180
1683642571.661,-21.484,-25.391,-31.738,-21.973
1683642571.665,-45.410,-40.527,-53.223,-65.918
1683642571.669,-64.453,-46.387,-50.293,-102.051
1683642571.672,-60.059,-38.086,-26.367,-80.566
1683642571.676,-35.156,-32.715,-15.137,-27.832
1683642571.680,-20.996,-26.855,-24.414,-6.348
1683642571.684,-36.621,-31.250,-39.551,-40.039
1683642571.688,-53.711,-44.922,-43.457,-78.125
1683642571.692,-48.340,-40.527,-27.344,-68.848
1683642571.696,-25.391,-24.414,-13.672,-23.926
1683642571.699,-7.812,-20.996,-24.414,2.441
1683642571.703,-15.137,-31.738,-46.875,-24.902
1683642571.707,-43.945,-47.363,-54.199,-76.172
1683642571.711,-47.852,-35.645,-33.203,-76.660
1683642571.715,-27.832,-25.391,-19.043,-30.273
1683642571.717,-15.625,-30.273,-24.414,-1.465
1683642571.721,-24.902,-34.668,-43.945,-26.855
1683642571.725,-50.293,-43.945,-48.828,-76.172
1683642571.729,-55.664,-40.039,-29.297,-83.984
1683642571.733,-32.715,-27.832,-13.184,-42.480
1683642571.737,-20.508,-20.996,-20.996,-11.230
1683642571.741,-33.691,-20.996,-35.645,-29.785
1683642571.744,-54.199,-37.598,-40.527,-74.707
1683642571.748,-66.406,-41.504,-37.598,-98.633
1683642571.752,-54.199,-31.738,-24.902,-63.477
1683642571.756,-32.227,-21.484,-13.672,-18.066
1683642571.760,-41.016,-27.344,-29.785,-33.203
1683642571.761,-68.359,-50.293,-42.969,-79.102
1683642571.765,-81.543,-55.664,-36.133,-102.051
1683642571.769,-60.547,-34.180,-19.043,-69.824
1683642571.773,-25.391,-20.020,-13.672,-17.578
1683642571.777,-17.578,-27.832,-31.250,-18.066
1683642571.781,-35.645,-36.621,-48.340,-63.965
1683642571.785,-43.945,-31.738,-41.016,-86.426
1683642571.788,-27.832,-27.344,-24.902,-52.246
1683642571.792,-8.789,-27.832,-23.438,-10.742
1683642571.796,-3.906,-26.855,-38.086,-12.207
1683642571.800,-20.508,-34.668,-47.852,-52.246
1683642571.804,-41.504,-39.551,-42.969,-82.520
1683642571.806,-34.668,-33.691,-24.902,-63.477
1683642571.810,-11.719,-21.484,-12.207,-14.648
1683642571.814,-9.277,-16.602,-22.949,0.488
1683642571.818,-34.668,-33.691,-37.598,-42.969
1683642571.822,-56.641,-41.016,-35.156,-76.660
1683642571.826,-50.293,-26.855,-17.090,-58.594
1683642571.830,-21.973,-9.277,-7.812,-11.230
1683642571.833,-13.672,-14.648,-19.043,4.883
1683642571.837,-40.039,-35.645,-40.527,-38.574
1683642571.841,-61.523,-44.922,-43.945,-82.520
1683642571.845,-57.617,-34.668,-25.879,-78.125
1683642571.849,-37.598,-21.484,-9.277,-34.180
1683642571.851,-26.855,-14.648,-16.602,-9.277
1683642571.855,-38.574,-20.996,-39.551,-39.062
1683642571.859,-58.594,-34.668,-44.434,-86.914
1683642571.863,-60.059,-30.762,-30.762,-84.473
1683642571.867,-37.109,-27.344,-23.438,-41.504
1683642571.871,-14.648,-19.531,-26.367,-7.812
1683642571.875,-16.113,-19.043,-34.180,-22.949
1683642571.878,-33.691,-34.180,-38.574,-68.359
1683642571.882,-37.598,-42.969,-29.297,-75.195
1683642571.886,-18.555,-30.273,-10.254,-35.156
1683642571.890,-4.395,-16.113,-14.160,-0.977
1683642571.894,-16.602,-21.484,-38.086,-19.043
1683642571.897,-40.039,-33.691,-47.363,-63.965
1683642571.901,-49.805,-41.016,-36.621,-79.102
1683642571.905,-31.250,-30.273,-19.531,-44.922
1683642571.909,-14.648,-21.973,-25.391,-6.348
1683642571.913,-25.879,-29.785,-48.828,-16.602
1683642571.917,-49.316,-29.785,-46.387,-56.152
1683642571.921,-61.035,-24.902,-31.738,-74.707
1683642571.924,-47.363,-30.273,-21.973,-47.363
1683642571.928,-20.996,-27.344,-13.672,-7.812
1683642571.932,-20.020,-24.414,-29.297,-12.695
1683642571.936,-45.410,-32.715,-44.922,-61.035
1683642571.940,-57.617,-37.109,-44.434,-92.285
1683642571.941,-45.898,-27.832,-26.367,-62.012
1683642571.945,-24.414,-13.672,-13.672,-10.254
1683642571.949,-19.043,-13.184,-26.855,-4.883
1683642571.953,-38.086,-28.320,-40.527,-50.293
1683642571.957,-58.594,-45.898,-39.551,-84.473
1683642571.961,-54.199,-40.527,-18.066,-61.523
1683642571.965,-32.715,-18.555,-7.324,-11.230
1683642571.968,-25.879,-22.949,-24.414,-0.488
1683642571.972,-39.062,-40.527,-42.480,-38.574
1683642571.976,-59.082,-55.664,-47.363,-76.660
1683642571.980,-58.105,-47.852,-34.180,-66.895
1683642571.984,-29.297,-24.414,-19.043,-16.113
1683642572.001,-16.113,-25.879,-26.855,4.395
1683642572.005,-39.062,-40.527,-44.434,-36.621
1683642572.009,-63.965,-46.875,-45.898,-77.637
1683642572.013,-64.941,-42.969,-31.250,-69.824
1683642572.017,-42.969,-28.320,-16.113,-25.879
1683642572.021,-33.203,-23.926,-25.391,-2.930
1683642572.025,-50.293,-32.227,-44.922,-29.785
1683642572.028,-68.359,-44.922,-46.387,-69.336
1683642572.032,-67.871,-45.898,-26.367,-66.895
1683642572.036,-46.387,-35.645,-12.695,-27.344
1683642572.040,-28.320,-22.461,-17.090,0.488
1683642572.044,-38.086,-27.344,-35.156,-19.531
1683642572.046,-58.594,-48.340,-46.387,-65.430
1683642572.050,-58.105,-45.898,-27.344,-69.824
1683642572.054,-28.320,-22.461,-4.395,-24.414
1683642572.058,-1.465,-10.742,-6.836,7.812
1683642572.062,-8.789,-20.996,-27.344,-8.789
1683642572.066,-31.738,-32.227,-38.574,-51.270
1683642572.070,-36.621,-29.297,-29.785,-68.848
1683642572.073,-15.625,-19.043,-15.137,-30.273
1683642572.077,0.000,-21.484,-19.531,11.719
1683642572.081,-8.301,-34.668,-36.621,-3.418
1683642572.085,-26.367,-34.668,-44.922,-44.434
1683642572.089,-37.598,-36.621,-34.180,-58.105
1683642572.092,-22.949,-22.461,-10.742,-23.438
1683642572.096,-4.883,-12.695,-9.277,11.230
1683642572.100,-9.277,-14.160,-26.367,4.395
1683642572.104,-31.250,-23.438,-35.156,-36.621
1683642572.108,-50.781,-36.133,-31.250,-64.941
1683642572.112,-49.805,-28.809,-20.508,-43.945
1683642572.116,-36.621,-20.996,-18.066,-4.395
1683642572.119,-38.086,-27.832,-33.691,-0.977
1683642572.123,-60.547,-44.434,-49.316,-46.387
1683642572.127,-82.520,-55.664,-41.016,-82.520
1683642572.131,-81.055,-42.969,-22.461,-67.383
1683642572.135,-52.246,-22.949,-12.695,-20.508
1683642572.136,-33.691,-22.461,-22.949,-6.836
1683642572.140,-47.852,-38.574,-41.016,-45.410
1683642572.144,-68.359,-42.480,-41.992,-84.961
1683642572.148,-59.082,-32.227,-29.297,-72.754
1683642572.152,-23.438,-23.438,-16.602,-18.555
1683642572.156,-6.836,-15.625,-19.531,6.836
1683642572.160,-26.367,-17.090,-39.551,-33.203
1683642572.163,-49.805,-33.691,-45.410,-79.590
1683642572.167,-44.922,-39.551,-33.203,-73.730
1683642572.171,-16.113,-19.531,-19.043,-20.020
1683642572.175,0.977,-9.766,-27.344,6.348
1683642572.179,-10.254,-21.484,-47.363,-25.879
1683642572.181,-26.367,-31.250,-45.410,-59.570
1683642572.185,-31.250,-28.320,-31.250,-52.734
1683642572.189,-17.578,-20.020,-21.484,-9.277
1683642572.193,-3.906,-15.625,-19.531,18.555
1683642572.197,-21.973,-29.785,-37.598,-12.207
1683642572.201,-55.664,-46.387,-52.246,-65.430
1683642572.205,-60.547,-39.551,-37.109,-67.383
1683642572.208,-41.504,-30.762,-16.602,-23.926
1683642572.212,-32.715,-32.227,-21.484,7.324
1683642572.216,-48.828,-41.504,-41.992,-20.508
1683642572.220,-76.660,-48.340,-51.758,-69.824
1683642572.224,-80.566,-50.781,-39.551,-78.613
1683642572.227,-62.500,-45.898,-21.484,-42.480
1683642572.231,-41.992,-27.344,-15.137,0.488
1683642572.235,-38.574,-22.949,-27.832,-7.324
1683642572.239,-60.547,-41.504,-41.504,-53.223
1683642572.243,-71.777,-50.293,-35.645,-76.172
1683642572.247,-50.781,-35.156,-16.113,-42.480
1683642572.251,-25.879,-14.160,-6.836,10.254
1683642572.254,-18.555,-17.090,-25.391,6.836
1683642572.258,-33.691,-35.645,-41.504,-40.039
1683642572.262,-45.898,-45.410,-30.762,-63.965
1683642572.266,-29.785,-37.598,-12.695,-37.598
1683642572.270,-1.953,-23.438,-7.324,7.324
1683642572.272,0.977,-21.973,-19.531,10.742
1683642572.276,-19.043,-32.227,-33.691,-26.367
1683642572.280,-36.621,-39.062,-33.691,-53.711
1683642572.284,-24.414,-33.691,-16.602,-32.227
1683642572.288,-2.930,-25.391,-12.207,15.137
1683642572.292,-0.488,-25.391,-23.926,22.949
1683642572.296,-19.043,-31.738,-34.180,-17.090
1683642572.299,-40.527,-44.922,-35.156,-55.664
1683642572.303,-37.109,-39.062,-15.137,-43.457
1683642572.307,-18.066,-23.438,-4.395,3.906
1683642572.311,-22.461,-19.043,-15.625,17.090
1683642572.315,-46.875,-31.738,-37.598,-21.484
1683642572.316,-63.965,-45.410,-42.969,-63.965
1683642572.320,-65.430,-40.527,-20.996,-57.617
1683642572.324,-43.457,-22.461,-3.906,-12.207
1683642572.328,-27.344,-18.555,-14.160,9.277
1683642572.332,-46.875,-32.715,-34.668,-24.414
1683642572.336,-75.684,-41.504,-38.086,-70.801
1683642572.340,-73.730,-38.574,-27.344,-67.383
1683642572.343,-47.363,-30.273,-20.508,-22.949
1683642572.347,-30.762,-25.879,-26.367,4.883
1683642572.351,-43.457,-34.180,-38.574,-20.020
1683642572.355,-64.941,-42.480,-44.922,-69.336
1683642572.359,-61.523,-41.504,-33.203,-74.707
1683642572.376,-33.691,-25.391,-15.137,-29.297
1683642572.380,-9.766,-20.020,-15.137,5.859
1683642572.384,-10.742,-33.203,-30.273,-16.602
1683642572.388,-28.320,-37.598,-38.574,-60.547
1683642572.392,-38.574,-38.086,-30.762,-66.895
1683642572.396,-21.973,-25.879,-18.555,-30.273
1683642572.400,-1.465,-10.742,-19.043,2.930
1683642572.403,-10.742,-25.391,-38.086,-13.184
1683642572.407,-43.945,-44.434,-50.781,-65.430
1683642572.411,-65.918,-51.758,-40.527,-91.309
1683642572.415,-57.129,-45.410,-24.902,-59.570
1683642572.419,-33.691,-26.855,-20.020,-12.207
1683642572.421,-33.691,-24.902,-37.109,-15.137
1683642572.425,-57.129,-41.992,-50.781,-59.570
1683642572.429,-72.754,-44.434,-37.109,-81.055
1683642572.433,-68.848,-35.645,-22.461,-62.012
1683642572.437,-49.805,-26.855,-19.043,-25.391
1683642572.441,-40.527,-23.926,-30.762,-16.113
1683642572.445,-59.082,-33.691,-44.434,-58.594
1683642572.448,-77.148,-45.898,-41.504,-91.309
1683642572.452,-64.941,-44.434,-28.809,-63.477
1683642572.456,-38.086,-30.762,-16.602,-9.277
1683642572.460,-29.297,-20.996,-21.484,-1.465
1683642572.464,-49.805,-32.715,-39.551,-42.480
1683642572.467,-70.312,-42.480,-39.062,-71.777
1683642572.471,-60.059,-33.203,-18.555,-53.711
1683642572.475,-29.785,-26.855,-8.789,-3.418
1683642572.479,-13.184,-27.832,-22.461,14.648
1683642572.483,-23.926,-35.645,-38.086,-26.367
1683642572.487,-36.133,-41.504,-36.133,-66.406
1683642572.491,-30.762,-37.109,-25.879,-53.711
1683642572.494,-12.207,-29.297,-20.996,-8.789
1683642572.498,0.000,-26.855,-27.344,15.137
1683642572.502,-16.113,-38.574,-46.875,-16.113
1683642572.506,-38.086,-44.434,-42.969,-56.152
1683642572.510,-39.062,-36.133,-21.973,-52.734
1683642572.511,-20.996,-29.297,-15.137,-13.672
1683642572.515,-8.301,-25.391,-22.949,13.184
1683642572.519,-19.531,-24.902,-39.062,-13.184
1683642572.523,-41.992,-32.227,-46.875,-59.570
1683642572.527,-53.223,-36.133,-36.621,-68.848
1683642572.531,-36.621,-30.762,-18.555,-30.762
1683642572.535,-15.625,-17.578,-14.160,7.324
1683642572.538,-28.320,-28.320,-35.645,-17.578
1683642572.542,-60.059,-59.570,-52.246,-74.707
1683642572.546,-66.406,-58.594,-35.156,-81.543
1683642572.550,-47.363,-35.645,-14.160,-37.598
1683642572.554,-30.762,-25.391,-17.578,-4.395
1683642572.556,-34.668,-25.879,-35.645,-19.043
1683642572.560,-56.641,-37.598,-44.922,-62.500
1683642572.564,-65.918,-38.086,-28.320,-78.613
1683642572.568,-50.293,-26.367,-13.184,-44.922
1683642572.572,-24.414,-18.066,-18.555,3.906
1683642572.576,-22.949,-20.020,-35.156,0.000
1683642572.580,-46.875,-28.320,-42.480,-49.805
1683642572.583,-62.988,-41.504,-36.621,-76.660
1683642572.587,-53.711,-34.668,-19.531,-44.434
1683642572.591,-25.879,-19.531,-10.254,7.812
1683642572.595,-19.531,-17.090,-20.020,15.137
1683642572.599,-38.574,-28.320,-31.738,-33.203
1683642572.602,-55.664,-40.527,-32.715,-75.684
1683642572.606,-39.551,-27.344,-17.578,-54.199
1683642572.610,-10.742,-10.254,-13.184,-6.348
1683642572.614,-11.230,-13.184,-31.250,-2.930
1683642572.618,-29.785,-28.320,-50.781,-51.270
1683642572.622,-42.969,-29.297,-42.969,-84.961
1683642572.626,-33.691,-13.672,-27.832,-62.500
1683642572.629,-3.906,-7.812,-27.832,-15.137
1683642572.633,8.301,-15.625,-37.598,-2.441
1683642572.637,-12.207,-25.879,-53.223,-45.410
1683642572.641,-35.156,-28.809,-48.340,-83.496
1683642572.645,-32.715,-23.926,-29.297,-66.895
1683642572.647,-12.695,-14.160,-19.531,-18.555
1683642572.651,-9.277,-15.625,-28.320,1.465
1683642572.655,-25.391,-21.973,-46.875,-31.250
1683642572.659,-43.945,-29.785,-48.340,-72.266
1683642572.663,-49.805,-33.203,-30.273,-70.801
1683642572.667,-32.715,-20.020,-17.090,-31.738
1683642572.671,-23.438,-12.695,-30.273,-5.859
1683642572.674,-45.898,-36.621,-52.246,-33.691
1683642572.678,-69.336,-52.734,-50.781,-82.031
1683642572.682,-71.289,-45.898,-33.203,-80.566
1683642572.686,-50.293,-23.438,-15.625,-29.785
1683642572.690,-31.738,-9.766,-17.578,6.348
1683642572.692,-38.574,-22.949,-39.551,-19.043
1683642572.696,-63.477,-35.645,-44.922,-69.336
1683642572.700,-74.219,-35.156,-30.273,-79.102
1683642572.704,-54.199,-25.391,-16.602,-34.668
1683642572.708,-24.414,-16.113,-19.043,9.766
1683642572.712,-22.949,-17.090,-35.645,-2.441
1683642572.716,-50.293,-21.973,-44.922,-60.059
1683642572.719,-54.688,-22.949,-41.992,-81.055
1683642572.723,-30.273,-22.949,-30.273,-36.133
1683642572.727,-5.371,-17.578,-26.855,3.418
1683642572.731,-9.277,-14.648,-41.992,-10.742
1683642572.735,-34.180,-24.902,-54.199,-57.129
1683642572.751,-45.898,-34.180,-45.898,-83.984
1683642572.755,-26.367,-25.391,-22.461,-47.852
1683642572.759,-5.859,-12.695,-15.137,-3.418
1683642572.763,-11.719,-16.113,-34.668,-15.625
1683642572.767,-31.250,-29.297,-48.828,-62.012
1683642572.771,-53.711,-39.551,-38.574,-89.355
1683642572.775,-47.852,-30.762,-20.020,-67.383
1683642572.778,-27.344,-22.949,-19.043,-23.438
1683642572.782,-24.414,-27.344,-33.203,-11.230
1683642572.786,-46.875,-37.598,-43.457,-51.270
1683642572.790,-69.336,-41.504,-39.062,-90.332
1683642572.794,-58.105,-33.691,-17.578,-70.801
1683642572.796,-33.203,-20.996,-4.883,-17.090
1683642572.800,-23.926,-15.625,-17.578,-1.953
1683642572.804,-45.898,-31.738,-36.133,-41.992
1683642572.808,-67.871,-39.551,-36.621,-84.961
1683642572.812,-64.453,-35.156,-23.438,-75.684
1683642572.816,-44.922,-22.461,-15.137,-25.391
1683642572.820,-29.785,-17.090,-22.461,1.953
1683642572.823,-41.992,-36.133,-41.016,-29.785
1683642572.827,-58.105,-51.758,-49.805,-72.266
1683642572.831,-48.340,-45.898,-30.762,-61.035
1683642572.835,-24.414,-24.414,-12.695,-12.207
1683642572.839,-13.184,-23.438,-21.973,10.254
1683642572.841,-30.762,-41.992,-47.363,-25.391
1683642572.845,-49.316,-49.805,-52.246,-74.219
1683642572.849,-53.223,-42.969,-32.227,-81.055
1683642572.853,-36.621,-27.344,-22.949,-41.992
1683642572.857,-20.020,-23.926,-31.738,-9.277
1683642572.861,-33.691,-29.297,-40.527,-30.273
1683642572.865,-55.664,-32.715,-50.781,-77.637
1683642572.868,-60.059,-39.062,-43.457,-90.332
1683642572.872,-38.574,-32.227,-23.438,-49.316
1683642572.876,-20.996,-23.926,-29.297,-14.648
1683642572.880,-27.344,-22.949,-48.340,-29.297
1683642572.884,-56.641,-36.133,-57.129,-77.148
1683642572.886,-72.754,-43.457,-50.293,-98.633
1683642572.890,-49.805,-28.320,-25.391,-57.129
1683642572.894,-29.297,-17.578,-25.879,-10.742
1683642572.898,-27.344,-25.391,-44.922,-20.020
1683642572.902,-47.852,-43.945,-54.199,-66.406
1683642572.906,-66.406,-49.316,-48.828,-87.402
1683642572.910,-49.805,-26.855,-25.879,-51.758
1683642572.913,-22.461,-17.578,-20.508,-0.488
1683642572.917,-23.926,-35.156,-41.504,-9.277
1683642572.921,-52.246,-46.875,-53.711,-61.523
1683642572.925,-73.242,-43.457,-43.945,-94.238
1683642572.929,-62.988,-32.715,-27.832,-69.336
1683642572.931,-36.621,-21.484,-17.090,-17.578
1683642572.935,-31.250,-23.926,-29.785,-13.672
1683642572.939,-50.293,-41.504,-50.781,-58.594
1683642572.943,-67.383,-46.387,-43.457,-95.703
1683642572.947,-57.617,-36.621,-23.926,-73.730
1683642572.951,-37.598,-22.461,-14.648,-24.902
1683642572.955,-26.855,-13.184,-21.973,-9.277
1683642572.958,-41.504,-30.273,-46.387,-53.223
1683642572.962,-65.918,-46.875,-50.293,-95.703
1683642572.966,-58.105,-38.574,-28.320,-73.730
1683642572.970,-32.227,-18.066,-17.090,-23.438
1683642572.974,-20.508,-11.719,-22.949,-5.859
1683642572.976,-31.738,-25.391,-41.016,-42.480
1683642572.980,-55.664,-41.992,-48.340,-87.402
1683642572.984,-57.617,-34.668,-27.344,-82.520
1683642572.988,-29.785,-14.160,-14.648,-38.086
1683642572.992,-15.137,-15.625,-29.785,-11.719
1683642572.996,-26.855,-23.438,-47.363,-35.645
1683642573.000,-49.805,-23.926,-50.781,-77.637
1683642573.003,-53.711,-31.738,-40.527,-82.031
1683642573.007,-32.227,-24.902,-23.438,-37.598
1683642573.011,-19.043,-19.531,-23.438,-0.488
1683642573.015,-30.762,-30.762,-43.457,-22.949
1683642573.019,-53.223,-43.457,-50.781,-68.848
1683642573.021,-56.152,-39.551,-37.109,-75.684
1683642573.025,-39.062,-24.902,-25.391,-35.645
1683642573.029,-24.902,-17.578,-24.414,-1.465
1683642573.033,-32.715,-24.902,-44.922,-19.043
1683642573.037,-52.246,-37.109,-59.570,-62.012
1683642573.041,-56.152,-33.691,-44.434,-75.684
1683642573.045,-36.621,-15.625,-19.531,-32.715
1683642573.048,-20.996,-14.160,-22.949,7.324
1683642573.052,-22.461,-28.320,-43.457,-0.488
1683642573.056,-43.457,-37.598,-51.270,-49.316
1683642573.060,-63.965,-42.969,-42.480,-80.566
1683642573.064,-41.992,-28.320,-21.484,-40.527
1683642573.066,-13.672,-10.254,-14.648,9.766
1683642573.070,-15.625,-14.648,-30.273,1.953
1683642573.074,-37.598,-28.320,-45.410,-46.387
1683642573.078,-57.617,-39.551,-43.945,-76.172
1683642573.082,-40.527,-34.668,-23.926,-44.434
1683642573.086,-8.301,-16.113,-10.254,6.836
1683642573.090,-10.742,-18.555,-23.438,6.348
1683642573.093,-37.598,-35.156,-40.527,-42.480
1683642573.097,-61.523,-50.293,-39.551,-77.148
1683642573.101,-52.734,-43.457,-20.996,-48.828
1683642573.105,-29.785,-23.926,-9.766,-4.395
1683642573.109,-28.320,-26.855,-24.902,-1.953
1683642573.066,-13.672,-10.254,-14.648,9.766
1683642573.070,-15.625,-14.648,-30.273,1.953
1683642573.074,-37.598,-28.320,-45.410,-46.387
1683642573.078,-57.617,-39.551,-43.945,-76.172
1683642573.082,-40.527,-34.668,-23.926,-44.434
1683642573.086,-8.301,-16.113,-10.254,6.836
1683642573.090,-10.742,-18.555,-23.438,6.348
1683642573.093,-37.598,-35.156,-40.527,-42.480
1683642573.097,-61.523,-50.293,-39.551,-77.148
1683642573.101,-52.734,-43.457,-20.996,-48.828
1683642573.105,-29.785,-23.926,-9.766,-4.395
1683642573.109,-28.320,-26.855,-24.902,-1.953
1683642573.126,-41.016,-41.504,-43.945,-43.457
1683642573.130,-49.805,-46.387,-41.992,-78.125
1683642573.134,-41.016,-32.715,-22.461,-58.594
1683642573.138,-23.926,-22.461,-10.742,-11.230
1683642573.142,-13.672,-23.438,-20.996,5.859
1683642573.146,-27.344,-34.668,-39.062,-25.879
1683642573.150,-54.688,-40.527,-39.551,-66.895
1683642573.153,-62.012,-40.039,-20.020,-60.547
1683642573.157,-44.922,-43.457,-12.695,-15.625
1683642573.161,-31.738,-39.551,-20.508,9.277
1683642573.165,-45.410,-29.297,-30.762,-18.066
1683642573.169,-63.965,-39.062,-36.621,-54.199
1683642573.171,-63.965,-48.340,-26.367,-53.223
1683642573.175,-42.480,-33.691,-8.789,-8.301
1683642573.179,-24.902,-20.020,-8.789,26.367
1683642573.183,-28.809,-26.367,-29.785,1.953
1683642573.187,-46.387,-41.016,-41.504,-48.340
1683642573.191,-54.199,-43.457,-29.297,-62.988
1683642573.195,-34.668,-25.879,-10.254,-21.484
1683642573.198,-10.254,-17.090,-8.789,20.996
1683642573.202,-17.090,-34.180,-33.691,0.977
1683642573.206,-42.969,-48.828,-47.363,-51.758
1683642573.210,-50.781,-42.480,-36.133,-64.453
1683642573.214,-35.156,-35.645,-16.602,-25.879
1683642573.216,-12.207,-22.949,-10.254,18.066
1683642573.220,-17.578,-20.996,-28.320,6.836
1683642573.224,-44.922,-41.992,-41.504,-49.805
1683642573.228,-58.594,-50.781,-34.180,-76.660
1683642573.232,-44.434,-43.457,-20.020,-45.898
1683642573.236,-20.508,-26.855,-13.672,-1.465
1683642573.240,-24.414,-20.996,-28.320,-6.836
1683642573.243,-53.711,-43.945,-45.410,-55.176
1683642573.247,-70.312,-58.105,-44.434,-82.520
1683642573.251,-57.617,-40.527,-24.414,-52.734
1683642573.255,-38.086,-20.508,-11.719,-5.859
1683642573.259,-35.156,-28.320,-29.297,0.000
1683642573.261,-56.152,-42.480,-46.387,-41.992
1683642573.265,-76.172,-51.270,-41.016,-77.637
1683642573.269,-65.918,-41.504,-19.043,-55.176
1683642573.273,-42.969,-22.949,-9.766,-8.789
1683642573.277,-31.738,-26.855,-25.879,-2.441
1683642573.281,-50.781,-38.086,-45.410,-43.945
1683642573.285,-70.801,-39.551,-47.363,-77.637
1683642573.288,-53.223,-32.227,-26.855,-60.547
1683642573.292,-26.855,-27.344,-16.602,-14.648
1683642573.296,-16.113,-24.902,-26.367,3.906
1683642573.300,-25.391,-33.203,-45.410,-31.738
1683642573.304,-41.016,-41.504,-48.340,-70.801
1683642573.306,-39.062,-37.598,-31.250,-62.012
1683642573.310,-18.555,-27.344,-14.648,-18.066
1683642573.314,-2.930,-12.207,-16.113,6.348
1683642573.318,-16.113,-19.531,-39.062,-25.391
1683642573.322,-41.504,-36.133,-53.711,-70.801
1683642573.326,-40.039,-33.203,-39.551,-67.383
1683642573.330,-12.695,-13.184,-18.066,-22.461
1683642573.333,0.000,-10.254,-25.391,6.836
1683642573.337,-13.184,-28.809,-42.480,-15.625
1683642573.341,-39.062,-44.434,-43.945,-63.477
1683642573.345,-47.852,-45.410,-33.203,-72.266
1683642573.349,-28.809,-30.273,-15.625,-28.320
1683642573.351,-16.602,-22.949,-16.602,3.906
1683642573.355,-32.715,-32.715,-31.738,-16.602
1683642573.359,-62.012,-42.969,-39.062,-62.500
1683642573.363,-74.707,-50.781,-26.855,-76.660
1683642573.367,-54.688,-41.016,-9.766,-37.598
1683642573.371,-30.273,-25.879,-5.859,4.395
1683642573.375,-34.668,-26.367,-27.344,-8.301
1683642573.378,-58.105,-45.410,-45.410,-57.617
1683642573.382,-70.312,-55.176,-29.785,-79.102
1683642573.386,-51.270,-43.945,-15.137,-42.969
1683642573.390,-20.020,-26.855,-7.812,6.348
1683642573.394,-20.508,-30.273,-21.484,-6.348
1683642573.396,-46.387,-46.387,-41.992,-57.129
1683642573.400,-61.523,-51.758,-39.551,-76.660
1683642573.404,-46.875,-39.551,-20.020,-48.340
1683642573.408,-17.090,-21.484,-10.254,-1.465
1683642573.412,-12.695,-27.832,-24.902,6.348
1683642573.416,-31.250,-37.598,-40.527,-34.180
1683642573.420,-49.316,-43.945,-45.898,-69.824
1683642573.423,-46.387,-46.387,-32.715,-51.758
1683642573.427,-23.438,-32.715,-14.648,-4.883
1683642573.431,-18.555,-29.297,-25.391,2.930
1683642573.435,-40.039,-33.203,-40.039,-41.504
1683642573.439,-63.965,-40.527,-41.016,-83.984
1683642573.442,-66.406,-43.457,-29.297,-73.730
1683642573.446,-41.016,-28.809,-16.113,-24.414
1683642573.450,-32.715,-27.344,-20.996,-4.883
1683642573.454,-50.293,-39.062,-35.156,-42.969
1683642573.458,-68.359,-48.340,-35.645,-85.938
1683642573.462,-68.848,-43.457,-24.414,-78.125
1683642573.466,-43.457,-26.855,-18.066,-32.715
1683642573.469,-20.996,-23.438,-26.367,-7.812
1683642573.473,-32.227,-41.504,-49.805,-39.062
1683642573.477,-50.781,-45.898,-51.270,-81.543
1683642573.481,-48.340,-34.668,-29.297,-71.777
1683642573.485,-29.297,-30.762,-17.578,-22.461
1683642573.501,-14.160,-24.902,-23.926,5.371
1683642573.505,-19.531,-25.391,-38.574,-15.137
1683642573.509,-40.527,-40.527,-44.434,-56.152
1683642573.513,-47.363,-41.992,-26.855,-60.547
1683642573.517,-27.832,-27.344,-10.254,-15.625
1683642573.521,-4.883,-16.602,-16.602,20.996
1683642573.525,-7.324,-17.090,-34.180,5.859
1683642573.528,-33.203,-34.668,-41.016,-39.551
1683642573.532,-48.340,-44.922,-31.738,-58.105
1683642573.536,-33.203,-37.598,-19.531,-25.879
1683642573.540,-14.160,-28.320,-15.137,13.672
1683642573.544,-24.414,-31.250,-28.320,-1.465
1683642573.546,-55.664,-49.805,-41.016,-58.105
1683642573.550,-70.801,-54.199,-31.250,-81.055
1683642573.554,-52.246,-37.598,-14.160,-41.992
1683642573.558,-30.762,-26.855,-11.719,-0.488
1683642573.562,-31.250,-31.250,-27.344,-7.812
1683642573.566,-49.316,-40.039,-36.133,-49.316
1683642573.570,-63.965,-40.039,-30.762,-74.707
1683642573.573,-48.340,-32.715,-14.648,-46.387
1683642573.577,-22.461,-28.320,-8.789,2.930
1683642573.581,-24.902,-36.133,-23.926,8.301
1683642573.585,-52.734,-47.363,-37.109,-38.574
1683642573.589,-72.754,-49.316,-30.273,-70.801
1683642573.592,-61.523,-41.504,-16.602,-52.246
1683642573.596,-36.133,-28.320,-7.324,-5.859
1683642573.600,-26.367,-22.461,-13.672,5.859
1683642573.604,-38.574,-36.133,-33.691,-37.598
1683642573.608,-56.152,-47.852,-38.574,-77.637
1683642573.612,-40.039,-33.203,-17.578,-55.664
1683642573.616,-5.859,-9.766,-3.906,-3.906
1683642573.619,0.000,-20.020,-24.902,8.301
1683642573.623,-20.508,-42.969,-51.758,-28.320
1683642573.627,-40.527,-43.945,-49.805,-68.359
1683642573.631,-39.062,-35.645,-27.344,-61.035
1683642573.635,-20.020,-23.438,-15.625,-13.184
1683642573.637,-10.742,-16.113,-25.391,6.348
1683642573.641,-29.297,-28.809,-49.805,-29.785
1683642573.645,-50.781,-39.062,-52.246,-75.195
1683642573.649,-46.387,-28.809,-31.738,-71.289
1683642573.653,-28.809,-23.926,-20.020,-28.320
1683642573.657,-23.926,-23.926,-20.508,-3.418
1683642573.661,-43.457,-25.879,-33.203,-27.832
1683642573.664,-71.289,-46.387,-44.434,-79.590
1683642573.668,-71.777,-48.828,-35.645,-86.914
1683642573.672,-41.992,-33.203,-15.625,-36.133
1683642573.676,-26.855,-29.785,-12.695,-3.418
1683642573.680,-40.527,-29.297,-33.203,-29.785
1683642573.681,-61.523,-37.598,-45.898,-78.125
1683642573.685,-71.777,-51.758,-32.227,-93.262
1683642573.689,-48.828,-43.457,-11.230,-51.270
1683642573.693,-20.508,-26.367,-6.348,-4.883
1683642573.697,-24.902,-33.691,-22.949,-15.625
1683642573.701,-46.387,-44.922,-35.156,-59.082
1683642573.705,-54.199,-41.016,-28.809,-74.219
1683642573.708,-36.133,-34.668,-10.742,-39.551
1683642573.712,-10.254,-25.879,-6.836,3.418
1683642573.716,-9.766,-28.320,-24.414,-0.488
1683642573.720,-26.855,-32.227,-36.133,-41.504
1683642573.724,-34.668,-31.250,-28.320,-63.965
1683642573.727,-26.367,-29.785,-8.301,-35.156
1683642573.731,-10.742,-19.531,-3.906,4.883
1683642573.735,-9.277,-14.160,-20.020,3.906
1683642573.739,-31.738,-33.203,-39.062,-38.574
1683642573.743,-54.199,-48.340,-39.062,-73.242
1683642573.747,-48.340,-38.086,-18.555,-53.711
1683642573.751,-23.438,-20.996,-10.742,-2.441
1683642573.754,-18.555,-31.738,-33.203,2.930
1683642573.758,-41.016,-53.711,-52.734,-45.898
1683642573.762,-56.641,-54.688,-44.434,-80.566
1683642573.766,-50.781,-37.598,-23.926,-63.477
1683642573.770,-26.855,-21.484,-17.090,-15.137
1683642573.771,-10.254,-21.973,-23.926,8.789
1683642573.775,-19.531,-28.320,-37.598,-22.949
1683642573.779,-40.039,-44.434,-41.504,-68.848
1683642573.783,-44.922,-50.781,-22.949,-64.941
1683642573.787,-25.391,-40.039,-9.766,-15.137
1683642573.791,-11.719,-27.344,-14.160,13.672
1683642573.795,-31.250,-31.250,-37.109,-24.414
1683642573.798,-58.105,-51.758,-49.316,-68.359
1683642573.802,-50.293,-49.805,-20.508,-58.594
1683642573.806,-21.973,-33.691,-1.465,-9.766
1683642573.810,-8.789,-30.762,-14.160,15.625
1683642573.814,-24.902,-38.086,-37.109,-11.719
1683642573.816,-44.922,-45.410,-41.504,-53.223
1683642573.820,-43.945,-45.410,-24.414,-56.641
1683642573.824,-20.508,-33.203,-8.301,-9.277
1683642573.828,-5.859,-21.973,-14.160,25.391
1683642573.832,-20.020,-35.156,-37.598,-4.395
1683642573.836,-41.016,-46.875,-45.410,-51.758
1683642573.840,-50.293,-41.992,-32.227,-55.664
1683642573.843,-37.109,-36.133,-16.113,-17.090
1683642573.847,-17.578,-33.691,-17.090,20.020
1683642573.851,-14.160,-37.598,-30.273,8.789
1683642573.855,-41.016,-41.016,-37.598,-38.574
1683642573.859,-62.012,-47.852,-29.297,-59.570
1683642573.876,-45.410,-43.945,-20.020,-33.691
1683642573.880,-25.391,-26.855,-20.020,6.836
1683642573.884,-27.832,-27.344,-33.691,4.883
1683642573.888,-48.828,-35.645,-44.434,-42.480
1683642573.892,-60.547,-36.621,-32.227,-68.848
1683642573.896,-49.316,-30.762,-16.602,-44.922
1683642573.900,-29.297,-20.508,-16.113,-6.348
1683642573.903,-20.508,-20.996,-29.785,-1.953
1683642573.907,-38.574,-35.645,-45.410,-43.945
1683642573.911,-53.223,-43.457,-44.434,-80.566
1683642573.915,-36.621,-33.203,-22.461,-50.781
1683642573.919,-4.883,-13.672,-8.301,7.812
1683642573.922,2.441,-8.789,-21.973,18.066
1683642573.926,-21.484,-30.762,-36.621,-28.320
1683642573.930,-41.504,-39.551,-33.203,-67.871
1683642573.934,-35.645,-30.762,-22.461,-54.688
1683642573.938,-12.207,-24.902,-12.695,-4.395
1683642573.942,0.977,-17.090,-20.508,22.461
1683642573.946,-13.672,-20.996,-32.227,-10.742
1683642573.949,-41.992,-40.039,-33.203,-56.641
1683642573.953,-45.410,-48.340,-26.855,-47.363
1683642573.957,-26.855,-41.992,-17.090,2.441
1683642573.961,-21.484,-33.203,-18.555,23.926
1683642573.965,-45.410,-39.062,-34.180,-12.695
1683642573.966,-78.125,-56.641,-42.480,-63.965
1683642573.970,-83.008,-59.570,-30.762,-67.383
1683642573.974,-67.383,-37.598,-17.090,-26.367
1683642573.978,-53.223,-26.367,-20.020,0.977
1683642573.982,-60.547,-35.645,-30.762,-20.996
1683642573.986,-85.938,-39.062,-30.762,-65.430
1683642573.990,-93.750,-39.062,-20.020,-70.312
1683642573.993,-71.289,-35.156,-12.695,-28.320
1683642573.997,-48.828,-37.598,-23.438,1.465
1683642574.001,-60.059,-47.852,-35.645,-22.949
1683642574.005,-85.449,-49.316,-41.992,-72.754
1683642574.009,-84.961,-48.828,-36.621,-82.520
1683642574.011,-62.988,-37.598,-18.555,-42.969
1683642574.015,-43.945,-28.809,-18.555,-8.301
1683642574.019,-41.992,-33.691,-35.645,-22.949
1683642574.023,-57.129,-45.898,-43.457,-71.777
1683642574.027,-62.500,-49.316,-38.574,-94.238
1683642574.031,-33.203,-30.273,-21.484,-50.781
1683642574.035,-8.301,-7.324,-13.672,-0.488
1683642574.038,-12.695,-19.043,-32.227,-5.371
1683642574.042,-31.738,-48.828,-50.293,-53.711
1683642574.046,-41.016,-46.875,-40.527,-78.613
1683642574.050,-21.973,-29.785,-14.160,-41.016
1683642574.054,-1.953,-22.461,-6.348,10.254
1683642574.057,-6.348,-19.043,-20.996,17.578
1683642574.061,-28.809,-32.715,-35.156,-23.438
1683642574.065,-45.898,-45.898,-32.715,-59.570
1683642574.069,-40.527,-35.156,-13.672,-38.086
1683642574.073,-25.879,-25.879,-6.348,8.789
1683642574.077,-23.438,-26.855,-20.508,12.695
1683642574.081,-40.039,-27.832,-33.203,-27.832
1683642574.084,-58.594,-39.551,-35.645,-63.477
1683642574.088,-60.059,-45.898,-25.879,-55.664
1683642574.092,-45.898,-35.156,-14.160,-17.090
1683642574.096,-39.551,-30.273,-22.949,-8.301
1683642574.100,-52.734,-39.062,-41.992,-50.293
1683642574.102,-69.336,-49.316,-45.410,-89.844
1683642574.106,-69.336,-50.293,-31.250,-80.078
1683642574.110,-45.410,-28.809,-14.160,-29.297
1683642574.114,-25.879,-14.160,-19.043,-2.930
1683642574.118,-47.852,-41.504,-43.457,-39.551
1683642574.122,-76.172,-56.152,-44.434,-81.055
1683642574.126,-70.312,-36.621,-25.879,-69.824
1683642574.129,-36.133,-20.020,-13.184,-19.043
1683642574.133,-13.184,-17.578,-12.207,15.137
1683642574.137,-28.809,-31.250,-27.344,-11.230
1683642574.141,-50.781,-39.551,-39.551,-59.082
1683642574.145,-49.316,-38.086,-30.273,-60.059
1683642574.146,-25.391,-31.738,-13.672,-12.695
1683642574.150,-4.883,-24.902,-10.742,23.926
1683642574.154,-18.555,-28.809,-28.809,5.371
1683642574.158,-40.527,-40.527,-39.551,-37.109
1683642574.162,-41.992,-43.945,-23.438,-42.480
1683642574.166,-19.531,-26.855,0.000,0.977
1683642574.170,2.441,-7.812,-0.977,41.992
1683642574.173,-3.418,-19.531,-22.949,28.809
1683642574.177,-31.738,-45.410,-31.738,-20.996
1683642574.181,-47.852,-52.246,-30.273,-49.316
1683642574.185,-35.156,-41.016,-13.672,-24.902
1683642574.189,-15.625,-22.949,-6.348,17.578
1683642574.192,-15.137,-21.484,-27.832,15.137
1683642574.196,-39.062,-41.016,-44.434,-41.504
1683642574.200,-61.523,-45.898,-34.668,-73.242
1683642574.204,-53.223,-33.691,-15.625,-47.363
1683642574.208,-32.715,-26.367,-12.695,-8.789
1683642574.212,-39.551,-28.320,-28.809,-13.184
1683642574.216,-62.988,-36.133,-45.410,-62.500
1683642574.219,-74.219,-45.410,-39.062,-98.145
1683642574.223,-61.035,-40.527,-17.578,-75.684
1683642574.227,-36.133,-32.227,-12.695,-26.855
1683642574.231,-26.367,-29.785,-24.414,-18.066
1683642574.235,-39.551,-37.598,-36.621,-55.176
1683642574.251,-52.246,-47.363,-37.109,-83.496
1683642574.255,-44.434,-41.504,-21.973,-62.012
1683642574.259,-13.672,-18.555,-6.836,-3.418
1683642574.263,5.859,-15.625,-14.160,16.602
1683642574.267,-16.602,-33.203,-31.250,-23.926
1683642574.271,-38.086,-37.598,-27.832,-58.105
1683642574.275,-25.391,-24.414,-9.766,-37.109
1683642574.278,6.836,-14.160,1.953,12.695
1683642574.282,17.578,-17.090,-6.836,31.250
1683642574.286,-4.395,-31.738,-29.297,-5.371
1683642574.290,-25.391,-33.691,-30.762,-45.898
1683642574.294,-22.461,-26.367,-12.695,-37.109
1683642574.297,-3.418,-25.391,-1.465,4.883
1683642574.301,9.766,-20.020,-9.277,29.297
1683642574.305,-3.418,-24.902,-28.809,3.418
1683642574.309,-37.109,-47.363,-32.715,-49.316
1683642574.313,-46.387,-46.875,-16.113,-58.105
1683642574.317,-26.367,-27.832,0.000,-14.160
1683642574.321,-17.578,-17.090,-2.441,14.648
1683642574.324,-34.668,-28.320,-25.879,-16.602
1683642574.328,-64.453,-51.758,-43.457,-72.266
1683642574.332,-67.871,-46.875,-26.855,-77.637
1683642574.336,-35.156,-21.973,-4.395,-31.250
1683642574.340,-12.695,-12.207,-5.371,4.395
1683642574.341,-21.973,-16.113,-25.879,-15.625
1683642574.345,-40.039,-27.344,-38.086,-60.059
1683642574.349,-50.293,-35.645,-27.344,-72.266
1683642574.353,-42.480,-30.762,-13.672,-39.551
1683642574.357,-23.926,-28.809,-14.160,4.883
1683642574.361,-19.043,-29.785,-25.879,4.395
1683642574.365,-36.621,-35.645,-39.062,-41.992
1683642574.368,-52.246,-47.852,-37.598,-67.383
1683642574.372,-36.621,-41.992,-19.531,-35.645
1683642574.376,-13.672,-26.367,-10.254,11.719
1683642574.380,-12.207,-14.160,-17.090,12.695
1683642574.384,-36.621,-21.484,-30.273,-33.203
1683642574.386,-53.223,-36.621,-27.832,-61.523
1683642574.390,-41.504,-30.762,-4.395,-33.203
1683642574.394,-21.973,-18.066,5.371,14.160
1683642574.398,-22.949,-20.020,-8.789,17.090
1683642574.402,-49.805,-37.598,-30.273,-32.227
1683642574.406,-74.219,-49.805,-31.250,-77.148
1683642574.410,-65.918,-34.180,-14.648,-64.941
1683642574.413,-31.250,-20.020,-13.672,-12.695
1683642574.417,-11.230,-24.902,-30.273,1.465
1683642574.421,-22.949,-34.668,-41.504,-39.551
1683642574.425,-39.551,-41.016,-40.039,-75.195
1683642574.429,-35.156,-35.645,-19.043,-58.594
1683642574.431,-14.160,-26.367,-8.789,-10.254
1683642574.435,0.488,-23.926,-20.020,13.672
1683642574.439,-12.695,-30.762,-32.715,-14.648
1683642574.443,-34.668,-41.016,-36.621,-53.711
1683642574.447,-37.109,-42.480,-24.414,-49.316
1683642574.451,-13.672,-27.344,-6.348,-1.465
1683642574.455,-0.977,-10.742,-4.395,27.344
1683642574.458,-15.137,-23.926,-31.738,0.977
1683642574.462,-41.504,-45.898,-42.480,-44.922
1683642574.466,-55.176,-40.039,-18.555,-56.641
1683642574.470,-34.668,-18.066,-1.465,-15.137
1683642574.474,-13.672,-11.230,-8.789,20.996
1683642574.477,-24.902,-26.367,-26.367,-2.441
1683642574.481,-61.523,-44.922,-36.621,-56.152
1683642574.485,-71.289,-46.875,-25.391,-66.406
1683642574.489,-50.293,-30.762,-8.301,-24.902
1683642574.493,-26.855,-21.973,-8.301,13.184
1683642574.497,-31.250,-33.203,-21.973,-6.348
1683642574.501,-61.035,-42.480,-32.715,-59.570
1683642574.504,-71.289,-45.410,-30.273,-75.684
1683642574.508,-47.852,-36.621,-11.719,-39.062
1683642574.512,-28.809,-32.715,-9.766,-1.953
1683642574.516,-31.250,-41.992,-31.250,-11.230
1683642574.520,-46.875,-44.434,-40.039,-57.129
1683642574.521,-64.453,-42.480,-28.320,-83.008
1683642574.525,-55.176,-34.180,-12.695,-54.199
1683642574.529,-30.762,-22.461,-7.812,-7.324
1683642574.533,-28.809,-22.461,-24.414,-5.859
1683642574.537,-47.363,-32.227,-39.551,-46.875
1683642574.541,-59.570,-38.086,-31.738,-73.242
1683642574.545,-47.363,-34.180,-20.508,-44.434
1683642574.548,-26.367,-33.691,-20.996,2.930
1683642574.552,-20.020,-30.762,-27.832,12.695
1683642574.556,-37.109,-37.109,-39.062,-29.785
1683642574.560,-51.758,-39.551,-36.133,-72.754
1683642574.564,-40.527,-28.320,-18.066,-50.781
1683642574.567,-21.973,-22.949,-9.277,-4.395
1683642574.571,-14.648,-20.996,-18.555,0.488
1683642574.575,-29.297,-25.391,-34.668,-36.621
1683642574.579,-51.270,-41.504,-38.574,-72.754
1683642574.583,-48.828,-41.016,-22.949,-61.035
1683642574.587,-27.832,-19.531,-9.766,-18.066
1683642574.591,-21.484,-12.695,-22.949,-1.465
1683642574.594,-40.527,-36.133,-45.410,-35.645
1683642574.598,-61.523,-54.199,-47.363,-76.172
1683642574.602,-61.523,-46.387,-28.809,-68.359
1683642574.606,-38.086,-28.320,-9.766,-23.926
1683642574.610,-18.066,-21.973,-11.719,6.348
1683642574.626,-23.926,-30.762,-29.297,-12.207
1683642574.630,-45.410,-42.480,-36.133,-54.199
1683642574.634,-52.734,-39.062,-22.461,-59.570
1683642574.638,-35.645,-31.738,-8.789,-18.066
1683642574.642,-12.695,-21.484,-8.789,16.602
1683642574.646,-16.602,-24.902,-21.973,-6.348
1683642574.650,-40.527,-40.039,-31.250,-59.570
1683642574.653,-48.340,-45.410,-25.391,-72.754
1683642574.657,-23.926,-33.691,-9.277,-25.391
1683642574.661,-1.465,-23.926,-9.766,9.766
1683642574.665,-8.301,-20.508,-28.320,-7.812
1683642574.669,-31.738,-32.227,-38.086,-56.641
1683642574.672,-44.434,-41.504,-23.926,-76.660
1683642574.676,-29.785,-29.297,-10.742,-42.969
1683642574.680,-11.719,-21.973,-15.625,-5.859
1683642574.684,-18.555,-23.438,-24.902,-14.160
1683642574.688,-43.945,-38.574,-37.598,-58.594
1683642574.692,-59.082,-46.875,-30.762,-78.125
1683642574.696,-44.434,-31.738,-15.625,-43.945
1683642574.699,-18.555,-21.973,-15.137,3.906
1683642574.703,-17.090,-29.297,-34.180,1.953
1683642574.707,-42.480,-42.480,-47.852,-44.922
1683642574.711,-53.223,-41.016,-33.691,-66.406
1683642574.715,-41.016,-32.227,-17.578,-42.480
1683642574.716,-28.320,-22.949,-14.648,-0.488
1683642574.720,-25.391,-22.949,-21.484,7.812
1683642574.724,-45.410,-32.227,-34.180,-36.133
1683642574.728,-68.359,-40.039,-31.738,-71.777
1683642574.732,-59.570,-34.180,-14.648,-50.781
1683642574.736,-29.297,-23.438,-9.277,-2.930
1683642574.740,-23.438,-20.996,-20.996,6.836
1683642574.743,-39.551,-28.809,-39.062,-35.156
1683642574.747,-57.129,-50.781,-43.457,-76.660
1683642574.751,-53.711,-49.316,-24.414,-66.895
1683642574.755,-23.438,-24.902,-5.859,-17.578
1683642574.759,-9.766,-18.555,-16.113,0.977
1683642574.761,-26.367,-34.180,-38.086,-35.156
1683642574.765,-46.387,-47.852,-40.039,-76.660
1683642574.769,-51.758,-41.504,-23.438,-69.336
1683642574.773,-29.785,-25.391,-14.648,-24.414
1683642574.777,-6.348,-19.043,-20.996,7.324
1683642574.781,-19.531,-25.879,-30.273,-12.207
1683642574.785,-48.828,-36.621,-37.109,-60.059
1683642574.788,-45.410,-32.227,-25.391,-65.918
1683642574.792,-23.438,-21.973,-12.207,-20.996
1683642574.796,-21.973,-29.297,-19.531,6.348
1683642574.800,-31.250,-35.645,-37.109,-16.602
1683642574.804,-49.805,-43.945,-44.922,-62.500
1683642574.806,-58.105,-46.387,-32.227,-73.730
1683642574.810,-42.969,-33.691,-17.578,-36.133
1683642574.814,-26.855,-22.461,-18.066,-4.883
1683642574.818,-30.762,-29.785,-36.133,-16.602
1683642574.822,-52.246,-42.480,-41.992,-55.176
1683642574.826,-65.918,-46.387,-31.738,-74.707
1683642574.830,-49.316,-24.414,-11.719,-38.574
1683642574.833,-29.297,-18.066,-11.230,5.371
1683642574.837,-39.062,-36.621,-35.156,-6.836
1683642574.841,-61.523,-47.852,-41.504,-52.734
1683642574.845,-69.336,-41.992,-29.297,-71.777
1683642574.849,-52.246,-26.855,-16.602,-42.969
1683642574.852,-24.414,-18.555,-11.719,1.953
1683642574.856,-21.973,-20.508,-23.926,0.488
1683642574.860,-44.922,-32.227,-45.410,-47.852
1683642574.864,-53.711,-37.109,-43.457,-75.195
1683642574.868,-42.480,-26.855,-22.461,-44.434
1683642574.872,-18.555,-10.254,-12.207,4.883
1683642574.876,-8.789,-8.789,-26.367,12.695
1683642574.879,-27.832,-28.809,-46.387,-33.691
1683642574.883,-49.805,-49.805,-44.922,-78.125
1683642574.887,-42.969,-41.504,-20.020,-57.129
1683642574.891,-12.695,-17.090,-3.418,0.000
1683642574.895,-2.930,-15.137,-17.578,6.836
1683642574.896,-26.855,-26.855,-37.109,-39.062
1683642574.900,-47.363,-35.645,-37.598,-77.637
1683642574.904,-38.574,-27.832,-18.555,-61.523
1683642574.908,-16.113,-15.137,-11.719,-13.672
1683642574.912,-15.625,-12.695,-22.461,2.441
1683642574.916,-32.227,-20.508,-32.715,-31.738
1683642574.920,-50.293,-34.668,-41.016,-76.172
1683642574.923,-48.828,-39.551,-28.809,-69.336
1683642574.927,-23.926,-22.949,-10.254,-20.996
1683642574.931,-11.230,-16.602,-20.996,3.418
1683642574.935,-27.832,-24.902,-41.504,-23.438
1683642574.939,-48.340,-35.645,-45.898,-65.918
1683642574.942,-42.480,-33.203,-27.832,-62.500
1683642574.946,-15.625,-14.648,-9.766,-11.230
1683642574.950,-2.930,-8.301,-11.230,23.438
1683642574.954,-11.719,-15.137,-26.367,0.488
1683642574.958,-30.762,-28.320,-33.203,-44.434
1683642574.962,-40.039,-31.738,-18.066,-50.781
1683642574.966,-19.531,-14.160,-1.465,-6.836
1683642574.969,1.465,-8.789,-2.441,26.855
1683642574.973,-14.160,-24.414,-22.461,4.883
1683642574.977,-39.551,-41.992,-38.086,-42.480
1683642574.981,-46.387,-40.039,-22.461,-60.547
1683642574.985,-33.203,-25.391,-5.371,-29.297
1683642575.001,-13.184,-16.113,-9.277,8.301
1683642575.005,-14.160,-25.879,-26.367,-1.465
1683642575.009,-31.738,-31.738,-36.133,-46.387
1683642575.013,-38.086,-32.715,-28.320,-68.848
1683642575.017,-28.809,-28.320,-10.742,-42.480
1683642575.021,-12.695,-13.184,-6.836,-1.465
1683642575.025,-6.348,-11.719,-22.461,1.465
1683642575.028,-23.438,-24.414,-38.086,-45.898
1683642575.032,-49.316,-37.598,-35.156,-85.449
1683642575.036,-51.758,-32.715,-20.020,-65.918
1683642575.040,-28.320,-16.113,-13.184,-17.090
1683642575.044,-14.648,-11.719,-25.879,-10.254
1683642575.046,-27.832,-25.391,-40.039,-49.316
1683642575.050,-50.781,-34.668,-35.645,-80.566
1683642575.054,-41.016,-24.414,-18.066,-60.059
1683642575.058,-9.277,-8.301,-7.812,-7.812
1683642575.062,3.906,-6.348,-14.648,11.719
1683642575.066,-10.742,-17.578,-28.809,-23.926
1683642575.070,-27.832,-25.391,-34.668,-63.477
1683642575.073,-26.855,-24.414,-24.414,-51.758
1683642575.077,-9.766,-20.508,-20.020,-12.207
1683642575.081,0.000,-23.926,-33.691,0.000
1683642575.085,-16.113,-26.367,-41.992,-27.832
1683642575.089,-40.527,-37.109,-38.574,-67.871
1683642575.091,-40.527,-37.598,-25.391,-58.594
1683642575.095,-14.648,-17.090,-9.766,-5.371
1683642575.099,-3.418,-7.324,-13.184,16.113
1683642575.103,-28.320,-22.461,-33.203,-19.043
1683642575.107,-55.176,-40.039,-42.480,-64.941
1683642575.111,-59.570,-44.434,-27.832,-67.871
1683642575.115,-42.480,-26.855,-17.090,-28.809
1683642575.118,-27.344,-19.531,-23.926,1.465
1683642575.122,-45.410,-36.621,-44.922,-27.344
1683642575.126,-70.801,-49.316,-51.270,-78.613
1683642575.130,-68.359,-39.062,-24.414,-78.125
1683642575.134,-47.363,-22.461,-3.906,-34.180
1683642575.091,-40.527,-37.598,-25.391,-58.594
1683642575.095,-14.648,-17.090,-9.766,-5.371
1683642575.099,-3.418,-7.324,-13.184,16.113
1683642575.103,-28.320,-22.461,-33.203,-19.043
1683642575.107,-55.176,-40.039,-42.480,-64.941
1683642575.111,-59.570,-44.434,-27.832,-67.871
1683642575.115,-42.480,-26.855,-17.090,-28.809
1683642575.118,-27.344,-19.531,-23.926,1.465
1683642575.122,-45.410,-36.621,-44.922,-27.344
1683642575.126,-70.801,-49.316,-51.270,-78.613
1683642575.130,-68.359,-39.062,-24.414,-78.125
1683642575.134,-47.363,-22.461,-3.906,-34.180
1683642575.136,-24.414,-10.742,-5.859,5.859
1683642575.140,-22.949,-17.578,-23.438,-11.719
1683642575.144,-48.340,-33.691,-35.156,-66.895
1683642575.148,-60.059,-30.273,-25.391,-81.543
1683642575.152,-42.969,-20.996,-7.324,-40.527
1683642575.156,-21.484,-16.113,-5.371,-2.930
1683642575.160,-22.949,-4.883,-23.926,-16.113
1683642575.163,-46.875,-20.508,-44.434,-57.617
1683642575.167,-54.688,-38.574,-41.016,-76.172
1683642575.171,-39.551,-21.973,-18.555,-47.363
1683642575.175,-23.926,-6.348,-13.184,-3.906
1683642575.179,-27.344,-13.184,-32.715,-7.812
1683642575.181,-46.387,-31.250,-48.340,-50.781
1683642575.185,-49.805,-30.273,-34.180,-70.801
1683642575.189,-32.715,-11.230,-10.742,-41.992
1683642575.193,-15.137,-5.859,-9.766,0.000
1683642575.197,-9.277,-14.160,-25.391,0.488
1683642575.201,-21.973,-21.973,-38.086,-42.480
1683642575.205,-41.016,-28.809,-35.156,-77.637
1683642575.208,-37.109,-30.762,-24.902,-56.152
1683642575.212,-13.672,-18.066,-16.602,-6.836
1683642575.216,-9.277,-13.672,-22.949,-2.441
1683642575.220,-32.227,-24.902,-34.180,-45.410
1683642575.224,-59.082,-35.156,-34.180,-82.031
1683642575.226,-61.035,-34.668,-21.484,-66.895
1683642575.230,-36.133,-17.578,-5.859,-13.184
1683642575.234,-24.902,-7.812,-13.672,10.742
1683642575.238,-38.574,-13.672,-33.691,-25.391
1683642575.242,-63.965,-30.273,-41.016,-75.195
1683642575.246,-64.941,-27.832,-24.902,-72.266
1683642575.250,-34.180,-7.812,-7.324,-23.438
1683642575.253,-23.438,-11.719,-20.020,-1.953
1683642575.257,-42.480,-29.297,-44.922,-37.598
1683642575.261,-62.500,-35.156,-44.434,-80.078
1683642575.265,-56.152,-20.996,-24.414,-72.754
1683642575.269,-25.879,-3.418,-10.742,-26.367
1683642575.271,-5.371,2.441,-15.625,8.301
1683642575.275,-18.555,-14.160,-34.180,-14.160
1683642575.279,-45.898,-29.785,-42.480,-61.523
1683642575.283,-41.992,-27.832,-25.879,-62.012
1683642575.287,-14.160,-19.043,-9.766,-20.996
1683642575.291,0.488,-10.742,-12.207,11.719
1683642575.295,-11.230,-14.160,-28.320,-9.277
1683642575.298,-34.180,-30.273,-42.969,-60.547
1683642575.302,-41.016,-39.062,-36.133,-76.172
1683642575.306,-20.020,-26.855,-14.160,-36.133
1683642575.310,-1.953,-11.719,-8.301,8.301
1683642575.314,-12.695,-10.742,-27.832,-8.301
1683642575.317,-40.527,-20.996,-41.992,-53.711
1683642575.321,-51.758,-26.855,-31.250,-68.848
1683642575.325,-33.691,-20.996,-12.207,-39.551
1683642575.329,-10.742,-7.812,-8.301,4.395
1683642575.333,-17.090,-10.254,-25.391,-6.836
1683642575.337,-48.340,-23.438,-39.062,-60.547
1683642575.341,-61.035,-24.902,-32.227,-75.684
1683642575.344,-42.969,-20.020,-14.648,-36.133
1683642575.348,-21.973,-14.648,-10.254,5.859
1683642575.352,-21.973,-18.555,-26.367,0.488
1683642575.356,-43.457,-26.367,-40.039,-43.945
1683642575.360,-61.035,-29.785,-38.086,-76.172
1683642575.376,-50.293,-25.391,-22.461,-55.176
1683642575.380,-25.391,-14.648,-14.160,-10.742
1683642575.384,-17.090,-8.789,-25.391,-1.953
1683642575.388,-32.227,-18.066,-42.480,-41.504
1683642575.392,-45.898,-30.273,-41.992,-75.195
1683642575.396,-36.621,-20.020,-19.531,-57.617
1683642575.400,-11.230,0.000,-7.812,-8.789
1683642575.403,-2.930,-4.883,-28.809,6.836
1683642575.407,-17.090,-25.391,-42.969,-31.250
1683642575.411,-36.133,-35.156,-36.621,-75.195
1683642575.415,-40.527,-27.344,-24.414,-71.289
1683642575.419,-21.484,-14.648,-13.184,-23.926
1683642575.422,-11.230,-16.602,-19.531,0.977
1683642575.426,-25.391,-23.438,-34.180,-31.250
1683642575.430,-44.434,-30.273,-39.551,-79.102
1683642575.434,-45.898,-25.879,-26.855,-77.637
1683642575.438,-20.020,-10.254,-12.695,-27.344
1683642575.442,-5.371,-1.953,-21.484,-0.977
1683642575.446,-21.484,-4.395,-40.039,-29.297
1683642575.449,-42.480,-16.602,-42.480,-64.941
1683642575.453,-43.457,-25.879,-30.762,-60.059
1683642575.457,-24.414,-22.461,-16.602,-20.996
1683642575.461,-6.836,-10.254,-11.719,15.137
1683642575.465,-12.207,-9.766,-23.926,1.953
1683642575.466,-47.363,-25.391,-36.621,-48.828
1683642575.470,-68.848,-31.738,-32.227,-73.730
1683642575.474,-47.852,-17.578,-13.672,-37.598
1683642575.478,-22.461,-7.324,-5.859,13.184
1683642575.482,-28.320,-14.648,-23.926,-2.930
1683642575.486,-52.734,-20.996,-37.598,-60.059
1683642575.490,-52.246,-23.438,-27.832,-73.730
1683642575.493,-34.180,-20.020,-8.301,-36.133
1683642575.497,-16.113,-7.324,-6.836,0.488
1683642575.501,-17.090,-10.254,-24.414,-5.859
1683642575.505,-39.551,-19.531,-32.715,-48.340
1683642575.509,-47.363,-19.043,-23.438,-74.219
1683642575.511,-36.621,-13.672,-10.254,-47.363
1683642575.515,-19.043,-6.836,-9.766,-4.395
1683642575.519,-10.742,-3.418,-22.949,-3.906
1683642575.523,-25.391,-12.695,-42.969,-50.781
1683642575.527,-48.828,-25.879,-46.387,-89.355
1683642575.531,-38.086,-18.555,-27.832,-63.477
1683642575.535,-6.836,4.395,-12.207,-11.230
1683642575.538,-1.953,-2.441,-30.762,-1.465
1683642575.542,-23.926,-26.855,-51.758,-38.574
1683642575.546,-47.363,-39.062,-48.828,-70.801
1683642575.550,-44.922,-29.785,-25.391,-56.152
1683642575.554,-18.066,-2.441,-5.859,-5.859
1683642575.556,-6.348,1.465,-15.625,16.602
1683642575.560,-26.367,-20.996,-38.574,-21.973
1683642575.564,-48.828,-27.344,-38.086,-65.430
1683642575.568,-44.922,-18.066,-24.414,-57.129
1683642575.572,-25.879,-14.160,-23.926,-11.719
1683642575.576,-12.207,-10.742,-27.344,11.230
1683642575.580,-14.648,0.488,-30.762,-14.648
1683642575.583,-35.645,-14.648,-39.551,-57.617
1683642575.587,-45.410,-33.691,-36.133,-64.453
1683642575.591,-30.762,-27.832,-20.020,-22.461
1683642575.595,-12.207,-18.555,-15.625,11.719
1683642575.599,-19.043,-20.996,-30.762,-10.742
1683642575.602,-43.457,-33.203,-41.504,-58.105
1683642575.606,-46.387,-34.180,-28.809,-69.824
1683642575.610,-22.949,-18.555,-14.160,-32.227
1683642575.614,-3.418,-10.254,-12.207,6.836
1683642575.618,-17.578,-20.020,-32.715,-16.602
1683642575.622,-40.527,-21.973,-39.062,-65.430
1683642575.626,-46.387,-17.090,-26.367,-83.008
1683642575.629,-26.855,-18.555,-22.461,-50.293
1683642575.633,-4.395,-14.648,-24.414,-4.883
1683642575.637,-8.789,-22.949,-38.086,-13.672
1683642575.641,-26.855,-29.785,-40.527,-52.246
1683642575.645,-38.086,-26.367,-30.762,-70.312
1683642575.646,-20.996,-19.531,-15.625,-34.668
1683642575.650,2.441,-10.742,-9.277,8.789
1683642575.654,-4.395,-14.648,-27.344,1.953
1683642575.658,-32.227,-32.715,-48.828,-45.410
1683642575.662,-50.781,-43.457,-46.387,-76.172
1683642575.666,-41.504,-34.668,-19.043,-45.410
1683642575.670,-22.461,-19.043,-5.371,1.465
1683642575.673,-24.414,-25.391,-24.414,0.977
1683642575.677,-44.922,-40.039,-32.227,-39.062
1683642575.681,-63.477,-47.363,-24.902,-66.406
1683642575.685,-53.223,-33.203,-5.371,-41.992
1683642575.689,-27.344,-15.625,7.812,10.742
1683642575.692,-22.949,-18.555,-4.883,18.555
1683642575.696,-37.598,-33.203,-18.066,-25.391
1683642575.700,-55.664,-40.527,-19.531,-67.871
1683642575.704,-50.781,-28.809,-9.277,-60.547
1683642575.708,-25.879,-18.555,-5.859,-15.625
1683642575.712,-15.137,-20.508,-14.648,-1.953
1683642575.716,-33.691,-25.879,-25.879,-38.086
1683642575.719,-57.129,-37.598,-33.691,-78.125
1683642575.723,-50.781,-41.016,-24.414,-69.336
1683642575.727,-23.438,-25.391,-11.719,-21.973
1683642575.731,-7.812,-23.438,-22.461,-1.953
1683642575.735,-18.066,-36.133,-39.062,-32.227
1683642575.751,-34.668,-41.016,-37.598,-66.895
1683642575.755,-36.133,-33.691,-21.484,-58.594
1683642575.759,-17.090,-23.438,-5.859,-13.184
1683642575.763,-2.441,-21.484,-12.695,19.531
1683642575.767,-12.695,-26.367,-29.785,-0.488
1683642575.771,-38.574,-39.062,-35.645,-47.852
1683642575.775,-46.875,-40.039,-23.926,-55.176
1683642575.778,-29.297,-32.227,-10.742,-12.695
1683642575.782,-10.742,-26.855,-14.160,22.461
1683642575.786,-20.020,-30.762,-27.344,2.930
1683642575.790,-44.922,-41.992,-31.250,-46.875
1683642575.794,-59.082,-42.480,-23.438,-66.406
1683642575.796,-51.758,-40.039,-15.625,-38.574
1683642575.800,-28.320,-35.156,-17.578,-1.465
1683642575.804,-20.508,-29.297,-29.785,-13.184
1683642575.808,-38.086,-33.203,-38.574,-59.570
1683642575.812,-46.387,-41.016,-30.762,-80.078
1683642575.816,-24.902,-26.367,-9.277,-46.387
1683642575.820,-1.953,-10.742,-7.324,3.418
1683642575.823,-9.766,-20.996,-30.273,-2.441
1683642575.827,-35.645,-38.086,-47.852,-54.199
1683642575.831,-48.340,-45.898,-36.133,-77.637
1683642575.835,-35.156,-32.715,-11.230,-46.387
1683642575.839,-20.020,-20.996,-8.301,-7.812
1683642575.841,-20.020,-24.414,-28.809,-12.207
1683642575.845,-37.598,-33.691,-46.875,-52.246
1683642575.849,-56.152,-41.504,-37.598,-82.031
1683642575.853,-48.340,-33.691,-15.137,-58.594
1683642575.857,-23.438,-16.602,-9.277,-10.742
1683642575.861,-16.602,-8.789,-22.461,-1.953
1683642575.865,-35.645,-12.207,-35.156,-37.598
1683642575.868,-52.734,-28.809,-32.227,-66.895
1683642575.872,-48.340,-40.527,-16.602,-50.781
1683642575.876,-27.832,-30.762,-5.371,-2.441
1683642575.880,-15.137,-17.090,-9.277,17.578
1683642575.884,-28.320,-20.996,-25.391,-20.020
1683642575.886,-50.781,-31.738,-25.879,-56.641
1683642575.890,-49.316,-29.785,-7.812,-51.270
1683642575.894,-23.926,-18.066,0.977,-13.184
1683642575.898,-12.695,-15.625,-8.301,8.301
1683642575.902,-26.367,-28.320,-25.879,-21.484
1683642575.906,-46.387,-33.691,-29.785,-62.012
1683642575.910,-49.805,-27.832,-21.484,-58.594
1683642575.913,-26.367,-23.438,-12.695,-10.742
1683642575.917,-12.695,-23.926,-17.578,20.996
1683642575.921,-21.484,-33.203,-35.156,-3.418
1683642575.925,-34.668,-36.621,-37.598,-49.805
1683642575.929,-41.504,-33.203,-26.855,-54.688
1683642575.932,-20.996,-20.996,-12.207,-9.277
1683642575.936,1.465,-14.648,-10.254,21.484
1683642575.940,-10.742,-22.949,-26.367,-9.277
1683642575.944,-39.062,-33.691,-37.598,-61.035
1683642575.948,-53.711,-39.062,-31.250,-73.242
1683642575.952,-37.109,-27.832,-18.555,-35.156
1683642575.956,-17.578,-12.695,-17.090,-0.977
1683642575.959,-23.438,-20.020,-34.668,-20.020
1683642575.963,-48.828,-35.645,-47.852,-69.336
1683642575.967,-63.477,-41.504,-37.598,-84.473
1683642575.971,-50.781,-30.762,-18.555,-52.246
1683642575.975,-29.297,-14.648,-13.672,-11.719
1683642575.976,-28.809,-23.926,-34.180,-16.113
1683642575.980,-49.805,-41.992,-48.340,-65.430
1683642575.984,-62.012,-47.852,-37.109,-88.379
1683642575.988,-43.945,-29.785,-20.020,-51.758
1683642575.992,-12.207,-12.695,-19.043,-2.441
1683642575.996,-5.859,-13.184,-27.832,-0.488
1683642576.000,-31.250,-18.555,-43.457,-46.387
1683642576.003,-49.316,-32.715,-50.293,-75.684
1683642576.007,-37.109,-37.598,-29.297,-50.781
1683642576.011,-14.160,-21.973,-11.230,0.000
1683642576.015,-7.324,-14.160,-16.113,12.207
1683642576.019,-25.879,-26.855,-31.738,-30.762
1683642575.976,-28.809,-23.926,-34.180,-16.113
1683642575.980,-49.805,-41.992,-48.340,-65.430
1683642575.984,-62.012,-47.852,-37.109,-88.379
1683642575.988,-43.945,-29.785,-20.020,-51.758
1683642575.992,-12.207,-12.695,-19.043,-2.441
1683642575.996,-5.859,-13.184,-27.832,-0.488
1683642576.000,-31.250,-18.555,-43.457,-46.387
1683642576.003,-49.316,-32.715,-50.293,-75.684
1683642576.007,-37.109,-37.598,-29.297,-50.781
1683642576.011,-14.160,-21.973,-11.230,0.000
1683642576.015,-7.324,-14.160,-16.113,12.207
1683642576.019,-25.879,-26.855,-31.738,-30.762
1683642576.021,-45.410,-32.715,-34.668,-66.406
1683642576.025,-34.668,-25.879,-21.484,-47.852
1683642576.029,-5.371,-17.090,-11.719,1.465
1683642576.033,3.906,-13.672,-23.926,15.137
1683642576.037,-16.113,-29.785,-46.875,-26.367
1683642576.041,-44.434,-32.227,-44.922,-71.289
1683642576.045,-42.480,-15.137,-25.391,-57.617
1683642576.048,-16.113,-14.160,-14.160,-8.789
1683642576.052,-7.324,-20.020,-18.555,7.324
1683642576.056,-20.508,-25.879,-35.156,-28.809
1683642576.060,-41.016,-32.227,-39.551,-77.148
1683642576.064,-44.434,-27.344,-23.438,-70.801
1683642576.067,-30.273,-20.996,-8.789,-22.949
1683642576.071,-25.391,-19.531,-14.160,2.930
1683642576.075,-40.039,-26.367,-32.715,-25.391
1683642576.079,-61.035,-39.062,-38.086,-72.266
1683642576.083,-61.035,-37.598,-22.949,-71.289
1683642576.087,-38.574,-23.926,-7.812,-22.949
1683642576.091,-25.391,-16.113,-13.672,8.789
1683642576.094,-37.109,-25.391,-36.133,-18.555
1683642576.098,-57.129,-49.316,-45.898,-64.941
1683642576.102,-56.641,-52.734,-31.738,-72.266
1683642576.106,-31.738,-32.227,-10.254,-27.832
1683642576.110,-9.766,-22.461,-8.789,16.602
1683642576.127,-19.531,-27.832,-24.902,1.465
1683642576.131,-48.828,-40.039,-39.062,-48.828
1683642576.135,-62.012,-44.434,-31.250,-67.383
1683642576.139,-44.434,-33.691,-12.695,-33.203
1683642576.143,-14.648,-20.508,-10.254,7.812
1683642576.147,-10.742,-22.461,-29.297,0.000
1683642576.151,-36.621,-29.785,-41.992,-46.875
1683642576.154,-52.246,-39.062,-37.109,-72.754
1683642576.158,-41.992,-44.922,-22.949,-54.688
1683642576.162,-23.926,-28.809,-15.625,-14.160
1683642576.166,-22.949,-20.996,-32.227,-11.719
1683642576.170,-44.434,-39.062,-45.410,-53.223
1683642576.171,-61.035,-48.340,-36.621,-78.125
1683642576.175,-50.781,-36.133,-11.719,-53.223
1683642576.179,-27.832,-16.602,-4.395,-13.672
1683642576.183,-25.391,-19.531,-21.973,-10.254
1683642576.187,-36.621,-32.227,-36.621,-43.457
1683642576.191,-47.852,-33.691,-33.203,-75.684
1683642576.195,-44.434,-20.508,-14.160,-59.570
1683642576.198,-17.578,-8.301,-10.254,-16.113
1683642576.202,-8.301,-15.137,-27.344,-8.301
1683642576.206,-31.738,-34.668,-49.316,-46.387
1683642576.210,-47.363,-37.109,-44.922,-80.078
1683642576.214,-42.969,-28.809,-23.438,-68.848
1683642576.216,-22.949,-25.391,-8.789,-18.555
1683642576.220,-13.184,-18.066,-17.090,4.883
1683642576.224,-27.832,-19.531,-34.668,-24.414
1683642576.228,-42.969,-27.344,-34.180,-59.570
1683642576.232,-41.016,-25.879,-17.090,-52.734
1683642576.236,-23.926,-15.625,-0.977,-3.418
1683642576.240,-9.277,-9.277,-7.324,21.973
1683642576.243,-24.414,-24.902,-28.320,-14.648
1683642576.247,-48.828,-41.504,-32.715,-59.082
1683642576.251,-53.223,-41.016,-18.555,-62.500
1683642576.255,-35.156,-17.090,-0.977,-19.531
1683642576.259,-20.508,-9.766,-3.906,15.137
1683642576.261,-34.668,-30.762,-26.367,-12.207
1683642576.265,-60.059,-44.922,-34.180,-61.035
1683642576.269,-70.801,-42.480,-18.555,-70.312
1683642576.273,-51.758,-28.320,-1.953,-29.297
1683642576.277,-28.320,-24.414,-4.883,10.254
1683642576.281,-30.762,-29.785,-21.973,-1.953
1683642576.285,-51.270,-36.133,-33.691,-48.828
1683642576.288,-58.105,-40.527,-23.926,-65.918
1683642576.292,-37.598,-37.109,-8.301,-28.320
1683642576.296,-16.113,-26.367,-9.766,13.672
1683642576.300,-16.113,-21.973,-25.391,4.395
1683642576.304,-38.574,-32.715,-34.668,-45.410
1683642576.307,-55.664,-37.598,-21.484,-64.453
1683642576.311,-41.504,-26.855,0.000,-28.320
1683642576.315,-17.090,-20.020,-0.488,15.137
1683642576.319,-20.020,-23.926,-17.090,8.789
1683642576.323,-43.945,-41.016,-35.645,-41.016
1683642576.327,-56.152,-41.016,-28.320,-70.801
1683642576.331,-45.410,-27.344,-10.742,-42.480
1683642576.334,-18.555,-27.832,-12.207,7.324
1683642576.338,-13.184,-32.715,-27.344,14.648
1683642576.342,-33.691,-34.668,-42.969,-28.320
1683642576.346,-51.758,-34.668,-35.645,-63.965
1683642576.350,-45.410,-30.273,-16.113,-42.969
1683642576.351,-20.508,-22.461,-12.207,0.977
1683642576.355,-15.625,-18.066,-21.484,14.160
1683642576.359,-36.133,-25.391,-35.645,-19.531
1683642576.363,-58.594,-37.598,-40.039,-64.453
1683642576.367,-54.199,-34.668,-22.949,-54.688
1683642576.371,-33.691,-19.531,-13.184,-8.789
1683642576.375,-27.832,-14.160,-24.902,6.836
1683642576.378,-40.039,-27.832,-42.969,-32.227
1683642576.382,-57.129,-41.992,-44.434,-77.148
1683642576.386,-55.664,-37.109,-24.414,-73.242
1683642576.390,-28.809,-17.578,-11.719,-25.879
1683642576.394,-11.230,-14.648,-21.973,1.465
1683642576.396,-21.973,-20.020,-38.086,-24.902
1683642576.400,-42.480,-26.855,-42.969,-66.895
1683642576.404,-45.898,-32.227,-27.832,-70.312
1683642576.408,-20.996,-18.066,-8.789,-27.344
1683642576.412,-0.977,-9.766,-13.672,12.695
1683642576.416,-9.277,-20.508,-27.832,-3.906
1683642576.420,-30.762,-26.855,-33.691,-46.875
1683642576.423,-39.062,-35.645,-30.762,-53.223
1683642576.427,-19.043,-37.598,-18.066,-16.113
1683642576.431,0.977,-20.508,-10.742,24.902
1683642576.435,-6.348,-15.625,-22.461,13.184
1683642576.439,-27.344,-25.879,-37.598,-35.645
1683642576.396,-21.973,-20.020,-38.086,-24.902
1683642576.400,-42.480,-26.855,-42.969,-66.895
1683642576.404,-45.898,-32.227,-27.832,-70.312
1683642576.408,-20.996,-18.066,-8.789,-27.344
1683642576.412,-0.977,-9.766,-13.672,12.695
1683642576.416,-9.277,-20.508,-27.832,-3.906
1683642576.420,-30.762,-26.855,-33.691,-46.875
1683642576.423,-39.062,-35.645,-30.762,-53.223
1683642576.427,-19.043,-37.598,-18.066,-16.113
1683642576.431,0.977,-20.508,-10.742,24.902
1683642576.435,-6.348,-15.625,-22.461,13.184
1683642576.439,-27.344,-25.879,-37.598,-35.645
1683642576.441,-39.062,-34.180,-30.762,-56.152
1683642576.445,-24.414,-27.832,-9.277,-20.996
1683642576.449,-6.836,-12.207,-1.953,21.973
1683642576.453,-9.277,-16.602,-20.996,8.301
1683642576.457,-35.645,-34.668,-37.109,-42.969
1683642576.461,-51.758,-37.109,-26.367,-66.895
1683642576.465,-32.715,-19.043,-10.742,-29.785
1683642576.468,-9.277,-17.090,-10.254,14.648
1683642576.472,-6.836,-29.297,-28.809,9.766
1683642576.476,-24.414,-36.621,-39.551,-29.785
1683642576.480,-41.504,-38.086,-36.133,-60.059
1683642576.484,-31.738,-29.297,-25.879,-40.039
1683642576.502,-12.207,-21.484,-16.602,6.348
1683642576.506,-12.695,-19.043,-27.344,12.695
1683642576.510,-31.250,-26.367,-38.086,-29.297
1683642576.514,-46.387,-37.109,-34.180,-62.500
1683642576.518,-38.574,-33.203,-20.996,-44.922
1683642576.522,-9.766,-12.207,-11.230,0.000
1683642576.526,4.883,-1.465,-17.578,18.066
1683642576.529,-15.625,-24.902,-38.574,-20.020
1683642576.533,-38.086,-42.480,-42.969,-62.500
1683642576.537,-36.133,-37.109,-23.926,-54.688
1683642576.541,-18.555,-19.043,-11.230,-9.277
1683642576.545,-10.254,-12.695,-20.996,12.207
1683642576.546,-28.320,-29.297,-39.551,-26.855
1683642576.550,-48.828,-38.574,-41.992,-69.824
1683642576.554,-51.270,-36.621,-27.344,-60.547
1683642576.558,-29.297,-22.949,-13.672,-15.137
1683642576.562,-17.578,-18.066,-18.555,9.277
1683642576.566,-34.180,-28.809,-34.180,-12.695
1683642576.570,-56.152,-39.551,-37.109,-59.570
1683642576.573,-56.641,-41.016,-22.949,-65.430
1683642576.577,-32.227,-34.668,-13.184,-15.137
1683642576.581,-14.160,-33.203,-22.461,17.578
1683642576.585,-22.461,-31.738,-37.598,-8.301
1683642576.589,-43.945,-33.691,-44.922,-56.152
1683642576.592,-43.945,-38.574,-31.250,-61.035
1683642576.596,-21.973,-23.438,-9.766,-17.090
1683642576.600,-3.906,-10.254,-9.277,17.578
1683642576.604,-13.672,-26.855,-31.250,-1.953
1683642576.608,-40.039,-44.922,-43.945,-57.129
1683642576.612,-50.293,-39.551,-29.785,-76.172
1683642576.616,-32.227,-23.438,-16.113,-39.551
1683642576.619,-8.789,-18.555,-19.043,0.488
1683642576.623,-17.090,-25.391,-37.598,-9.766
1683642576.627,-45.898,-39.551,-49.316,-57.129
1683642576.631,-55.176,-41.504,-34.180,-76.172
1683642576.635,-34.668,-31.738,-14.648,-44.434
1683642576.636,-8.301,-20.508,-13.184,1.953
1683642576.640,-10.742,-28.809,-27.832,1.465
1683642576.644,-34.668,-39.551,-38.086,-46.875
1683642576.648,-42.969,-32.715,-34.668,-71.777
1683642576.652,-32.715,-27.832,-23.438,-47.363
1683642576.656,-14.648,-20.996,-13.672,-8.301
1683642576.660,-9.766,-14.160,-23.438,-1.953
1683642576.663,-31.250,-30.762,-43.945,-49.316
1683642576.667,-56.152,-53.711,-44.922,-83.008
1683642576.671,-52.246,-47.852,-22.461,-62.012
1683642576.675,-27.832,-28.809,-13.672,-19.531
1683642576.679,-25.391,-30.273,-27.344,-4.883
1683642576.681,-42.969,-41.992,-42.969,-41.992
1683642576.685,-58.105,-48.340,-45.410,-74.707
1683642576.689,-59.570,-41.504,-28.809,-61.523
1683642576.693,-38.574,-27.832,-15.625,-17.578
1683642576.697,-26.855,-23.438,-19.531,-1.953
1683642576.701,-44.922,-29.297,-32.715,-41.016
1683642576.705,-65.430,-30.273,-36.621,-80.566
1683642576.708,-61.523,-38.086,-25.879,-73.730
1683642576.712,-39.062,-42.480,-16.602,-27.344
1683642576.716,-19.043,-35.156,-20.996,0.977
1683642576.720,-23.438,-35.156,-32.227,-23.926
1683642576.724,-41.016,-33.691,-37.109,-63.965
1683642576.726,-39.551,-33.203,-21.973,-58.594
1683642576.730,-14.648,-24.414,-0.488,-7.812
1683642576.734,-0.488,-11.230,-6.836,20.508
1683642576.738,-13.672,-16.113,-28.320,0.000
1683642576.742,-27.832,-26.855,-37.109,-40.039
1683642576.746,-35.156,-29.297,-24.902,-48.340
1683642576.750,-25.879,-18.555,-10.254,-12.695
1683642576.753,-8.301,-18.066,-14.648,17.090
1683642576.757,-12.695,-25.879,-32.227,1.465
1683642576.761,-32.715,-34.180,-44.922,-45.898
1683642576.765,-45.898,-40.039,-37.598,-68.848
1683642576.769,-29.297,-28.809,-21.484,-34.668
1683642576.771,1.953,-13.184,-18.066,9.277
1683642576.775,-4.883,-19.043,-34.180,1.465
1683642576.779,-31.738,-33.691,-45.410,-41.504
1683642576.783,-37.598,-34.180,-27.344,-55.664
1683642576.787,-34.668,-25.391,-8.301,-24.902
1683642576.791,-30.273,-16.602,-5.371,8.301
1683642576.795,-35.645,-25.879,-17.090,0.000
1683642576.798,-63.477,-50.781,-35.156,-48.340
1683642576.802,-73.730,-56.641,-40.527,-79.590
1683642576.806,-60.547,-42.969,-23.926,-50.781
1683642576.810,-43.945,-22.461,-9.766,-5.371
1683642576.814,-37.598,-22.461,-23.926,0.977
1683642576.817,-54.199,-40.039,-34.180,-33.203
1683642576.821,-66.895,-49.805,-27.832,-60.059
1683642576.825,-52.246,-38.086,-9.277,-31.250
1683642576.829,-21.973,-20.508,0.977,16.113
1683642576.833,-13.672,-21.484,-15.625,25.879
1683642576.837,-28.809,-31.738,-29.785,-12.207
1683642576.841,-50.293,-37.598,-26.855,-51.270
1683642576.844,-45.898,-34.668,-12.695,-35.645
1683642576.848,-13.672,-22.949,-0.977,13.184
1683642576.852,-2.930,-23.438,-11.719,28.320
1683642576.856,-18.555,-32.715,-37.109,-9.277
1683642576.860,-30.273,-34.668,-39.551,-47.852
1683642576.876,-30.762,-32.227,-22.461,-42.969
1683642576.880,-22.949,-22.949,-5.371,-2.441
1683642576.884,-12.695,-22.949,-11.719,19.531
1683642576.888,-17.090,-33.203,-30.273,-7.324
1683642576.892,-38.574,-44.922,-37.109,-56.152
1683642576.896,-51.758,-42.480,-27.344,-65.430
1683642576.900,-34.668,-21.973,-8.301,-22.461
1683642576.903,-18.066,-25.391,-15.137,5.371
1683642576.907,-28.809,-34.180,-35.156,-19.531
1683642576.911,-59.082,-41.504,-42.969,-71.777
1683642576.915,-63.477,-43.945,-31.738,-78.125
1683642576.919,-30.762,-28.320,-12.695,-31.738
1683642576.921,-13.672,-21.484,-20.508,-0.977
1683642576.925,-26.367,-32.715,-42.969,-22.949
1683642576.929,-52.734,-48.340,-46.875,-68.848
1683642576.933,-57.129,-43.945,-32.227,-78.613
1683642576.937,-30.273,-25.879,-17.090,-34.668
1683642576.941,-10.254,-14.160,-10.742,10.254
1683642576.945,-10.254,-12.695,-24.902,0.488
1683642576.948,-27.832,-26.855,-41.504,-45.898
1683642576.952,-40.039,-39.062,-33.203,-66.895
1683642576.956,-31.250,-35.156,-17.090,-38.574
1683642576.960,-16.602,-21.973,-16.113,-1.953
1683642576.964,-17.090,-23.926,-32.227,-4.395
1683642576.967,-35.156,-32.715,-43.945,-48.828
1683642576.971,-44.922,-33.691,-38.574,-79.102
1683642576.975,-35.645,-28.320,-20.996,-51.270
1683642576.979,-17.090,-23.438,-12.207,-4.395
1683642576.983,-15.625,-27.344,-28.320,0.977
1683642576.987,-39.062,-34.668,-43.945,-43.945
1683642576.991,-63.477,-41.504,-45.898,-80.078
1683642576.994,-59.570,-41.992,-31.250,-62.988
1683642576.998,-32.715,-36.621,-27.344,-16.113
1683642577.002,-24.902,-34.668,-42.480,-10.254
1683642577.006,-45.898,-41.016,-47.852,-53.223
1683642577.010,-65.918,-45.410,-47.363,-86.426
1683642577.011,-61.035,-41.016,-37.598,-70.312
1683642577.015,-38.574,-33.203,-27.344,-25.879
1683642577.019,-22.461,-26.855,-29.297,-2.441
1683642577.023,-33.203,-34.180,-41.992,-27.832
1683642577.027,-53.223,-44.434,-48.340,-70.312
1683642577.031,-54.688,-35.156,-30.762,-65.430
1683642577.035,-31.738,-16.602,-13.672,-13.672
1683642577.038,-20.508,-21.484,-29.785,9.277
1683642577.042,-33.203,-43.945,-52.734,-20.508
1683642577.046,-48.340,-56.152,-51.270,-51.758
1683642577.050,-54.199,-50.293,-28.320,-47.363
1683642577.054,-43.945,-40.527,-11.230,-5.859
1683642577.056,-28.320,-35.156,-15.625,29.785
1683642577.060,-37.109,-41.016,-37.598,0.977
1683642577.064,-61.035,-46.387,-51.758,-55.176
1683642577.068,-67.383,-38.574,-36.621,-64.453
1683642577.072,-53.223,-33.691,-14.160,-28.320
1683642577.076,-33.203,-24.902,-13.184,4.883
1683642577.080,-38.086,-22.949,-37.109,-11.719
1683642577.083,-65.430,-42.969,-52.734,-66.406
1683642577.087,-74.707,-55.664,-36.621,-85.938
1683642577.091,-56.641,-39.062,-13.184,-43.945
1683642577.095,-35.156,-14.160,-7.812,-2.441
1683642577.099,-38.574,-16.113,-29.785,-18.555
1683642577.101,-59.570,-38.086,-51.270,-66.895
1683642577.105,-71.777,-44.434,-40.527,-87.891
1683642577.109,-54.688,-34.180,-19.531,-59.570
1683642577.113,-26.855,-23.926,-15.625,-15.137
1683642577.117,-22.461,-26.367,-27.344,-11.719
1683642577.121,-39.551,-36.133,-35.156,-54.688
1683642577.125,-58.105,-40.527,-26.367,-82.520
1683642577.128,-47.363,-41.016,-10.742,-53.223
1683642577.132,-16.113,-33.203,-9.766,-0.488
1683642577.136,0.488,-29.297,-23.926,13.672
1683642577.140,-20.996,-38.086,-38.086,-25.391
1683642577.144,-46.387,-47.852,-30.762,-59.570
1683642577.147,-36.621,-39.062,-10.742,-32.227
1683642577.151,-21.973,-19.531,-7.812,9.766
1683642577.155,-22.461,-12.695,-20.020,12.207
1683642577.159,-40.527,-31.250,-36.133,-33.691
1683642577.163,-55.176,-44.922,-34.180,-67.871
1683642577.167,-48.828,-30.273,-12.695,-48.828
1683642577.171,-34.668,-17.578,-5.371,-10.742
1683642577.174,-31.250,-25.879,-19.043,2.441
1683642577.178,-46.875,-37.109,-33.203,-35.156
1683642577.182,-74.219,-51.270,-42.480,-87.402
1683642577.186,-72.754,-41.504,-25.879,-82.520
1683642577.190,-45.410,-20.996,-9.277,-32.227
1683642577.192,-27.344,-21.973,-23.438,-12.207
1683642577.196,-36.621,-27.832,-40.039,-41.992
1683642577.200,-62.500,-36.133,-40.527,-89.355
1683642577.204,-67.383,-35.645,-28.809,-88.379
1683642577.208,-37.598,-27.832,-20.996,-32.227
1683642577.212,-17.090,-24.902,-24.414,1.465
1683642577.216,-27.344,-24.414,-35.156,-19.043
1683642577.219,-40.527,-34.180,-37.109,-54.688
1683642577.223,-41.016,-37.109,-24.414,-53.223
1683642577.227,-24.902,-28.809,-8.301,-13.184
1683642577.231,-12.207,-20.996,-12.207,17.090
1683642577.235,-19.531,-25.391,-31.250,2.930
1683642577.251,-33.203,-33.203,-42.480,-39.551
1683642577.255,-41.992,-35.645,-31.250,-55.664
1683642577.259,-29.297,-27.832,-9.277,-16.602
1683642577.263,-10.742,-21.484,-9.277,22.949
1683642577.267,-17.578,-27.832,-28.320,7.324
1683642577.271,-44.434,-39.062,-41.016,-42.969
1683642577.275,-56.152,-34.180,-29.297,-62.988
1683642577.278,-44.922,-26.855,-13.184,-32.227
1683642577.282,-31.738,-30.273,-12.207,1.953
1683642577.286,-33.203,-35.156,-28.320,-6.348
1683642577.290,-53.223,-43.457,-44.434,-58.594
1683642577.294,-63.477,-45.898,-36.621,-87.402
1683642577.296,-46.387,-41.016,-21.973,-54.688
1683642577.300,-20.508,-33.203,-17.578,-13.184
1683642577.304,-10.742,-27.832,-25.391,-8.301
1683642577.308,-21.973,-34.668,-40.039,-38.574
1683642577.312,-33.203,-35.156,-32.715,-62.500
1683642577.316,-22.949,-20.996,-13.672,-38.574
1683642577.320,1.953,-9.277,-10.254,11.719
1683642577.323,5.371,-16.602,-23.926,18.555
1683642577.327,-20.996,-32.715,-42.480,-26.367
1683642577.331,-43.945,-49.805,-45.410,-67.383
1683642577.335,-38.086,-48.828,-24.414,-53.223
1683642577.339,-10.742,-26.855,-8.789,1.465
1683642577.342,-2.930,-24.902,-22.949,15.625
1683642577.346,-21.973,-37.109,-36.133,-19.531
1683642577.350,-40.527,-37.598,-34.180,-53.223
1683642577.354,-38.574,-32.715,-20.996,-43.945
1683642577.358,-17.090,-20.508,-3.906,1.953
1683642577.362,-8.301,-19.043,-13.184,22.949
1683642577.366,-23.438,-27.344,-31.250,-8.301
1683642577.369,-50.293,-41.016,-36.621,-54.688
1683642577.373,-55.176,-46.387,-25.879,-59.570
1683642577.377,-33.203,-34.180,-10.254,-21.484
1683642577.381,-15.137,-24.902,-13.672,8.301
1683642577.385,-22.949,-27.344,-35.645,-17.090
1683642577.386,-44.434,-43.457,-47.363,-66.895
1683642577.390,-43.457,-46.875,-29.785,-68.848
1683642577.394,-18.066,-27.344,-7.812,-23.438
1683642577.398,-2.930,-19.531,-12.695,11.230
1683642577.402,-19.043,-31.250,-35.645,-9.766
1683642577.406,-43.457,-41.016,-49.805,-56.641
1683642577.410,-41.504,-30.762,-31.738,-63.477
1683642577.413,-18.555,-23.438,-14.648,-19.043
1683642577.417,3.906,-28.320,-18.555,20.508
1683642577.421,0.000,-29.297,-26.855,7.324
1683642577.425,-23.926,-35.156,-33.203,-34.668
1683642577.429,-36.621,-42.480,-24.902,-52.246
1683642577.431,-24.414,-32.715,-5.859,-18.555
1683642577.435,-5.371,-22.461,-1.465,23.926
1683642577.439,-7.324,-25.879,-19.043,15.137
1683642577.443,-32.227,-42.969,-32.227,-30.273
1683642577.447,-54.688,-54.688,-23.438,-58.105
1683642577.451,-48.340,-44.922,-9.766,-33.691
1683642577.455,-21.484,-22.949,1.953,14.160
1683642577.458,-12.207,-25.391,-13.672,18.066
1683642577.462,-31.250,-38.574,-36.133,-32.715
1683642577.466,-52.246,-45.410,-34.180,-73.730
1683642577.470,-43.457,-36.621,-18.555,-52.734
1683642577.474,-20.020,-21.973,-10.254,-6.348
1683642577.476,-6.348,-20.508,-22.461,-0.977
1683642577.480,-19.531,-41.504,-41.504,-45.410
1683642577.484,-37.598,-49.316,-41.504,-81.055
1683642577.488,-29.785,-31.738,-20.996,-57.617
1683642577.492,-5.859,-21.484,-7.324,-5.371
1683642577.496,5.859,-17.090,-16.602,13.672
1683642577.500,-14.160,-20.508,-33.203,-21.973
1683642577.503,-37.109,-41.016,-39.062,-62.988
1683642577.507,-32.715,-45.898,-18.066,-51.270
1683642577.511,-6.348,-29.785,-4.395,-2.441
1683642577.515,3.906,-26.855,-15.625,21.484
1683642577.519,-14.648,-35.156,-27.832,-5.371
1683642577.522,-32.227,-36.621,-26.367,-42.480
1683642577.526,-33.203,-29.785,-14.160,-41.992
1683642577.530,-21.484,-24.414,-5.859,-4.395
1683642577.534,-7.324,-19.043,-9.277,24.902
1683642577.538,-9.766,-19.043,-29.785,0.488
1683642577.542,-28.809,-21.484,-32.715,-41.016
1683642577.546,-35.156,-18.066,-20.996,-48.340
1683642577.549,-22.461,-18.555,-11.719,-15.137
1683642577.553,-9.766,-20.508,-10.254,10.742
1683642577.557,-21.484,-29.785,-34.180,-18.555
1683642577.561,-48.828,-42.969,-48.340,-64.941
1683642577.565,-50.781,-36.133,-32.227,-75.684
1683642577.566,-28.320,-22.949,-14.648,-41.504
1683642577.570,-2.930,-16.113,-16.602,0.977
1683642577.574,-0.977,-17.578,-34.668,-13.184
1683642577.578,-22.949,-26.367,-43.457,-67.871
1683642577.582,-31.738,-33.203,-38.086,-85.449
1683642577.586,-10.742,-27.344,-22.461,-43.945
1683642577.590,23.438,-12.695,-12.695,17.578
1683642577.593,17.578,-13.672,-28.809,12.207
1683642577.597,-26.367,-31.738,-47.363,-54.199
1683642577.601,-46.387,-38.086,-37.109,-75.684
1683642577.605,-33.203,-25.879,-11.230,-40.039
1683642577.609,-15.625,-17.578,-8.301,1.465
1683642577.626,-23.926,-22.949,-24.902,1.953
1683642577.630,-45.410,-30.762,-35.645,-36.133
1683642577.634,-59.082,-38.574,-31.738,-62.500
1683642577.638,-56.641,-36.621,-18.066,-43.945
1683642577.642,-36.621,-26.855,-9.277,1.465
1683642577.646,-30.762,-22.949,-20.020,13.184
1683642577.650,-48.828,-30.273,-38.086,-26.855
1683642577.653,-64.453,-43.945,-34.180,-60.547
1683642577.657,-57.617,-42.480,-15.625,-43.457
1683642577.661,-29.785,-25.391,-5.859,0.977
1683642577.665,-14.648,-12.207,-12.695,13.672
1683642577.669,-33.691,-23.438,-35.156,-28.320
1683642577.671,-56.641,-45.410,-44.434,-71.777
1683642577.675,-47.852,-40.039,-26.367,-64.941
1683642577.679,-22.461,-19.043,-8.789,-22.949
1683642577.683,-11.719,-16.113,-17.578,0.488
1683642577.687,-27.344,-31.738,-37.598,-28.320
1683642577.691,-46.875,-39.062,-37.109,-68.848
1683642577.695,-45.898,-32.227,-25.391,-66.406
1683642577.698,-26.855,-23.926,-13.184,-19.043
1683642577.702,-12.207,-29.785,-20.996,18.066
1683642577.706,-27.832,-42.480,-41.016,-8.789
1683642577.710,-55.176,-45.410,-44.922,-58.594
1683642577.714,-60.059,-42.480,-31.250,-65.430
1683642577.717,-42.480,-31.250,-16.602,-25.391
1683642577.721,-32.715,-19.043,-17.578,11.230
1683642577.725,-47.363,-26.855,-33.691,-6.836
1683642577.729,-68.848,-42.969,-46.387,-55.176
1683642577.733,-74.707,-46.875,-33.691,-70.801
1683642577.737,-57.129,-27.344,-9.766,-29.297
1683642577.741,-29.297,-11.230,-9.277,12.695
1683642577.744,-27.832,-23.926,-32.227,-1.465
1683642577.748,-49.805,-41.504,-47.363,-48.828
1683642577.752,-55.176,-44.434,-31.738,-72.754
1683642577.756,-36.621,-28.809,-4.883,-43.457
1683642577.760,-13.184,-17.578,-1.953,0.000
1683642577.761,-16.113,-23.438,-23.438,-10.742
1683642577.765,-38.086,-36.133,-43.457,-63.477
1683642577.769,-46.387,-34.668,-39.551,-84.961
1683642577.773,-30.273,-20.996,-20.996,-53.711
1683642577.777,-9.766,-15.137,-18.555,-10.254
1683642577.781,-7.812,-19.043,-35.156,-7.324
1683642577.785,-29.785,-26.367,-46.875,-51.270
1683642577.788,-48.828,-35.645,-44.434,-83.008
1683642577.792,-43.945,-41.016,-29.785,-62.988
1683642577.796,-24.414,-33.691,-19.043,-13.672
1683642577.800,-12.207,-28.320,-26.367,-1.953
1683642577.804,-29.785,-36.621,-40.039,-40.039
1683642577.806,-49.316,-43.457,-34.180,-69.824
1683642577.810,-42.480,-36.621,-15.137,-56.152
1683642577.814,-23.926,-26.367,-10.742,-17.090
1683642577.818,-16.113,-26.367,-21.973,-1.465
1683642577.822,-34.668,-37.598,-39.551,-38.086
1683642577.826,-54.199,-37.598,-38.574,-76.172
1683642577.830,-45.410,-26.367,-20.508,-61.523
1683642577.833,-21.484,-19.043,-15.137,-15.625
1683642577.837,-14.160,-20.996,-24.902,3.418
1683642577.841,-31.738,-29.297,-34.668,-24.902
1683642577.845,-52.734,-36.133,-36.621,-65.918
1683642577.849,-55.176,-38.086,-26.855,-71.777
1683642577.851,-38.086,-32.227,-18.555,-32.227
1683642577.855,-22.949,-22.949,-19.043,-2.930
1683642577.859,-31.250,-24.414,-34.668,-26.855
1683642577.863,-52.734,-36.621,-42.480,-69.336
1683642577.867,-62.500,-44.434,-38.086,-72.754
1683642577.871,-31.250,-32.715,-18.066,-21.484
1683642577.875,-0.488,-11.230,-10.254,19.531
1683642577.878,-22.949,-22.461,-40.039,-14.160
1683642577.882,-53.223,-44.922,-52.246,-68.848
1683642577.886,-56.152,-49.316,-41.016,-80.078
1683642577.890,-32.715,-33.691,-23.438,-35.645
1683642577.894,-13.184,-20.020,-18.066,3.906
1683642577.897,-21.973,-27.344,-39.551,-17.090
1683642577.901,-48.340,-41.504,-51.758,-63.477
1683642577.905,-58.594,-41.504,-37.598,-74.707
1683642577.909,-37.109,-34.180,-24.902,-37.598
1683642577.913,-11.230,-20.508,-21.484,7.812
1683642577.917,-13.184,-19.043,-29.297,4.395
1683642577.921,-39.551,-32.227,-47.363,-41.016
1683642577.924,-55.664,-47.852,-45.410,-66.895
1683642577.928,-46.387,-46.387,-20.508,-41.992
1683642577.932,-22.949,-31.738,-15.137,1.465
1683642577.936,-18.066,-22.461,-30.762,1.465
1683642577.940,-41.992,-34.180,-43.945,-44.922
1683642577.941,-56.641,-45.410,-36.621,-74.219
1683642577.945,-49.316,-36.133,-21.484,-55.664
1683642577.949,-32.227,-24.414,-13.672,-13.184
1683642577.953,-25.879,-21.973,-19.531,-2.930
1683642577.957,-49.316,-34.668,-37.598,-46.387
1683642577.961,-67.871,-41.992,-38.574,-83.984
1683642577.965,-54.688,-31.738,-21.973,-61.035
1683642577.968,-24.902,-20.996,-11.719,-10.254
1683642577.972,-15.625,-27.344,-20.996,3.906
1683642577.976,-32.227,-42.480,-37.598,-34.668
1683642577.980,-50.781,-42.480,-36.621,-72.266
1683642577.984,-49.316,-31.250,-20.020,-56.152
1683642578.001,-22.949,-22.949,-8.301,-9.766
1683642578.005,-7.812,-20.020,-20.508,11.719
1683642578.009,-26.855,-23.926,-44.922,-24.414
1683642578.013,-49.805,-35.645,-47.363,-72.266
1683642578.017,-48.828,-36.621,-28.809,-65.918
1683642578.021,-31.738,-26.855,-15.137,-22.461
1683642578.025,-20.996,-20.508,-19.043,4.883
1683642578.028,-30.762,-28.809,-32.715,-20.508
1683642578.032,-54.199,-43.457,-42.480,-67.871
1683642578.036,-58.594,-40.527,-33.203,-66.895
1683642578.040,-37.109,-21.484,-18.066,-21.484
1683642578.044,-28.320,-17.578,-17.578,11.719
1683642578.046,-42.480,-28.320,-29.297,-8.301
1683642578.050,-58.594,-39.062,-38.574,-58.594
1683642578.054,-64.453,-40.527,-27.832,-72.266
1683642578.058,-54.199,-25.879,-9.277,-30.762
1683642578.062,-35.156,-14.160,-13.184,10.742
1683642578.066,-34.180,-21.484,-36.133,-5.371
1683642578.070,-55.664,-36.621,-46.875,-53.223
1683642578.073,-66.406,-38.574,-32.227,-71.777
1683642578.077,-47.363,-31.250,-16.602,-37.109
1683642578.081,-23.926,-21.484,-14.648,7.324
1683642578.085,-25.391,-22.461,-28.320,-5.859
1683642578.089,-46.387,-35.645,-39.062,-56.152
1683642578.091,-58.105,-41.992,-33.691,-79.102
1683642578.095,-42.480,-35.156,-21.973,-50.293
1683642578.099,-18.066,-24.414,-17.578,-4.395
1683642578.103,-14.160,-25.391,-28.320,-2.441
1683642578.107,-30.273,-37.598,-40.527,-40.039
1683642578.111,-40.039,-41.504,-31.250,-64.453
1683642578.115,-38.086,-25.879,-17.578,-47.852
1683642578.118,-28.809,-15.137,-17.090,-11.719
1683642578.122,-15.625,-23.438,-29.297,-4.395
1683642578.126,-34.180,-35.156,-43.457,-48.340
1683642578.130,-69.824,-38.086,-40.039,-89.844
1683642578.134,-63.477,-33.203,-19.531,-71.289
1683642578.136,-30.273,-20.996,-11.719,-20.020
1683642578.140,-22.949,-16.113,-26.367,-7.324
1683642578.144,-46.387,-25.391,-40.039,-50.293
1683642578.148,-69.336,-35.645,-41.992,-90.332
1683642578.152,-61.523,-36.133,-28.809,-80.566
1683642578.156,-33.691,-19.531,-14.160,-32.715
1683642578.160,-21.973,-6.348,-23.926,-10.254
1683642578.163,-39.551,-24.414,-50.293,-45.898
1683642578.167,-61.035,-41.016,-60.059,-88.867
1683642578.171,-51.758,-33.203,-42.480,-79.102
1683642578.175,-20.020,-18.555,-21.973,-27.832
1683642578.179,-11.719,-12.695,-23.438,-5.859
1683642578.136,-30.273,-20.996,-11.719,-20.020
1683642578.140,-22.949,-16.113,-26.367,-7.324
1683642578.144,-46.387,-25.391,-40.039,-50.293
1683642578.148,-69.336,-35.645,-41.992,-90.332
1683642578.152,-61.523,-36.133,-28.809,-80.566
1683642578.156,-33.691,-19.531,-14.160,-32.715
1683642578.160,-21.973,-6.348,-23.926,-10.254
1683642578.163,-39.551,-24.414,-50.293,-45.898
1683642578.167,-61.035,-41.016,-60.059,-88.867
1683642578.171,-51.758,-33.203,-42.480,-79.102
1683642578.175,-20.020,-18.555,-21.973,-27.832
1683642578.179,-11.719,-12.695,-23.438,-5.859
1683642578.181,-30.273,-22.461,-45.898,-32.227
1683642578.185,-49.316,-35.645,-54.688,-72.266
1683642578.189,-52.246,-34.668,-33.691,-68.848
1683642578.193,-32.715,-19.531,-17.090,-24.902
1683642578.197,-17.090,-15.625,-24.902,5.859
1683642578.201,-27.832,-21.973,-40.039,-13.184
1683642578.205,-52.246,-26.855,-43.945,-60.059
1683642578.208,-55.176,-34.180,-35.156,-69.824
1683642578.212,-33.691,-31.738,-16.113,-29.785
1683642578.216,-11.230,-15.625,-9.766,6.348
1683642578.220,-15.625,-10.254,-24.414,-10.742
1683642578.224,-44.922,-23.438,-37.598,-62.012
1683642578.226,-57.617,-39.551,-31.738,-83.984
1683642578.230,-38.086,-29.785,-17.090,-49.805
1683642578.234,-18.066,-16.113,-16.602,-7.324
1683642578.238,-22.949,-20.020,-30.762,-15.137
1683642578.242,-43.457,-34.180,-41.992,-64.453
1683642578.246,-55.176,-36.621,-31.738,-83.984
1683642578.250,-37.598,-16.602,-10.742,-42.480
1683642578.253,-15.137,-15.137,-14.160,4.883
1683642578.257,-14.648,-30.273,-31.250,3.418
1683642578.261,-36.133,-37.109,-39.062,-40.039
1683642578.265,-53.223,-37.598,-38.086,-69.824
1683642578.269,-43.457,-23.438,-23.926,-47.363
1683642578.271,-15.137,-15.625,-13.672,0.000
1683642578.275,-7.812,-23.926,-20.996,8.301
1683642578.279,-20.508,-26.855,-31.250,-24.414
1683642578.283,-34.180,-29.297,-29.297,-58.594
1683642578.287,-31.250,-28.320,-15.137,-47.363
1683642578.291,-4.883,-14.160,-7.324,5.859
1683642578.295,-0.977,-15.137,-20.020,22.461
1683642578.298,-31.250,-41.016,-37.109,-29.297
1683642578.302,-52.734,-51.758,-37.598,-76.172
1683642578.306,-45.410,-45.410,-24.902,-60.059
1683642578.310,-14.160,-23.438,-10.742,-10.742
1683642578.314,-1.953,-14.648,-19.043,4.883
1683642578.316,-24.902,-28.320,-41.504,-30.273
1683642578.320,-45.410,-37.598,-43.945,-69.336
1683642578.324,-42.969,-36.621,-25.879,-63.477
1683642578.328,-22.461,-23.926,-8.789,-17.090
1683642578.332,-8.301,-17.090,-13.672,9.277
1683642578.336,-18.066,-25.879,-32.715,-25.879
1683642578.340,-39.551,-30.762,-40.527,-75.684
1683642578.343,-40.527,-34.180,-29.785,-73.730
1683642578.347,-21.973,-28.809,-18.555,-26.367
1683642578.351,-13.184,-21.973,-21.973,3.906
1683642578.355,-20.020,-20.996,-33.203,-17.578
1683642578.359,-45.898,-33.203,-38.574,-61.035
1683642578.376,-63.477,-42.480,-29.785,-72.266
1683642578.380,-48.340,-31.738,-15.625,-37.109
1683642578.384,-33.691,-20.508,-17.578,-4.883
1683642578.388,-38.574,-22.949,-33.203,-17.578
1683642578.392,-61.523,-34.668,-40.039,-62.500
1683642578.396,-80.566,-34.668,-27.832,-82.520
1683642578.400,-64.941,-17.578,-9.277,-46.875
1683642578.403,-35.156,-9.766,-6.836,0.000
1683642578.407,-29.785,-21.484,-23.438,-5.371
1683642578.411,-50.293,-36.133,-37.598,-50.781
1683642578.415,-59.570,-36.133,-26.855,-68.359
1683642578.419,-38.086,-27.344,-10.742,-35.156
1683642578.421,-17.578,-22.949,-8.789,3.418
1683642578.425,-16.602,-24.414,-22.949,-2.930
1683642578.429,-32.227,-27.832,-37.109,-41.016
1683642578.433,-49.316,-33.691,-35.645,-67.871
1683642578.437,-34.668,-34.668,-19.531,-43.457
1683642578.441,-9.766,-21.973,-9.766,8.789
1683642578.445,-13.672,-14.648,-24.414,6.836
1683642578.448,-30.762,-20.996,-40.527,-39.551
1683642578.452,-36.621,-27.832,-39.062,-68.359
1683642578.456,-29.785,-22.949,-20.996,-53.223
1683642578.460,-7.812,-6.348,-9.277,-8.789
1683642578.464,-3.418,-1.465,-20.508,3.906
1683642578.467,-23.926,-13.672,-37.109,-34.180
1683642578.471,-39.551,-25.879,-37.598,-66.895
1683642578.475,-37.598,-25.391,-20.996,-56.641
1683642578.479,-22.461,-12.695,-7.324,-12.695
1683642578.483,-12.695,-6.348,-18.555,9.766
1683642578.487,-30.273,-15.625,-32.715,-18.066
1683642578.491,-64.941,-22.461,-31.250,-64.453
1683642578.494,-68.848,-26.855,-21.973,-66.406
1683642578.498,-47.363,-23.438,-10.742,-23.438
1683642578.502,-32.227,-15.625,-10.254,3.906
1683642578.506,-43.457,-16.113,-22.461,-19.531
1683642578.510,-70.801,-30.762,-31.250,-68.359
1683642578.511,-73.242,-40.527,-25.879,-77.148
1683642578.515,-46.875,-23.926,-10.254,-34.180
1683642578.519,-22.949,-4.395,-11.230,1.953
1683642578.523,-32.227,-14.648,-32.227,-20.508
1683642578.527,-58.594,-35.645,-43.457,-72.754
1683642578.531,-64.453,-30.762,-28.809,-79.590
1683642578.535,-41.016,-14.160,-18.555,-36.621
1683642578.538,-14.648,-9.277,-20.508,0.488
1683642578.542,-15.137,-19.043,-31.738,-11.719
1683642578.546,-36.133,-36.621,-42.969,-58.105
1683642578.550,-41.992,-34.668,-29.297,-74.219
1683642578.554,-22.461,-25.879,-13.672,-42.969
1683642578.556,-1.953,-16.602,-17.578,-3.906
1683642578.560,-2.441,-11.719,-28.320,-11.719
1683642578.564,-24.902,-24.414,-39.062,-60.547
1683642578.568,-42.480,-34.180,-31.738,-87.891
1683642578.572,-27.832,-25.391,-12.695,-48.828
1683642578.576,-2.930,-4.883,-7.812,1.465
1683642578.580,-8.789,-2.441,-25.879,-5.371
1683642578.583,-40.527,-28.320,-44.922,-52.734
1683642578.587,-57.129,-43.945,-39.062,-85.449
1683642578.591,-41.504,-29.297,-16.113,-58.594
1683642578.595,-13.672,-7.812,-10.254,-7.812
1683642578.599,-11.230,-10.254,-24.902,1.465
1683642578.601,-33.691,-24.414,-34.668,-40.527
1683642578.605,-52.246,-36.133,-32.227,-75.195
1683642578.609,-44.434,-30.762,-17.090,-53.223
1683642578.613,-20.020,-10.254,-6.836,-5.859
1683642578.617,-15.137,-6.348,-21.484,2.930
1683642578.621,-38.086,-23.438,-40.039,-41.016
1683642578.625,-53.223,-31.250,-37.109,-76.660
1683642578.628,-41.504,-27.832,-25.391,-60.059
1683642578.632,-17.578,-21.973,-19.043,-11.719
1683642578.636,-1.953,-21.973,-22.461,7.812
1683642578.640,-17.578,-27.832,-34.668,-26.367
1683642578.644,-43.945,-32.227,-39.062,-66.406
1683642578.647,-37.598,-26.855,-18.555,-54.688
1683642578.651,-13.184,-15.625,-2.441,-6.836
1683642578.655,-4.883,-11.719,-14.160,9.277
1683642578.659,-23.438,-23.926,-30.762,-21.484
1683642578.663,-43.945,-38.086,-34.180,-66.406
1683642578.667,-49.805,-34.668,-18.066,-67.871
1683642578.671,-28.809,-15.137,-7.812,-20.508
1683642578.674,-8.789,-12.695,-14.648,15.137
1683642578.678,-23.926,-34.180,-30.762,-5.859
1683642578.682,-45.898,-42.480,-38.086,-44.922
1683642578.686,-44.922,-31.738,-24.902,-51.270
1683642578.690,-25.391,-22.461,-9.766,-14.648
1683642578.692,-8.789,-20.020,-7.812,17.578
1683642578.696,-15.625,-23.438,-25.879,-2.441
1683642578.700,-39.551,-37.109,-39.551,-50.293
1683642578.704,-46.875,-41.016,-28.809,-67.383
1683642578.708,-24.414,-28.809,-12.695,-30.762
1683642578.712,-0.488,-16.113,-15.137,7.324
1683642578.716,-9.277,-19.043,-34.180,-1.465
1683642578.719,-33.203,-40.527,-43.945,-51.270
1683642578.723,-44.922,-44.434,-28.320,-78.125
1683642578.727,-34.668,-36.621,-12.695,-47.363
1683642578.731,-8.789,-21.973,-9.277,-3.906
1683642578.735,-6.348,-18.555,-23.438,-1.465
1683642578.751,-32.227,-35.645,-39.062,-45.410
1683642578.755,-44.922,-37.598,-27.832,-68.848
1683642578.759,-28.809,-27.344,-5.371,-38.086
1683642578.763,-13.672,-20.996,-5.859,0.977
1683642578.767,-20.020,-27.344,-27.344,-0.488
1683642578.771,-37.598,-35.156,-41.504,-41.504
1683642578.775,-53.223,-38.574,-40.039,-69.824
1683642578.778,-43.457,-35.645,-21.973,-47.852
1683642578.782,-22.461,-20.508,-6.348,-1.465
1683642578.786,-19.531,-23.926,-17.578,12.207
1683642578.790,-39.062,-33.203,-32.715,-24.414
1683642578.794,-58.594,-35.645,-30.762,-61.035
1683642578.797,-52.246,-37.109,-16.113,-46.387
1683642578.801,-28.320,-30.273,-5.371,0.488
1683642578.805,-19.531,-24.902,-14.160,14.160
1683642578.809,-40.039,-30.273,-35.156,-28.320
1683642578.813,-60.059,-43.457,-40.039,-71.777
1683642578.817,-59.570,-39.551,-24.414,-66.895
1683642578.821,-35.156,-20.508,-8.789,-20.996
1683642578.824,-16.113,-18.066,-18.555,7.812
1683642578.828,-30.273,-35.156,-43.457,-25.391
1683642578.832,-53.711,-47.363,-46.875,-73.730
1683642578.836,-54.199,-43.945,-30.762,-76.172
1683642578.840,-31.250,-28.320,-14.648,-32.227
1683642578.841,-14.160,-20.508,-19.531,3.418
1683642578.845,-23.926,-31.250,-40.039,-11.719
1683642578.849,-50.293,-44.922,-48.340,-57.129
1683642578.853,-60.059,-48.828,-36.133,-69.336
1683642578.857,-40.527,-35.645,-18.066,-27.832
1683642578.861,-25.391,-20.020,-16.602,9.766
1683642578.865,-35.156,-23.926,-35.645,-9.277
1683642578.868,-49.316,-40.527,-41.016,-49.316
1683642578.872,-54.199,-51.758,-30.273,-62.012
1683642578.876,-39.062,-44.922,-18.066,-28.809
1683642578.880,-12.207,-29.785,-9.766,15.137
1683642578.884,-15.137,-25.879,-28.320,-0.488
1683642578.886,-41.504,-40.527,-47.363,-52.246
1683642578.890,-55.176,-51.758,-41.016,-75.195
1683642578.894,-41.992,-35.156,-20.508,-41.016
1683642578.898,-28.320,-15.625,-14.648,0.488
1683642578.902,-32.715,-22.949,-37.109,-10.254
1683642578.906,-50.293,-40.039,-49.805,-51.270
1683642578.910,-61.523,-35.156,-33.691,-71.289
1683642578.913,-48.828,-28.320,-20.996,-50.293
1683642578.917,-26.855,-33.691,-21.484,-6.836
1683642578.921,-23.926,-35.645,-30.762,-1.953
1683642578.925,-42.480,-35.645,-42.480,-46.387
1683642578.929,-61.523,-39.551,-45.898,-81.055
1683642578.931,-53.223,-31.250,-29.297,-63.477
1683642578.935,-31.250,-25.391,-19.043,-16.113
1683642578.939,-22.949,-24.902,-29.785,0.000
1683642578.943,-35.645,-28.809,-42.969,-33.691
1683642578.947,-52.246,-39.551,-43.457,-68.848
1683642578.951,-46.387,-34.180,-22.461,-50.781
1683642578.955,-26.855,-11.719,-9.766,-4.883
1683642578.958,-13.184,-15.137,-26.367,7.812
1683642578.962,-26.367,-39.551,-47.363,-24.902
1683642578.966,-48.828,-46.387,-41.504,-63.477
1683642578.970,-42.969,-34.180,-27.344,-57.129
1683642578.974,-19.043,-20.508,-21.484,-10.742
1683642578.977,-5.371,-16.113,-18.555,14.648
1683642578.981,-21.484,-18.555,-32.715,-18.066
1683642578.985,-48.340,-28.320,-44.922,-65.918
1683642578.989,-52.734,-34.180,-36.621,-67.383
1683642578.993,-31.738,-29.297,-20.508,-22.461
1683642578.997,-18.066,-18.555,-16.113,11.719
1683642579.001,-29.785,-18.066,-29.785,-10.254
1683642579.004,-59.082,-42.480,-45.410,-58.594
1683642579.008,-68.848,-47.363,-34.180,-66.895
1683642579.012,-44.922,-29.297,-16.602,-27.344
1683642579.016,-29.297,-24.902,-23.438,1.465
1683642579.020,-37.598,-36.133,-40.039,-21.973
1683642579.021,-62.500,-47.363,-45.898,-69.336
1683642579.025,-66.406,-39.062,-30.762,-79.102
1683642579.029,-49.805,-26.855,-16.113,-43.457
1683642579.033,-29.297,-15.625,-17.578,-4.883
1683642579.037,-30.273,-22.461,-35.645,-7.324
1683642579.041,-51.270,-35.645,-45.898,-48.828
1683642579.045,-57.129,-33.691,-37.109,-71.289
1683642579.048,-35.645,-27.344,-26.855,-34.668
1683642579.052,-5.859,-18.555,-23.438,9.277
1683642579.056,-8.789,-25.879,-34.668,1.465
1683642579.060,-40.527,-37.598,-42.480,-47.852
1683642579.064,-54.688,-38.086,-34.180,-72.266
1683642579.067,-42.969,-35.156,-19.043,-43.945
1683642579.071,-26.855,-30.273,-13.672,1.465
1683642579.075,-20.508,-28.320,-27.344,9.277
1683642579.079,-36.621,-37.109,-41.016,-33.691
1683642579.083,-53.223,-45.410,-34.180,-69.336
1683642579.087,-44.434,-38.086,-15.625,-49.316
1683642579.091,-20.020,-22.461,-8.301,0.977
1683642579.094,-12.207,-18.066,-19.531,19.043
1683642579.098,-30.273,-32.227,-36.621,-19.531
1683642579.102,-47.363,-45.410,-34.668,-57.129
1683642579.106,-39.551,-31.250,-12.207,-38.574
1683642579.110,-15.625,-16.602,-5.371,1.465
1683642579.112,-8.789,-22.949,-21.484,11.230
1683642579.116,-20.508,-33.203,-36.621,-26.367
1683642579.120,-38.086,-38.574,-33.203,-72.754
1683642579.124,-43.457,-38.574,-22.949,-68.359
1683642579.128,-28.320,-27.832,-16.602,-21.973
1683642579.132,-9.766,-14.160,-15.625,5.371
1683642579.136,-15.625,-14.648,-34.180,-19.043
1683642579.139,-38.574,-28.809,-41.016,-62.988
1683642579.143,-44.434,-35.156,-25.879,-65.430
1683642579.147,-23.926,-26.855,-8.301,-20.020
1683642579.151,-10.742,-17.090,-7.324,13.184
1683642579.155,-19.043,-23.926,-25.879,-14.160
1683642579.171,-38.086,-40.039,-41.016,-63.965
1683642579.175,-43.945,-39.551,-31.738,-66.895
1683642579.179,-23.438,-20.996,-13.672,-23.438
1683642579.183,-9.766,-16.113,-18.066,11.719
1683642579.187,-16.602,-29.785,-37.109,-6.348
1683642579.191,-36.621,-41.992,-43.457,-53.711
1683642579.195,-49.805,-39.551,-29.297,-66.895
1683642579.198,-33.203,-28.320,-14.160,-33.203
1683642579.202,-12.207,-26.855,-18.555,2.441
1683642579.206,-21.973,-37.109,-34.668,-8.301
1683642579.210,-48.340,-44.922,-41.992,-49.805
1683642579.214,-54.688,-42.969,-32.227,-63.477
1683642579.216,-38.574,-34.668,-16.113,-29.785
1683642579.220,-21.484,-28.809,-12.207,12.695
1683642579.224,-20.508,-27.832,-25.391,10.742
1683642579.228,-41.992,-41.016,-43.945,-41.504
1683642579.232,-56.152,-51.270,-43.945,-72.754
1683642579.236,-41.016,-33.203,-23.926,-48.340
1683642579.240,-17.090,-14.648,-18.066,-8.301
1683642579.243,-6.836,-21.973,-32.227,-0.977
1683642579.247,-26.855,-43.457,-44.434,-43.945
1683642579.251,-44.434,-48.828,-36.133,-73.730
1683642579.255,-32.227,-39.551,-21.973,-50.781
1683642579.259,-12.695,-28.320,-16.113,-10.254
1683642579.261,-7.812,-27.832,-26.855,-0.977
1683642579.265,-22.949,-41.016,-40.527,-39.551
1683642579.269,-40.527,-45.898,-38.574,-75.195
1683642579.273,-39.062,-40.039,-26.367,-61.035
1683642579.277,-22.949,-29.297,-15.625,-12.695
1683642579.281,-14.648,-26.855,-22.461,5.371
1683642579.285,-31.738,-32.227,-41.992,-33.691
1683642579.288,-53.711,-43.945,-51.270,-74.219
1683642579.292,-49.805,-45.410,-37.109,-64.941
1683642579.296,-24.902,-29.785,-17.090,-18.066
1683642579.300,-10.742,-25.391,-20.508,4.883
1683642579.304,-27.344,-39.062,-41.016,-27.832
1683642579.306,-48.828,-42.480,-45.410,-71.289
1683642579.310,-49.316,-41.016,-30.273,-67.383
1683642579.314,-35.156,-37.109,-20.020,-24.414
1683642579.318,-21.484,-27.344,-23.926,5.859
1683642579.322,-38.086,-32.715,-37.598,-20.996
1683642579.326,-63.965,-40.527,-43.945,-71.289
1683642579.330,-65.918,-35.156,-26.855,-77.148
1683642579.333,-49.805,-29.785,-13.672,-39.062
1683642579.337,-27.832,-26.855,-19.531,-0.488
1683642579.341,-23.438,-27.344,-31.250,-8.301
1683642579.345,-42.480,-27.344,-35.156,-51.270
1683642579.349,-48.340,-28.809,-27.344,-62.012
1683642579.351,-26.855,-25.879,-13.672,-22.949
1683642579.355,-5.371,-21.973,-13.672,15.625
1683642579.359,-7.324,-25.391,-28.809,3.418
1683642579.363,-29.785,-34.180,-34.180,-46.875
1683642579.367,-39.551,-39.551,-31.250,-65.918
1683642579.371,-21.484,-24.414,-14.648,-27.344
1683642579.375,-0.977,-6.836,-7.812,12.207
1683642579.378,-3.418,-24.902,-35.156,-2.930
1683642579.382,-24.414,-40.527,-53.711,-47.852
1683642579.386,-40.527,-42.969,-41.504,-72.266
1683642579.390,-32.227,-37.598,-22.461,-44.434
1683642579.394,-10.254,-24.414,-11.719,-2.441
1683642579.396,-7.324,-25.391,-21.973,-1.953
1683642579.400,-35.156,-41.992,-41.016,-48.340
1683642579.404,-54.688,-47.852,-39.551,-86.914
1683642579.408,-43.457,-36.621,-20.020,-63.965
1683642579.412,-22.461,-21.973,-10.742,-9.277
1683642579.416,-17.090,-12.207,-23.438,1.465
1683642579.420,-35.645,-24.902,-40.527,-41.504
1683642579.423,-55.664,-45.898,-40.039,-75.195
1683642579.427,-50.293,-37.598,-24.414,-54.688
1683642579.431,-23.926,-20.508,-16.602,-4.395
1683642579.435,-12.695,-14.160,-20.508,15.137
1683642579.439,-31.250,-25.391,-35.156,-22.949
1683642579.441,-50.781,-42.480,-39.551,-66.406
1683642579.445,-48.340,-38.086,-23.926,-57.129
1683642579.449,-25.879,-23.438,-7.812,-10.254
1683642579.453,-3.906,-14.160,-11.719,14.648
1683642579.457,-14.160,-22.949,-34.668,-20.020
1683642579.461,-41.992,-38.574,-42.969,-71.777
1683642579.465,-43.945,-34.668,-22.461,-69.824
1683642579.468,-14.160,-20.996,-3.418,-16.113
1683642579.472,2.441,-20.508,-13.184,12.695
1683642579.476,-11.719,-33.691,-34.668,-17.578
1683642579.480,-26.855,-33.203,-32.227,-59.082
1683642579.484,-31.738,-27.832,-22.949,-64.941
1683642579.487,-18.555,-21.484,-16.113,-24.414
1683642579.491,-1.465,-12.207,-18.555,5.859
1683642579.495,-9.277,-11.719,-29.785,-13.672
1683642579.499,-34.180,-25.391,-33.691,-53.223
1683642579.503,-46.875,-36.133,-28.809,-66.406
1683642579.507,-31.250,-27.832,-12.695,-30.762
1683642579.511,-14.648,-14.160,-10.742,7.812
1683642579.514,-24.414,-22.949,-35.645,-5.371
1683642579.518,-52.246,-48.340,-57.617,-53.711
1683642579.522,-64.453,-52.734,-47.852,-72.754
1683642579.526,-38.086,-33.691,-23.926,-34.668
1683642579.530,-12.207,-17.090,-16.113,10.254
1683642579.546,-16.113,-23.438,-30.273,3.418
1683642579.550,-30.762,-41.992,-45.898,-42.480
1683642579.554,-34.668,-41.504,-38.574,-66.406
1683642579.558,-25.391,-37.109,-21.973,-39.551
1683642579.562,-7.324,-28.809,-16.602,4.395
1683642579.566,-4.883,-21.484,-30.273,0.488
1683642579.570,-29.297,-33.691,-48.340,-45.898
1683642579.573,-50.781,-47.852,-51.270,-73.730
1683642579.577,-39.551,-40.039,-31.738,-56.152
1683642579.581,-10.254,-28.320,-19.043,-9.277
1683642579.585,-6.348,-28.320,-35.645,-1.465
1683642579.589,-30.273,-34.180,-48.828,-48.340
1683642579.591,-54.199,-45.410,-53.223,-88.867
1683642579.595,-52.246,-41.016,-37.598,-71.289
1683642579.599,-28.809,-27.832,-17.090,-22.461
1683642579.603,-20.996,-25.391,-33.203,-10.254
1683642579.607,-37.109,-37.109,-56.152,-45.410
1683642579.611,-59.082,-41.504,-55.176,-80.078
1683642579.615,-58.594,-33.203,-38.086,-67.383
1683642579.618,-34.668,-29.297,-20.020,-19.043
1683642579.622,-21.973,-32.715,-27.344,1.465
1683642579.626,-38.086,-47.852,-44.922,-29.297
1683642579.630,-59.082,-55.664,-44.922,-69.336
1683642579.634,-55.664,-48.828,-30.273,-65.430
1683642579.637,-32.715,-38.574,-20.508,-20.996
1683642579.641,-17.090,-27.832,-29.785,0.488
1683642579.645,-37.109,-38.574,-52.246,-32.227
1683642579.649,-64.941,-48.828,-58.594,-78.613
1683642579.653,-71.289,-47.363,-45.410,-82.520
1683642579.657,-56.641,-40.039,-31.250,-41.504
1683642579.661,-33.203,-26.367,-30.273,-6.836
1683642579.664,-33.691,-37.598,-50.781,-29.297
1683642579.668,-58.105,-57.129,-62.500,-78.125
1683642579.672,-70.801,-59.082,-54.688,-88.379
1683642579.676,-51.758,-46.875,-33.203,-47.363
1683642579.680,-26.367,-35.645,-27.344,-2.930
1683642579.681,-34.180,-43.457,-53.223,-24.414
1683642579.685,-56.152,-52.246,-65.430,-78.613
1683642579.689,-64.941,-53.223,-45.898,-92.773
1683642579.693,-56.152,-47.363,-28.809,-59.570
1683642579.697,-38.574,-41.504,-35.645,-23.926
1683642579.701,-40.527,-42.969,-47.852,-33.203
1683642579.705,-64.453,-46.387,-55.664,-76.660
1683642579.708,-78.613,-58.594,-54.199,-100.586
1683642579.712,-63.965,-55.176,-30.762,-65.430
1683642579.716,-40.039,-40.527,-21.484,-16.113
1683642579.720,-34.668,-35.156,-33.691,-13.672
1683642579.724,-57.129,-44.922,-49.316,-60.059
1683642579.727,-77.637,-59.082,-52.246,-92.773
1683642579.731,-67.871,-55.664,-32.227,-67.871
1683642579.735,-43.945,-39.551,-24.414,-21.973
1683642579.739,-32.715,-29.297,-38.574,-11.230
1683642579.743,-45.410,-41.992,-52.246,-47.363
1683642579.747,-67.383,-56.152,-48.340,-82.031
1683642579.751,-64.941,-44.922,-30.273,-62.988
1683642579.754,-49.805,-41.504,-30.762,-21.484
1683642579.758,-44.922,-50.293,-45.898,-8.301
1683642579.762,-59.570,-60.547,-56.152,-43.945
1683642579.766,-86.914,-66.895,-54.688,-89.355
1683642579.770,-87.891,-62.012,-40.527,-81.055
1683642579.771,-60.059,-45.898,-31.250,-37.109
1683642579.775,-41.016,-37.109,-32.715,-16.113
1683642579.779,-53.223,-46.875,-47.852,-48.340
1683642579.783,-75.684,-62.500,-59.570,-92.773
1683642579.787,-69.824,-61.523,-42.969,-87.891
1683642579.791,-43.945,-46.875,-25.879,-42.480
1683642579.795,-31.250,-32.715,-34.180,-13.672
1683642579.798,-45.898,-44.434,-55.176,-41.992
1683642579.802,-67.383,-61.035,-58.105,-92.285
1683642579.806,-62.012,-56.152,-41.504,-90.820
1683642579.810,-36.621,-39.551,-27.832,-41.992
1683642579.814,-21.973,-30.273,-30.273,-14.648
1683642579.817,-33.203,-36.133,-45.898,-34.668
1683642579.821,-56.152,-46.387,-51.758,-77.637
1683642579.825,-62.500,-44.434,-35.645,-84.961
1683642579.829,-46.387,-34.180,-16.113,-40.527
1683642579.833,-31.738,-29.297,-14.160,-1.465
1683642579.837,-32.227,-28.320,-24.902,-11.230
1683642579.841,-59.570,-39.062,-41.992,-61.523
1683642579.844,-80.078,-54.199,-43.945,-85.938
1683642579.848,-61.523,-47.363,-27.832,-56.152
1683642579.852,-39.551,-34.668,-23.438,-13.672
1683642579.856,-44.922,-35.645,-35.156,-18.066
1683642579.860,-70.801,-45.898,-49.805,-67.871
1683642579.862,-86.426,-55.664,-47.363,-96.191
1683642579.866,-69.336,-52.734,-29.785,-65.918
1683642579.870,-41.016,-36.621,-26.367,-20.508
1683642579.874,-34.668,-29.785,-38.574,-18.066
1683642579.878,-50.781,-41.992,-49.316,-58.594
1683642579.882,-68.359,-44.434,-45.898,-91.797
1683642579.886,-59.082,-27.344,-31.738,-66.406
1683642579.889,-39.062,-24.902,-25.879,-18.555
1683642579.893,-34.180,-35.156,-41.992,-14.160
1683642579.897,-49.805,-41.504,-57.617,-54.199
1683642579.901,-68.359,-49.316,-48.828,-87.891
1683642579.905,-59.570,-46.875,-31.250,-65.918
1683642579.921,-30.762,-38.574,-25.879,-16.113
1683642579.925,-16.113,-41.016,-34.180,0.000
1683642579.929,-24.414,-41.016,-43.457,-30.273
1683642579.933,-45.410,-44.922,-42.480,-68.848
1683642579.937,-52.734,-55.664,-34.668,-61.523
1683642579.941,-33.203,-39.062,-22.949,-14.648
1683642579.945,-19.043,-27.344,-27.344,7.324
1683642579.948,-42.480,-50.293,-52.246,-32.227
1683642579.952,-64.941,-68.848,-56.152,-78.613
1683642579.956,-61.523,-61.035,-38.086,-73.242
1683642579.960,-44.434,-41.016,-23.926,-31.250
1683642579.964,-31.250,-28.809,-29.297,-4.395
1683642579.966,-40.527,-35.645,-47.363,-31.250
1683642579.970,-64.453,-49.805,-53.711,-80.078
1683642579.974,-68.848,-49.805,-41.016,-86.914
1683642579.978,-51.758,-38.574,-24.414,-49.316
1683642579.982,-35.156,-34.668,-25.391,-23.438
1683642579.986,-45.898,-45.898,-44.434,-47.852
1683642579.990,-64.453,-55.664,-51.758,-86.426
1683642579.993,-63.477,-56.641,-41.992,-89.844
1683642579.997,-50.781,-49.805,-27.832,-50.781
1683642580.001,-36.621,-41.016,-22.461,-11.719
1683642580.005,-26.855,-33.203,-32.227,-13.672
1683642580.009,-41.504,-41.016,-46.875,-52.246
1683642580.011,-59.570,-52.734,-37.109,-75.684
1683642580.015,-49.805,-42.969,-15.625,-45.898
1683642580.019,-32.227,-35.156,-11.719,-4.883
1683642580.023,-29.297,-36.621,-28.809,-12.695
1683642580.027,-56.152,-49.316,-45.898,-62.012
1683642580.031,-74.219,-53.223,-36.133,-82.031
1683642580.035,-54.688,-35.645,-14.648,-51.758
1683642580.038,-31.250,-30.273,-13.184,-9.277
1683642580.042,-32.715,-38.086,-34.180,-9.277
1683642580.046,-64.941,-60.059,-55.664,-65.430
1683642580.050,-85.449,-65.430,-41.992,-93.750
1683642580.054,-67.871,-45.410,-19.531,-57.129
1683642580.056,-43.945,-33.691,-19.531,-14.648
1683642580.060,-44.922,-34.668,-28.320,-17.090
1683642580.064,-64.941,-42.969,-41.504,-57.129
1683642580.068,-82.031,-53.711,-46.875,-92.285
1683642580.072,-73.730,-46.875,-28.809,-76.172
1683642580.076,-44.434,-27.344,-14.160,-24.414
1683642580.080,-33.203,-17.578,-23.438,-9.277
1683642580.083,-52.734,-34.668,-44.922,-47.363
1683642580.087,-73.730,-54.199,-45.898,-85.449
1683642580.091,-64.453,-48.828,-25.391,-72.266
1683642580.095,-33.203,-33.203,-11.719,-22.461
1683642580.099,-16.602,-25.391,-18.555,2.441
1683642580.102,-24.902,-38.086,-41.992,-34.180
1683642580.106,-46.387,-51.270,-47.363,-78.613
1683642580.110,-39.551,-40.527,-26.855,-65.430
1683642580.114,-15.625,-25.391,-16.113,-17.090
1683642580.118,-10.254,-23.438,-28.320,10.254
