timestamps,TP9,AF7,AF8,TP10
1683643773.356,-45.410,-54.199,-37.598,-44.922
1683643773.360,-51.270,-48.340,-36.621,-49.316
1683643773.364,-60.547,-48.340,-45.410,-64.941
1683643773.368,-52.734,-46.387,-52.246,-63.477
1683643773.372,-56.152,-42.480,-50.293,-50.781
1683643773.376,-65.918,-48.828,-43.945,-50.293
1683643773.380,-71.289,-52.246,-41.016,-55.176
1683643773.383,-63.477,-50.293,-48.340,-53.223
1683643773.387,-59.082,-47.363,-49.316,-51.758
1683643773.391,-45.410,-45.410,-45.410,-37.598
1683643773.395,-41.504,-41.992,-39.551,-27.832
1683643773.399,-49.805,-45.410,-34.668,-38.086
1683643773.401,-47.363,-50.293,-29.785,-30.273
1683643773.405,-35.156,-43.457,-28.809,-15.625
1683643773.409,-31.738,-37.598,-29.297,-14.648
1683643773.413,-37.598,-32.715,-26.855,-15.137
1683643773.417,-54.688,-27.832,-22.949,-24.414
1683643773.421,-50.781,-27.832,-19.043,-36.133
1683643773.425,-30.762,-33.691,-27.344,-23.438
1683643773.428,-28.320,-37.109,-31.738,-21.484
1683643773.432,-31.738,-36.133,-21.484,-32.715
1683643773.436,-46.875,-35.156,-21.484,-39.062
1683643773.440,-46.387,-33.203,-23.438,-34.668
1683643773.444,-34.180,-36.133,-24.902,-28.809
1683643773.446,-33.203,-37.598,-26.855,-22.949
1683643773.450,-38.574,-33.691,-23.926,-19.531
1683643773.454,-39.551,-32.715,-20.508,-21.973
1683643773.458,-44.434,-36.133,-25.391,-27.832
1683643773.462,-42.480,-32.227,-31.250,-24.414
1683643773.466,-41.016,-33.203,-31.250,-18.066
1683643773.470,-39.551,-43.457,-33.691,-19.531
1683643773.473,-31.250,-34.668,-26.855,-22.461
1683643773.477,-33.691,-21.484,-23.438,-36.133
1683643773.481,-30.762,-28.809,-23.926,-33.203
1683643773.485,-41.016,-37.109,-21.484,-27.832
1683643773.489,-43.457,-36.621,-23.926,-35.645
1683643773.506,-39.551,-30.273,-21.973,-40.527
1683643773.510,-53.223,-33.691,-17.578,-38.086
1683643773.514,-41.016,-41.504,-21.973,-34.668
1683643773.518,-34.668,-44.434,-28.809,-37.109
1683643773.522,-51.270,-42.480,-26.855,-32.227
1683643773.526,-48.828,-32.227,-25.391,-26.855
1683643773.530,-27.344,-28.320,-29.297,-25.391
1683643773.533,-25.879,-31.738,-29.297,-24.902
1683643773.537,-54.688,-35.156,-31.738,-41.504
1683643773.541,-53.223,-41.504,-37.598,-45.898
1683643773.545,-40.039,-43.457,-33.691,-37.109
1683643773.549,-41.992,-40.527,-26.855,-26.855
1683643773.506,-39.551,-30.273,-21.973,-40.527
1683643773.510,-53.223,-33.691,-17.578,-38.086
1683643773.514,-41.016,-41.504,-21.973,-34.668
1683643773.518,-34.668,-44.434,-28.809,-37.109
1683643773.522,-51.270,-42.480,-26.855,-32.227
1683643773.526,-48.828,-32.227,-25.391,-26.855
1683643773.530,-27.344,-28.320,-29.297,-25.391
1683643773.533,-25.879,-31.738,-29.297,-24.902
1683643773.537,-54.688,-35.156,-31.738,-41.504
1683643773.541,-53.223,-41.504,-37.598,-45.898
1683643773.545,-40.039,-43.457,-33.691,-37.109
1683643773.549,-41.992,-40.527,-26.855,-26.855
1683643773.551,-42.480,-35.645,-29.785,-26.855
1683643773.555,-45.410,-31.250,-33.691,-29.297
1683643773.559,-43.457,-34.180,-29.785,-23.926
1683643773.563,-43.945,-39.062,-27.832,-28.809
1683643773.567,-44.922,-34.180,-24.414,-23.438
1683643773.571,-47.363,-29.785,-27.344,-19.531
1683643773.575,-48.828,-35.156,-32.715,-35.645
1683643773.578,-43.457,-38.086,-31.738,-37.109
1683643773.582,-39.062,-32.227,-28.809,-35.645
1683643773.586,-35.645,-27.344,-29.297,-36.621
1683643773.590,-22.949,-25.391,-27.832,-41.504
1683643773.594,-25.391,-30.762,-33.203,-46.387
1683643773.596,-36.621,-31.738,-34.180,-33.203
1683643773.600,-37.598,-28.809,-28.320,-37.598
1683643773.604,-37.598,-24.414,-20.996,-42.969
1683643773.608,-30.762,-28.320,-22.461,-36.621
1683643773.612,-30.273,-32.715,-30.273,-45.410
1683643773.616,-27.344,-35.156,-31.738,-54.688
1683643773.620,-21.484,-38.086,-26.367,-39.062
1683643773.623,-30.762,-43.945,-23.438,-24.902
1683643773.627,-30.762,-50.781,-26.855,-18.066
1683643773.631,-18.066,-46.387,-36.133,-19.043
1683643773.635,-24.414,-34.668,-36.133,-23.438
1683643773.639,-42.480,-38.086,-29.297,-32.227
1683643773.641,-51.270,-43.945,-27.344,-41.992
1683643773.645,-41.504,-45.410,-26.367,-35.645
1683643773.649,-41.504,-44.922,-27.344,-38.574
1683643773.653,-57.129,-46.387,-30.762,-50.781
1683643773.657,-59.570,-39.062,-24.414,-50.293
1683643773.661,-51.758,-35.156,-22.461,-41.016
1683643773.665,-46.875,-38.574,-32.715,-44.434
1683643773.668,-52.246,-43.945,-38.574,-50.293
1683643773.672,-50.293,-49.316,-36.133,-51.758
1683643773.676,-41.016,-40.527,-25.879,-38.574
1683643773.680,-35.645,-35.645,-23.438,-37.109
1683643773.684,-27.344,-38.574,-31.250,-41.016
1683643773.641,-51.270,-43.945,-27.344,-41.992
1683643773.645,-41.504,-45.410,-26.367,-35.645
1683643773.649,-41.504,-44.922,-27.344,-38.574
1683643773.653,-57.129,-46.387,-30.762,-50.781
1683643773.657,-59.570,-39.062,-24.414,-50.293
1683643773.661,-51.758,-35.156,-22.461,-41.016
1683643773.665,-46.875,-38.574,-32.715,-44.434
1683643773.668,-52.246,-43.945,-38.574,-50.293
1683643773.672,-50.293,-49.316,-36.133,-51.758
1683643773.676,-41.016,-40.527,-25.879,-38.574
1683643773.680,-35.645,-35.645,-23.438,-37.109
1683643773.684,-27.344,-38.574,-31.250,-41.016
1683643773.686,-37.109,-40.039,-31.250,-38.574
1683643773.690,-46.387,-41.016,-29.297,-43.945
1683643773.694,-38.086,-44.922,-27.832,-38.574
1683643773.698,-26.367,-49.805,-24.902,-25.391
1683643773.702,-17.578,-34.668,-23.438,-30.762
1683643773.706,-23.926,-21.484,-26.855,-39.551
1683643773.710,-24.902,-26.367,-33.203,-41.504
1683643773.713,-29.297,-35.156,-34.668,-42.969
1683643773.717,-45.898,-34.180,-29.785,-50.293
1683643773.721,-58.594,-38.086,-27.832,-48.340
1683643773.725,-55.176,-45.898,-30.273,-38.086
1683643773.729,-44.922,-48.828,-32.227,-39.062
1683643773.731,-37.109,-42.480,-29.785,-34.180
1683643773.735,-42.480,-37.598,-23.438,-22.949
1683643773.739,-53.223,-40.527,-20.508,-24.414
1683643773.743,-44.434,-44.434,-31.250,-18.555
1683643773.747,-48.828,-46.875,-35.645,-28.809
1683643773.751,-61.035,-43.945,-32.227,-27.344
1683643773.755,-46.875,-44.434,-32.715,-18.066
1683643773.758,-42.480,-47.363,-35.645,-27.344
1683643773.762,-45.898,-43.945,-39.062,-35.156
1683643773.766,-44.434,-38.086,-39.062,-35.156
1683643773.770,-57.129,-35.645,-39.551,-41.016
1683643773.774,-61.035,-38.086,-37.109,-49.805
1683643773.776,-37.598,-32.227,-27.344,-43.945
1683643773.780,-22.949,-27.344,-26.855,-37.109
1683643773.784,-42.480,-26.367,-35.156,-46.875
1683643773.788,-48.340,-33.691,-36.133,-44.922
1683643773.792,-30.273,-40.039,-22.949,-24.902
1683643773.796,-23.926,-31.738,-15.625,-22.461
1683643773.800,-38.574,-30.273,-27.832,-40.039
1683643773.803,-44.922,-34.668,-36.133,-35.645
1683643773.807,-40.039,-31.250,-33.203,-20.508
1683643773.811,-46.875,-30.273,-28.809,-17.578
1683643773.815,-44.434,-33.203,-26.855,-11.719
1683643773.819,-21.973,-33.691,-30.762,-6.348
1683643773.821,-9.766,-32.715,-30.273,-2.441
1683643773.825,-13.672,-27.344,-30.762,-12.695
1683643773.829,-29.785,-27.832,-32.715,-22.461
1683643773.833,-35.156,-28.809,-34.180,-12.207
1683643773.837,-30.273,-24.414,-31.738,-14.160
1683643773.841,-36.133,-23.438,-33.203,-29.297
1683643773.845,-44.922,-27.344,-40.527,-32.715
1683643773.848,-43.457,-36.621,-32.227,-31.738
1683643773.852,-41.016,-41.016,-21.973,-32.227
1683643773.856,-41.992,-34.668,-24.414,-35.645
1683643773.860,-48.828,-29.297,-32.715,-31.738
1683643773.864,-59.570,-35.645,-37.109,-38.574
1683643773.881,-68.848,-37.598,-32.227,-39.551
1683643773.885,-60.547,-34.180,-29.785,-36.621
1683643773.889,-38.086,-37.598,-24.902,-19.531
1683643773.893,-34.668,-40.039,-26.367,-15.137
1683643773.897,-34.180,-34.668,-38.574,-32.715
1683643773.901,-33.203,-28.320,-44.922,-35.156
1683643773.905,-49.805,-27.832,-39.551,-41.992
1683643773.908,-55.664,-34.180,-35.156,-43.457
1683643773.912,-38.574,-37.598,-35.156,-39.551
1683643773.916,-36.621,-40.039,-38.086,-29.297
1683643773.920,-35.645,-39.062,-41.016,-14.648
1683643773.924,-27.344,-34.180,-38.086,-9.277
1683643773.926,-27.832,-31.250,-35.645,-11.230
1683643773.930,-26.367,-30.273,-37.598,-9.277
1683643773.934,-24.902,-28.809,-45.410,-14.648
1683643773.938,-20.996,-30.273,-54.199,-17.578
1683643773.942,-22.949,-27.832,-42.480,-7.812
1683643773.946,-41.016,-27.832,-30.762,-28.320
1683643773.950,-45.410,-37.109,-37.109,-44.922
1683643773.953,-32.715,-44.922,-35.645,-31.738
1683643773.957,-37.598,-34.180,-32.715,-37.109
1683643773.961,-47.363,-24.414,-39.062,-57.129
1683643773.965,-52.246,-31.738,-35.156,-52.246
1683643773.969,-59.570,-34.668,-34.668,-52.246
1683643773.971,-57.129,-33.691,-38.086,-55.664
1683643773.975,-53.711,-37.598,-42.480,-53.711
1683643773.979,-38.086,-38.086,-37.109,-37.109
1683643773.983,-37.598,-36.133,-30.762,-27.832
1683643773.987,-43.457,-27.832,-33.203,-42.969
1683643773.991,-40.527,-26.855,-39.062,-40.527
1683643773.995,-46.875,-35.156,-45.410,-33.203
1683643773.998,-47.363,-36.621,-38.574,-31.738
1683643774.002,-41.992,-38.086,-34.668,-27.832
1683643774.006,-32.715,-40.527,-36.621,-17.578
1683643774.010,-31.738,-40.039,-37.109,-14.648
1683643774.014,-33.691,-39.062,-35.645,-25.391
1683643774.016,-30.762,-33.691,-32.227,-25.879
1683643774.020,-34.180,-30.762,-33.691,-31.250
1683643774.024,-29.297,-29.785,-34.668,-34.668
1683643774.028,-39.551,-31.738,-37.109,-41.504
1683643774.032,-66.406,-37.598,-39.551,-59.082
1683643774.036,-58.594,-37.598,-28.809,-54.199
1683643774.040,-41.992,-34.180,-26.367,-47.852
1683643774.043,-40.039,-34.180,-39.062,-56.641
1683643774.047,-44.922,-38.086,-43.457,-61.035
1683643774.051,-61.523,-37.109,-40.039,-68.359
1683643774.055,-63.965,-39.551,-35.645,-71.777
1683643774.059,-43.457,-44.434,-29.785,-58.105
1683643774.016,-30.762,-33.691,-32.227,-25.879
1683643774.020,-34.180,-30.762,-33.691,-31.250
1683643774.024,-29.297,-29.785,-34.668,-34.668
1683643774.028,-39.551,-31.738,-37.109,-41.504
1683643774.032,-66.406,-37.598,-39.551,-59.082
1683643774.036,-58.594,-37.598,-28.809,-54.199
1683643774.040,-41.992,-34.180,-26.367,-47.852
1683643774.043,-40.039,-34.180,-39.062,-56.641
1683643774.047,-44.922,-38.086,-43.457,-61.035
1683643774.051,-61.523,-37.109,-40.039,-68.359
1683643774.055,-63.965,-39.551,-35.645,-71.777
1683643774.059,-43.457,-44.434,-29.785,-58.105
1683643774.061,-37.109,-44.922,-34.668,-51.758
1683643774.065,-38.086,-41.016,-44.434,-50.293
1683643774.069,-37.598,-38.574,-42.480,-53.223
1683643774.073,-41.016,-40.527,-41.016,-50.781
1683643774.077,-36.133,-37.598,-37.109,-32.227
1683643774.081,-21.484,-33.203,-28.320,-17.090
1683643774.085,-16.113,-33.691,-29.297,-15.137
1683643774.088,-19.531,-35.156,-36.621,-7.324
1683643774.092,-17.090,-33.691,-30.273,4.395
1683643774.096,-17.578,-38.574,-23.438,3.418
1683643774.100,-11.719,-37.598,-24.902,-0.488
1683643774.104,-16.602,-37.598,-28.320,-5.371
1683643774.106,-36.133,-39.062,-31.250,-11.230
1683643774.110,-35.645,-39.551,-32.227,-14.648
1683643774.114,-38.086,-42.480,-27.344,-25.391
1683643774.118,-44.922,-40.527,-22.461,-27.344
1683643774.122,-43.945,-41.504,-25.879,-29.297
1683643774.126,-55.176,-48.828,-29.297,-30.273
1683643774.130,-45.898,-41.992,-36.133,-31.738
1683643774.133,-34.180,-31.738,-43.945,-35.645
1683643774.137,-50.781,-26.855,-36.621,-41.992
1683643774.141,-76.660,-34.668,-31.738,-67.871
1683643774.145,-83.496,-40.527,-45.898,-83.496
1683643774.149,-68.848,-40.039,-47.852,-66.895
1683643774.106,-36.133,-39.062,-31.250,-11.230
1683643774.110,-35.645,-39.551,-32.227,-14.648
1683643774.114,-38.086,-42.480,-27.344,-25.391
1683643774.118,-44.922,-40.527,-22.461,-27.344
1683643774.122,-43.945,-41.504,-25.879,-29.297
1683643774.126,-55.176,-48.828,-29.297,-30.273
1683643774.130,-45.898,-41.992,-36.133,-31.738
1683643774.133,-34.180,-31.738,-43.945,-35.645
1683643774.137,-50.781,-26.855,-36.621,-41.992
1683643774.141,-76.660,-34.668,-31.738,-67.871
1683643774.145,-83.496,-40.527,-45.898,-83.496
1683643774.149,-68.848,-40.039,-47.852,-66.895
1683643774.151,-48.828,-38.574,-41.504,-53.223
1683643774.155,-38.086,-39.551,-35.645,-53.711
1683643774.159,-40.039,-41.016,-29.785,-55.176
1683643774.163,-39.551,-42.969,-33.203,-53.711
1683643774.167,-35.645,-42.969,-37.598,-39.551
1683643774.171,-19.531,-42.480,-29.785,-21.973
1683643774.175,-16.113,-45.898,-26.367,-12.695
1683643774.178,-17.578,-48.828,-28.809,0.000
1683643774.182,-15.137,-41.504,-25.391,2.441
1683643774.186,-11.719,-36.133,-37.109,2.441
1683643774.190,-7.812,-30.273,-39.551,3.418
1683643774.194,-34.668,-29.785,-31.738,-25.879
1683643774.196,-42.480,-36.133,-33.203,-38.574
1683643774.200,-28.320,-38.086,-35.645,-25.391
1683643774.204,-31.738,-41.016,-40.527,-32.715
1683643774.208,-38.574,-39.551,-38.086,-38.086
1683643774.212,-51.758,-40.039,-31.738,-41.504
1683643774.216,-55.176,-37.109,-30.273,-48.340
1683643774.220,-47.363,-36.133,-37.109,-41.504
1683643774.223,-40.527,-41.504,-39.062,-44.922
1683643774.227,-47.363,-45.410,-26.855,-55.176
1683643774.231,-50.781,-46.875,-21.973,-60.059
1683643774.235,-34.668,-44.434,-16.113,-44.922
1683643774.239,-21.484,-31.250,-24.902,-35.156
1683643774.256,-15.625,-22.949,-35.156,-36.621
1683643774.260,-36.133,-26.367,-28.320,-40.039
1683643774.264,-42.969,-23.926,-19.531,-37.598
1683643774.268,-25.879,-27.832,-19.531,-32.227
1683643774.272,-20.996,-28.320,-19.043,-29.785
1683643774.276,-24.414,-25.879,-20.020,-20.020
1683643774.280,-41.992,-33.691,-27.832,-25.879
1683643774.283,-48.828,-40.527,-26.367,-29.297
1683643774.287,-34.668,-36.133,-12.695,-18.066
1683643774.291,-22.461,-30.762,-20.020,-9.277
1683643774.295,-18.555,-22.461,-31.250,-13.184
1683643774.299,-27.344,-18.555,-32.227,-30.273
1683643774.256,-15.625,-22.949,-35.156,-36.621
1683643774.260,-36.133,-26.367,-28.320,-40.039
1683643774.264,-42.969,-23.926,-19.531,-37.598
1683643774.268,-25.879,-27.832,-19.531,-32.227
1683643774.272,-20.996,-28.320,-19.043,-29.785
1683643774.276,-24.414,-25.879,-20.020,-20.020
1683643774.280,-41.992,-33.691,-27.832,-25.879
1683643774.283,-48.828,-40.527,-26.367,-29.297
1683643774.287,-34.668,-36.133,-12.695,-18.066
1683643774.291,-22.461,-30.762,-20.020,-9.277
1683643774.295,-18.555,-22.461,-31.250,-13.184
1683643774.299,-27.344,-18.555,-32.227,-30.273
1683643774.301,-30.273,-17.578,-22.949,-29.297
1683643774.305,-42.969,-21.973,-22.461,-38.086
1683643774.309,-43.945,-27.832,-22.461,-36.621
1683643774.313,-28.809,-25.391,-20.996,-28.809
1683643774.317,-22.949,-23.438,-22.949,-32.227
1683643774.321,-28.809,-27.344,-18.555,-25.391
1683643774.325,-44.434,-28.320,-23.438,-29.785
1683643774.328,-41.504,-22.949,-28.320,-33.203
1683643774.332,-30.762,-20.508,-28.809,-31.250
1683643774.336,-28.809,-21.973,-31.738,-31.250
1683643774.340,-38.086,-19.531,-27.832,-35.156
1683643774.344,-34.180,-13.672,-21.973,-26.855
1683643774.346,-19.043,-13.672,-14.648,-13.672
1683643774.350,-29.297,-28.320,-16.113,-23.438
1683643774.354,-33.203,-36.621,-16.602,-29.785
1683643774.358,-35.156,-22.949,-15.137,-22.949
1683643774.362,-45.898,-11.719,-20.508,-24.902
1683643774.366,-35.645,-12.695,-16.602,-26.367
1683643774.370,-16.113,-13.184,-26.855,-25.879
1683643774.373,-35.156,-22.461,-34.180,-23.926
1683643774.377,-59.082,-35.156,-26.855,-24.902
1683643774.381,-46.387,-38.086,-23.926,-17.090
1683643774.385,-38.574,-35.156,-23.926,-22.461
1683643774.389,-35.156,-26.855,-28.809,-36.621
1683643774.391,-34.668,-22.949,-27.344,-41.504
1683643774.395,-47.363,-26.855,-27.344,-43.945
1683643774.399,-48.828,-32.227,-26.367,-40.527
1683643774.403,-48.828,-35.156,-25.879,-32.227
1683643774.407,-36.621,-32.227,-22.461,-19.043
1683643774.411,-44.434,-33.691,-21.484,-27.832
1683643774.415,-57.129,-40.039,-23.438,-34.180
1683643774.418,-46.875,-41.992,-29.785,-25.879
1683643774.422,-32.715,-37.109,-35.156,-25.879
1683643774.426,-25.879,-32.227,-31.250,-22.461
1683643774.430,-46.875,-35.156,-33.691,-34.180
1683643774.434,-55.176,-37.598,-35.156,-38.574
1683643774.436,-25.879,-30.273,-27.344,-17.578
1683643774.440,-0.977,-21.484,-27.344,-5.859
1683643774.444,-8.301,-21.973,-35.645,-19.043
1683643774.448,-15.137,-31.250,-39.062,-27.344
1683643774.452,-23.438,-39.551,-37.109,-37.598
1683643774.456,-34.180,-35.645,-32.715,-31.250
1683643774.460,-25.391,-33.203,-30.762,-11.230
1683643774.463,-9.766,-41.992,-29.785,-8.789
1683643774.467,-2.930,-36.133,-27.344,3.418
1683643774.471,-14.648,-24.414,-30.273,-8.301
1683643774.475,-34.668,-22.461,-31.250,-28.809
1683643774.479,-44.922,-26.855,-29.785,-40.039
1683643774.481,-37.109,-31.250,-29.297,-42.969
1683643774.485,-15.625,-27.832,-31.250,-19.531
1683643774.489,-17.578,-24.902,-30.273,-13.184
1683643774.493,-44.922,-33.203,-32.715,-40.527
1683643774.497,-52.734,-37.109,-31.738,-57.617
1683643774.501,-44.922,-34.180,-26.855,-37.598
1683643774.505,-35.645,-36.133,-35.645,-29.297
1683643774.508,-33.691,-34.180,-44.434,-33.203
1683643774.512,-48.828,-29.785,-41.992,-46.875
1683643774.516,-40.527,-34.668,-29.297,-49.316
1683643774.520,-41.016,-34.668,-19.531,-42.969
1683643774.524,-43.945,-35.156,-25.879,-27.832
1683643774.527,-20.996,-41.504,-30.273,-19.531
1683643774.531,-15.137,-37.109,-28.320,-15.625
1683643774.535,-15.137,-34.668,-26.367,-14.160
1683643774.539,-16.602,-32.227,-36.621,-35.645
1683643774.543,-12.207,-22.949,-42.480,-38.086
1683643774.547,-11.719,-18.066,-40.039,-30.762
1683643774.551,-28.320,-27.344,-38.574,-36.133
1683643774.554,-34.180,-36.133,-33.203,-31.250
1683643774.558,-27.344,-24.902,-25.391,-28.320
1683643774.562,-35.156,-22.949,-33.203,-40.527
1683643774.566,-45.410,-26.367,-35.156,-49.316
1683643774.570,-35.156,-26.367,-26.367,-37.109
1683643774.571,-38.086,-30.762,-23.438,-38.574
1683643774.575,-50.781,-25.391,-23.438,-50.293
1683643774.579,-44.922,-17.090,-23.438,-51.758
1683643774.583,-43.457,-19.531,-31.738,-51.270
1683643774.587,-27.344,-16.602,-33.203,-40.039
1683643774.591,-23.926,-14.160,-28.320,-27.832
1683643774.595,-39.551,-20.508,-29.785,-36.133
1683643774.598,-40.527,-19.043,-35.645,-46.875
1683643774.602,-45.410,-18.066,-38.086,-54.199
1683643774.606,-47.363,-24.414,-36.621,-48.828
1683643774.610,-30.273,-24.902,-34.180,-28.809
1683643774.614,-17.578,-23.438,-30.273,-18.555
1683643774.631,-17.090,-17.578,-29.785,-14.160
1683643774.635,-19.531,-16.602,-39.062,-23.438
1683643774.639,-30.273,-27.344,-41.992,-33.691
1683643774.643,-35.645,-30.762,-39.062,-25.879
1683643774.647,-35.645,-28.809,-34.668,-20.508
1683643774.651,-42.480,-30.273,-34.180,-31.738
1683643774.655,-37.109,-30.273,-43.457,-38.086
1683643774.658,-28.809,-26.367,-44.922,-42.969
1683643774.662,-42.480,-20.508,-38.086,-49.316
1683643774.666,-55.176,-28.809,-35.156,-52.734
1683643774.670,-55.664,-33.691,-35.156,-54.688
1683643774.674,-43.457,-27.832,-36.621,-57.617
1683643774.676,-47.363,-26.855,-39.062,-62.012
1683643774.680,-58.105,-32.227,-43.945,-61.523
1683643774.684,-48.828,-31.250,-39.551,-53.711
1683643774.688,-48.828,-31.250,-37.598,-50.781
1683643774.692,-51.270,-35.645,-42.480,-53.223
1683643774.696,-52.246,-34.180,-47.852,-56.641
1683643774.700,-53.711,-34.668,-44.922,-43.457
1683643774.703,-49.805,-40.039,-36.621,-32.227
1683643774.707,-47.852,-34.180,-32.715,-37.109
1683643774.711,-36.621,-30.273,-31.250,-35.156
1683643774.715,-35.156,-30.273,-37.109,-35.156
1683643774.719,-43.457,-30.762,-41.504,-39.551
1683643774.721,-36.133,-27.344,-32.715,-29.297
1683643774.725,-31.250,-30.762,-33.691,-29.297
1683643774.729,-27.344,-36.621,-38.086,-17.578
1683643774.733,-22.461,-36.133,-38.086,-10.254
1683643774.737,-24.902,-28.809,-48.340,-29.297
1683643774.741,-27.832,-21.973,-51.270,-31.738
1683643774.745,-26.367,-22.461,-42.480,-21.484
1683643774.748,-44.922,-30.273,-44.434,-34.180
1683643774.752,-66.406,-36.621,-54.199,-45.410
1683643774.756,-54.199,-38.086,-50.781,-40.527
1683643774.760,-35.645,-32.227,-42.969,-28.320
1683643774.764,-40.039,-29.297,-41.016,-36.621
1683643774.767,-55.176,-34.668,-34.180,-53.223
1683643774.771,-61.523,-41.992,-31.250,-53.711
1683643774.775,-54.199,-39.551,-39.551,-47.363
1683643774.779,-52.246,-34.180,-42.969,-56.152
1683643774.783,-56.152,-33.203,-39.551,-61.035
1683643774.787,-55.664,-31.738,-38.574,-55.664
1683643774.791,-52.734,-30.762,-38.574,-49.805
1683643774.794,-49.805,-38.574,-49.316,-38.574
1683643774.798,-49.805,-43.945,-54.688,-31.738
1683643774.802,-47.363,-38.574,-47.363,-26.367
1683643774.806,-36.133,-34.668,-42.969,-23.438
1683643774.810,-29.297,-35.645,-43.945,-22.949
1683643774.767,-55.176,-34.668,-34.180,-53.223
1683643774.771,-61.523,-41.992,-31.250,-53.711
1683643774.775,-54.199,-39.551,-39.551,-47.363
1683643774.779,-52.246,-34.180,-42.969,-56.152
1683643774.783,-56.152,-33.203,-39.551,-61.035
1683643774.787,-55.664,-31.738,-38.574,-55.664
1683643774.791,-52.734,-30.762,-38.574,-49.805
1683643774.794,-49.805,-38.574,-49.316,-38.574
1683643774.798,-49.805,-43.945,-54.688,-31.738
1683643774.802,-47.363,-38.574,-47.363,-26.367
1683643774.806,-36.133,-34.668,-42.969,-23.438
1683643774.810,-29.297,-35.645,-43.945,-22.949
1683643774.811,-28.809,-38.574,-45.898,-22.461
1683643774.815,-35.645,-35.645,-41.992,-26.855
1683643774.819,-37.598,-31.250,-37.598,-22.461
1683643774.823,-44.922,-38.574,-42.480,-23.926
1683643774.827,-50.293,-42.969,-45.410,-24.414
1683643774.831,-42.969,-31.250,-41.992,-22.949
1683643774.835,-46.387,-25.391,-41.504,-32.715
1683643774.838,-61.035,-35.645,-45.410,-48.828
1683643774.842,-65.430,-38.574,-41.992,-53.223
1683643774.846,-53.711,-31.738,-40.527,-45.898
1683643774.850,-53.223,-29.297,-42.969,-54.688
1683643774.854,-55.664,-31.250,-41.016,-52.734
1683643774.856,-62.012,-32.715,-40.039,-62.012
1683643774.860,-65.430,-33.691,-38.574,-59.570
1683643774.864,-67.871,-37.598,-44.922,-51.758
1683643774.868,-69.336,-42.969,-50.293,-55.664
1683643774.872,-59.082,-36.133,-42.969,-50.293
1683643774.876,-55.176,-33.691,-33.691,-42.969
1683643774.880,-59.082,-38.574,-35.645,-35.645
1683643774.883,-54.688,-44.922,-45.898,-38.574
1683643774.887,-50.781,-45.410,-44.434,-39.551
1683643774.891,-52.734,-41.016,-37.598,-45.898
1683643774.895,-40.039,-36.621,-32.715,-37.109
1683643774.899,-34.668,-34.668,-29.785,-27.344
1683643774.901,-40.527,-33.691,-32.715,-33.691
1683643774.905,-47.363,-34.180,-42.969,-38.574
1683643774.909,-59.082,-43.945,-42.969,-36.621
1683643774.913,-55.664,-42.969,-38.086,-34.180
1683643774.917,-43.945,-37.109,-32.227,-36.133
1683643774.921,-50.781,-35.156,-34.180,-43.945
1683643774.925,-59.570,-40.527,-45.410,-48.828
1683643774.928,-46.387,-41.016,-44.434,-52.246
1683643774.932,-40.527,-36.621,-39.551,-60.547
1683643774.936,-42.969,-41.504,-39.551,-63.965
1683643774.940,-40.039,-43.457,-43.457,-60.547
1683643774.944,-51.758,-45.410,-53.223,-66.895
1683643774.946,-54.688,-41.992,-50.781,-67.871
1683643774.950,-56.641,-35.645,-40.527,-66.895
1683643774.954,-57.129,-35.156,-41.992,-55.176
1683643774.958,-47.363,-40.527,-45.410,-34.180
1683643774.962,-55.176,-41.504,-44.922,-38.574
1683643774.966,-71.777,-46.387,-45.898,-44.922
1683643774.970,-65.918,-47.852,-45.898,-32.715
1683643774.973,-44.434,-44.434,-41.504,-25.391
1683643774.977,-26.855,-37.109,-39.062,-35.645
1683643774.981,-32.227,-37.109,-40.527,-35.645
1683643774.985,-35.156,-42.480,-42.480,-32.715
1683643774.989,-40.039,-43.457,-40.039,-37.598
1683643775.006,-41.016,-40.527,-33.203,-37.109
1683643775.010,-32.227,-35.645,-31.738,-29.785
1683643775.014,-36.621,-34.668,-37.598,-29.785
1683643775.018,-38.574,-38.574,-41.992,-36.133
1683643775.022,-41.992,-41.016,-41.016,-43.457
1683643775.026,-45.898,-38.086,-35.156,-42.969
1683643775.030,-40.527,-36.621,-36.621,-44.434
1683643775.033,-36.133,-38.574,-39.551,-44.922
1683643775.037,-45.410,-37.109,-38.086,-44.434
1683643775.041,-42.480,-35.645,-39.062,-49.805
1683643775.045,-30.762,-34.180,-33.203,-39.551
1683643775.049,-34.180,-37.598,-31.250,-36.133
1683643775.006,-41.016,-40.527,-33.203,-37.109
1683643775.010,-32.227,-35.645,-31.738,-29.785
1683643775.014,-36.621,-34.668,-37.598,-29.785
1683643775.018,-38.574,-38.574,-41.992,-36.133
1683643775.022,-41.992,-41.016,-41.016,-43.457
1683643775.026,-45.898,-38.086,-35.156,-42.969
1683643775.030,-40.527,-36.621,-36.621,-44.434
1683643775.033,-36.133,-38.574,-39.551,-44.922
1683643775.037,-45.410,-37.109,-38.086,-44.434
1683643775.041,-42.480,-35.645,-39.062,-49.805
1683643775.045,-30.762,-34.180,-33.203,-39.551
1683643775.049,-34.180,-37.598,-31.250,-36.133
1683643775.051,-33.203,-38.086,-35.156,-29.297
1683643775.055,-24.902,-36.133,-36.133,-18.066
1683643775.059,-25.879,-35.645,-33.203,-21.973
1683643775.063,-30.762,-35.156,-30.762,-18.555
1683643775.067,-38.574,-36.621,-28.320,-21.973
1683643775.071,-35.645,-31.738,-24.414,-26.855
1683643775.075,-25.879,-30.762,-22.461,-20.508
1683643775.078,-28.320,-39.551,-24.414,-22.461
1683643775.082,-29.785,-41.992,-22.949,-16.113
1683643775.086,-27.344,-40.039,-23.926,-19.043
1683643775.090,-27.832,-37.598,-27.344,-17.578
1683643775.094,-28.320,-39.551,-31.738,-19.043
1683643775.051,-33.203,-38.086,-35.156,-29.297
1683643775.055,-24.902,-36.133,-36.133,-18.066
1683643775.059,-25.879,-35.645,-33.203,-21.973
1683643775.063,-30.762,-35.156,-30.762,-18.555
1683643775.067,-38.574,-36.621,-28.320,-21.973
1683643775.071,-35.645,-31.738,-24.414,-26.855
1683643775.075,-25.879,-30.762,-22.461,-20.508
1683643775.078,-28.320,-39.551,-24.414,-22.461
1683643775.082,-29.785,-41.992,-22.949,-16.113
1683643775.086,-27.344,-40.039,-23.926,-19.043
1683643775.090,-27.832,-37.598,-27.344,-17.578
1683643775.094,-28.320,-39.551,-31.738,-19.043
1683643775.096,-29.785,-41.504,-34.668,-28.320
1683643775.100,-30.762,-38.086,-27.344,-21.973
1683643775.104,-25.391,-34.668,-20.508,-15.137
1683643775.108,-20.508,-33.203,-23.438,-12.695
1683643775.112,-30.273,-28.809,-29.785,-20.508
1683643775.116,-37.109,-29.297,-32.715,-26.367
1683643775.120,-35.645,-30.762,-33.691,-24.902
1683643775.123,-41.016,-30.273,-35.156,-34.180
1683643775.127,-37.109,-29.785,-32.715,-42.480
1683643775.131,-38.086,-36.621,-41.504,-41.016
1683643775.135,-50.293,-41.016,-47.852,-45.410
1683643775.139,-54.199,-41.016,-43.945,-50.293
1683643775.606,-19.531,-39.551,-38.574,-35.156
1683643775.610,-26.367,-32.227,-35.156,-30.273
1683643775.614,-35.645,-31.250,-29.297,-26.367
1683643775.618,-46.387,-33.203,-31.250,-23.438
1683643775.622,-57.129,-27.832,-27.832,-12.207
1683643775.626,-59.082,-21.484,-26.367,-19.043
1683643775.630,-67.871,-27.344,-37.109,-24.902
1683643775.633,-81.055,-33.691,-37.109,-27.832
1683643775.637,-81.543,-33.691,-28.809,-33.691
1683643775.641,-86.426,-34.668,-28.809,-25.879
1683643775.645,-91.309,-30.762,-26.855,-23.926
1683643775.649,-92.285,-27.344,-20.996,-27.832
1683643775.141,-48.828,-41.016,-39.062,-43.457
1683643775.145,-41.504,-42.969,-41.992,-40.527
1683643775.149,-40.039,-42.480,-45.898,-36.621
1683643775.153,-35.645,-43.457,-39.551,-25.879
1683643775.157,-30.273,-41.992,-31.250,-17.090
1683643775.161,-24.414,-36.133,-29.785,-10.254
1683643775.165,-19.531,-28.809,-30.762,-6.836
1683643775.168,-17.578,-26.367,-35.156,-7.324
1683643775.172,-20.508,-38.574,-34.668,-4.395
1683643775.176,-26.855,-44.434,-35.156,-12.695
1683643775.180,-19.531,-39.551,-34.668,-17.090
1683643775.184,-15.137,-35.645,-32.227,-9.766
1683643775.141,-48.828,-41.016,-39.062,-43.457
1683643775.145,-41.504,-42.969,-41.992,-40.527
1683643775.149,-40.039,-42.480,-45.898,-36.621
1683643775.153,-35.645,-43.457,-39.551,-25.879
1683643775.157,-30.273,-41.992,-31.250,-17.090
1683643775.161,-24.414,-36.133,-29.785,-10.254
1683643775.165,-19.531,-28.809,-30.762,-6.836
1683643775.168,-17.578,-26.367,-35.156,-7.324
1683643775.172,-20.508,-38.574,-34.668,-4.395
1683643775.176,-26.855,-44.434,-35.156,-12.695
1683643775.180,-19.531,-39.551,-34.668,-17.090
1683643775.184,-15.137,-35.645,-32.227,-9.766
1683643775.186,-39.551,-39.551,-37.598,-29.785
1683643775.190,-49.316,-48.828,-38.574,-46.875
1683643775.194,-33.691,-44.922,-41.504,-31.738
1683643775.198,-37.598,-31.738,-51.270,-38.086
1683643775.202,-38.574,-24.414,-45.898,-45.410
1683643775.206,-44.434,-29.297,-34.668,-46.387
1683643775.210,-62.988,-40.039,-35.645,-65.430
1683643775.213,-57.129,-47.852,-41.992,-52.246
1683643775.217,-48.828,-42.969,-39.551,-35.645
1683643775.221,-41.504,-40.527,-37.109,-39.551
1683643775.225,-36.133,-41.016,-36.133,-40.039
1683643775.229,-40.527,-35.645,-37.109,-43.945
1683643775.231,-35.645,-27.344,-38.574,-43.945
1683643775.235,-38.086,-25.391,-34.180,-38.086
1683643775.239,-31.250,-29.785,-34.180,-36.133
1683643775.243,-25.391,-37.598,-40.039,-35.645
1683643775.247,-35.645,-40.039,-39.551,-29.785
1683643775.251,-44.922,-39.062,-31.250,-25.391
1683643775.255,-31.738,-40.527,-25.391,-13.672
1683643775.258,-21.973,-35.156,-35.156,-13.184
1683643775.262,-30.762,-28.809,-40.527,-23.926
1683643775.266,-44.434,-38.086,-43.945,-36.133
1683643775.270,-45.410,-38.086,-50.781,-41.016
1683643775.274,-39.062,-37.598,-48.340,-42.969
1683643775.277,-46.387,-39.062,-41.504,-49.316
1683643775.281,-59.570,-39.551,-37.598,-58.594
1683643775.285,-54.688,-41.992,-38.574,-52.246
1683643775.289,-45.410,-40.527,-42.969,-42.480
1683643775.293,-51.758,-29.297,-36.621,-44.922
1683643775.297,-52.246,-22.461,-32.715,-45.898
1683643775.301,-42.480,-35.156,-38.574,-47.363
1683643775.304,-45.898,-40.527,-41.992,-52.246
1683643775.308,-54.199,-31.738,-42.480,-56.641
1683643775.312,-52.246,-28.320,-39.062,-63.965
1683643775.316,-41.016,-26.367,-29.785,-46.387
1683643775.320,-31.738,-28.320,-30.273,-26.855
1683643775.277,-46.387,-39.062,-41.504,-49.316
1683643775.281,-59.570,-39.551,-37.598,-58.594
1683643775.285,-54.688,-41.992,-38.574,-52.246
1683643775.289,-45.410,-40.527,-42.969,-42.480
1683643775.293,-51.758,-29.297,-36.621,-44.922
1683643775.297,-52.246,-22.461,-32.715,-45.898
1683643775.301,-42.480,-35.156,-38.574,-47.363
1683643775.304,-45.898,-40.527,-41.992,-52.246
1683643775.308,-54.199,-31.738,-42.480,-56.641
1683643775.312,-52.246,-28.320,-39.062,-63.965
1683643775.316,-41.016,-26.367,-29.785,-46.387
1683643775.320,-31.738,-28.320,-30.273,-26.855
1683643775.321,-26.855,-31.738,-41.016,-26.855
1683643775.325,-24.902,-29.297,-42.480,-19.531
1683643775.329,-27.832,-28.809,-34.180,-19.531
1683643775.333,-26.855,-28.320,-28.320,-20.508
1683643775.337,-17.578,-25.391,-26.855,-14.648
1683643775.341,-13.184,-23.438,-31.250,-10.742
1683643775.345,-19.531,-28.320,-41.016,-12.695
1683643775.348,-25.391,-32.715,-37.109,-23.438
1683643775.352,-23.926,-27.344,-26.367,-23.926
1683643775.356,-20.508,-26.367,-25.391,-23.926
1683643775.360,-23.926,-27.832,-30.762,-26.855
1683643775.364,-33.691,-28.320,-32.715,-28.320
1683643775.381,-38.574,-27.832,-27.832,-35.645
1683643775.385,-39.062,-24.414,-27.832,-34.180
1683643775.389,-41.504,-28.809,-28.809,-36.133
1683643775.393,-50.781,-31.738,-28.320,-44.434
1683643775.397,-62.500,-33.691,-30.273,-46.387
1683643775.401,-53.711,-31.250,-30.273,-42.480
1683643775.405,-42.480,-25.879,-26.855,-36.133
1683643775.408,-38.086,-30.273,-22.461,-35.156
1683643775.412,-29.785,-27.344,-20.508,-38.086
1683643775.416,-29.297,-27.344,-36.133,-38.086
1683643775.420,-31.250,-31.250,-39.062,-29.297
1683643775.424,-29.785,-27.344,-31.250,-16.113
1683643775.426,-22.461,-31.250,-31.738,-2.441
1683643775.430,-14.160,-33.691,-33.203,-1.953
1683643775.434,-22.949,-34.668,-40.527,-7.324
1683643775.438,-33.691,-36.621,-44.922,-6.836
1683643775.442,-29.785,-34.180,-39.551,-1.465
1683643775.446,-26.855,-25.391,-33.691,-8.301
1683643775.450,-21.484,-22.461,-31.250,-17.578
1683643775.453,-14.648,-26.367,-33.691,-20.996
1683643775.457,-20.020,-27.832,-36.133,-24.414
1683643775.461,-29.297,-28.320,-37.598,-24.902
1683643775.465,-32.227,-24.902,-29.297,-32.227
1683643775.469,-25.879,-26.855,-24.902,-26.367
1683643775.471,-22.949,-26.367,-27.832,-26.367
1683643775.475,-22.949,-24.414,-30.762,-37.598
1683643775.479,-30.273,-31.250,-32.715,-38.574
1683643775.483,-46.875,-36.621,-35.156,-37.109
1683643775.487,-42.480,-38.086,-33.691,-36.621
1683643775.491,-34.180,-34.180,-29.785,-29.785
1683643775.495,-43.457,-33.691,-28.320,-35.156
1683643775.498,-41.504,-37.598,-27.832,-31.250
1683643775.502,-35.645,-39.551,-28.809,-17.578
1683643775.506,-30.762,-40.527,-26.367,-28.809
1683643775.510,-23.926,-37.598,-25.391,-34.668
1683643775.514,-21.973,-36.133,-29.297,-24.902
1683643775.516,-32.715,-39.062,-27.832,-24.902
1683643775.520,-32.227,-39.062,-21.973,-18.066
1683643775.524,-24.414,-34.668,-25.391,-15.625
1683643775.528,-24.902,-28.809,-27.344,-17.578
1683643775.532,-14.160,-24.902,-27.344,-13.184
1683643775.536,-14.160,-21.973,-24.902,-14.160
1683643775.540,-17.090,-20.996,-24.902,-12.695
1683643775.543,-11.230,-27.832,-30.273,-20.508
1683643775.547,-10.742,-27.832,-29.297,-23.926
1683643775.551,-20.020,-27.344,-31.738,-22.461
1683643775.555,-27.832,-29.785,-35.156,-30.762
1683643775.559,-34.180,-30.762,-30.762,-35.156
1683643775.561,-36.621,-35.156,-25.879,-41.016
1683643775.565,-42.480,-35.645,-25.879,-36.621
1683643775.569,-52.246,-37.598,-33.691,-32.227
1683643775.573,-55.664,-42.480,-40.527,-45.898
1683643775.577,-56.641,-38.086,-32.715,-46.875
1683643775.581,-56.152,-30.762,-24.902,-39.062
1683643775.585,-58.594,-32.715,-30.273,-47.363
1683643775.588,-58.105,-41.016,-39.551,-55.664
1683643775.592,-51.758,-43.457,-39.551,-47.363
1683643775.596,-56.152,-40.527,-36.133,-43.945
1683643775.600,-49.316,-41.016,-32.715,-39.551
1683643775.604,-30.273,-41.992,-35.645,-33.203
1683643775.651,-98.633,-28.809,-27.832,-37.109
1683643775.655,-89.844,-22.461,-28.809,-33.203
1683643775.659,-84.473,-23.438,-22.949,-29.785
1683643775.663,-87.891,-28.809,-28.320,-41.504
1683643775.667,-91.309,-25.391,-30.273,-46.875
1683643775.671,-87.402,-21.973,-29.297,-37.109
1683643775.675,-79.590,-24.902,-32.715,-37.109
1683643775.678,-72.266,-28.809,-30.273,-40.039
1683643775.682,-65.430,-26.367,-24.414,-35.645
1683643775.686,-69.336,-29.297,-29.297,-35.156
1683643775.690,-70.312,-35.645,-31.738,-29.785
1683643775.694,-66.895,-29.785,-23.438,-18.066
1683643775.651,-98.633,-28.809,-27.832,-37.109
1683643775.655,-89.844,-22.461,-28.809,-33.203
1683643775.659,-84.473,-23.438,-22.949,-29.785
1683643775.663,-87.891,-28.809,-28.320,-41.504
1683643775.667,-91.309,-25.391,-30.273,-46.875
1683643775.671,-87.402,-21.973,-29.297,-37.109
1683643775.675,-79.590,-24.902,-32.715,-37.109
1683643775.678,-72.266,-28.809,-30.273,-40.039
1683643775.682,-65.430,-26.367,-24.414,-35.645
1683643775.686,-69.336,-29.297,-29.297,-35.156
1683643775.690,-70.312,-35.645,-31.738,-29.785
1683643775.694,-66.895,-29.785,-23.438,-18.066
1683643775.651,-98.633,-28.809,-27.832,-37.109
1683643775.655,-89.844,-22.461,-28.809,-33.203
1683643775.659,-84.473,-23.438,-22.949,-29.785
1683643775.663,-87.891,-28.809,-28.320,-41.504
1683643775.667,-91.309,-25.391,-30.273,-46.875
1683643775.671,-87.402,-21.973,-29.297,-37.109
1683643775.675,-79.590,-24.902,-32.715,-37.109
1683643775.678,-72.266,-28.809,-30.273,-40.039
1683643775.682,-65.430,-26.367,-24.414,-35.645
1683643775.686,-69.336,-29.297,-29.297,-35.156
1683643775.690,-70.312,-35.645,-31.738,-29.785
1683643775.694,-66.895,-29.785,-23.438,-18.066
1683643775.696,-55.176,-24.902,-17.090,-6.348
1683643775.700,-59.082,-23.438,-20.020,-5.371
1683643775.704,-66.895,-20.996,-25.391,-10.742
1683643775.708,-56.152,-23.438,-27.344,-10.742
1683643775.712,-48.828,-22.949,-28.320,-11.719
1683643775.716,-50.781,-20.996,-26.855,-16.602
1683643775.720,-50.293,-24.902,-28.320,-26.855
1683643775.723,-48.828,-33.203,-35.645,-32.227
1683643775.727,-53.223,-29.785,-39.062,-37.109
1683643775.731,-52.734,-23.926,-38.574,-28.320
1683643775.735,-51.758,-26.855,-31.738,-25.879
1683643775.739,-56.641,-30.762,-27.832,-35.156
1683643775.696,-55.176,-24.902,-17.090,-6.348
1683643775.700,-59.082,-23.438,-20.020,-5.371
1683643775.704,-66.895,-20.996,-25.391,-10.742
1683643775.708,-56.152,-23.438,-27.344,-10.742
1683643775.712,-48.828,-22.949,-28.320,-11.719
1683643775.716,-50.781,-20.996,-26.855,-16.602
1683643775.720,-50.293,-24.902,-28.320,-26.855
1683643775.723,-48.828,-33.203,-35.645,-32.227
1683643775.727,-53.223,-29.785,-39.062,-37.109
1683643775.731,-52.734,-23.926,-38.574,-28.320
1683643775.735,-51.758,-26.855,-31.738,-25.879
1683643775.739,-56.641,-30.762,-27.832,-35.156
1683643775.756,-57.617,-34.180,-34.668,-42.969
1683643775.760,-65.430,-33.691,-35.156,-37.109
1683643775.764,-66.406,-28.809,-26.855,-36.621
1683643775.768,-57.617,-24.902,-21.484,-41.016
1683643775.772,-56.641,-27.344,-22.461,-30.762
1683643775.776,-61.523,-33.691,-27.344,-30.762
1683643775.780,-52.734,-32.715,-26.367,-27.344
1683643775.783,-41.504,-31.250,-19.043,-14.160
1683643775.787,-47.363,-34.668,-12.695,-25.879
1683643775.791,-47.852,-40.039,-16.602,-29.785
1683643775.795,-43.945,-34.668,-17.090,-14.160
1683643775.799,-44.922,-33.203,-16.602,-20.996
1683643775.756,-57.617,-34.180,-34.668,-42.969
1683643775.760,-65.430,-33.691,-35.156,-37.109
1683643775.764,-66.406,-28.809,-26.855,-36.621
1683643775.768,-57.617,-24.902,-21.484,-41.016
1683643775.772,-56.641,-27.344,-22.461,-30.762
1683643775.776,-61.523,-33.691,-27.344,-30.762
1683643775.780,-52.734,-32.715,-26.367,-27.344
1683643775.783,-41.504,-31.250,-19.043,-14.160
1683643775.787,-47.363,-34.668,-12.695,-25.879
1683643775.791,-47.852,-40.039,-16.602,-29.785
1683643775.795,-43.945,-34.668,-17.090,-14.160
1683643775.799,-44.922,-33.203,-16.602,-20.996
1683643775.801,-42.969,-35.156,-13.672,-19.043
1683643775.805,-40.527,-29.785,-11.230,-5.859
1683643775.809,-36.133,-24.414,-11.719,-7.324
1683643775.813,-34.668,-26.367,-15.625,-11.230
1683643775.817,-38.086,-25.391,-22.461,-19.531
1683643775.821,-31.738,-23.926,-24.902,-19.043
1683643775.825,-31.738,-25.879,-24.414,-33.691
1683643775.828,-41.504,-30.273,-29.785,-37.109
1683643775.832,-48.340,-34.668,-34.668,-31.738
1683643775.836,-65.430,-39.062,-41.992,-43.945
1683643775.840,-68.359,-35.645,-43.945,-43.457
1683643775.844,-51.270,-35.645,-35.156,-39.551
1683643775.846,-47.852,-35.156,-28.809,-40.527
1683643775.850,-54.199,-33.203,-31.250,-46.875
1683643775.854,-55.664,-33.691,-38.086,-50.293
1683643775.858,-55.176,-31.738,-36.621,-44.434
1683643775.862,-52.734,-31.250,-29.297,-42.480
1683643775.866,-48.340,-26.855,-25.879,-35.645
1683643775.870,-41.992,-28.320,-29.785,-25.391
1683643775.873,-35.156,-32.715,-32.715,-24.414
1683643775.877,-41.992,-34.668,-35.645,-26.855
1683643775.881,-43.457,-34.180,-25.391,-16.113
1683643775.885,-29.297,-29.785,-18.066,-6.348
1683643775.889,-27.832,-26.367,-25.879,-13.184
1683643775.891,-25.391,-28.809,-27.344,-8.301
1683643775.895,-26.367,-32.715,-26.855,-14.160
1683643775.899,-32.227,-29.297,-27.832,-24.414
1683643775.903,-29.297,-35.156,-28.809,-18.066
1683643775.907,-28.809,-31.738,-29.785,-20.020
1683643775.911,-31.250,-25.879,-33.203,-30.273
1683643775.915,-36.621,-25.391,-36.621,-30.762
1683643775.918,-39.062,-29.297,-39.551,-30.273
1683643775.922,-38.574,-31.738,-34.668,-35.156
1683643775.926,-36.621,-28.809,-30.762,-41.992
1683643775.930,-43.457,-28.320,-39.062,-46.387
1683643775.934,-47.363,-30.273,-46.387,-48.340
1683643775.936,-52.246,-33.691,-36.621,-52.734
1683643775.940,-63.477,-33.691,-33.203,-50.781
1683643775.944,-48.340,-30.273,-30.273,-39.062
1683643775.948,-29.785,-27.344,-25.391,-26.367
1683643775.952,-32.227,-26.855,-30.273,-20.996
1683643775.956,-33.691,-20.508,-31.250,-17.578
1683643775.960,-25.391,-24.902,-25.391,-16.602
1683643775.963,-21.973,-35.645,-29.785,-19.531
1683643775.967,-21.484,-35.645,-33.691,-16.113
1683643775.971,-24.414,-33.203,-33.203,-13.672
1683643775.975,-24.902,-30.762,-32.227,-21.973
1683643775.979,-31.250,-32.227,-31.738,-19.531
1683643775.981,-30.762,-32.227,-28.320,-18.066
1683643775.985,-31.250,-31.250,-27.344,-25.879
1683643775.989,-39.551,-31.738,-29.297,-31.738
1683643775.993,-40.527,-29.297,-26.367,-29.785
1683643775.997,-37.109,-26.855,-17.090,-27.832
1683643776.001,-51.270,-29.297,-14.160,-33.691
1683643776.005,-52.246,-31.250,-22.461,-46.387
1683643776.008,-45.410,-34.668,-27.832,-50.781
1683643776.012,-50.781,-30.273,-27.832,-44.922
1683643776.016,-48.340,-25.391,-19.531,-42.969
1683643776.020,-40.527,-23.926,-18.555,-49.805
1683643776.024,-41.992,-25.391,-33.691,-61.523
1683643776.026,-41.992,-22.949,-33.691,-52.246
1683643776.030,-39.062,-22.949,-24.902,-41.016
1683643776.034,-34.180,-25.879,-22.461,-36.621
1683643776.038,-28.320,-22.461,-22.949,-24.414
1683643776.042,-31.250,-22.949,-26.855,-18.555
1683643776.046,-29.297,-26.855,-33.691,-23.438
1683643776.050,-19.043,-31.738,-33.691,-33.203
1683643776.053,-17.578,-31.250,-29.785,-26.367
1683643776.057,-12.207,-21.973,-24.414,-22.461
1683643776.061,-11.230,-23.438,-29.785,-32.227
1683643776.065,-11.719,-19.531,-37.598,-17.090
1683643776.069,-7.812,-14.160,-38.574,-12.695
1683643776.071,-13.184,-18.066,-33.691,-18.066
1683643776.075,-20.020,-21.973,-30.273,-13.184
1683643776.079,-24.414,-23.438,-36.621,-26.855
1683643776.083,-31.738,-25.879,-41.992,-30.762
1683643776.087,-35.156,-26.367,-41.016,-33.203
1683643776.091,-39.551,-19.531,-35.645,-42.969
1683643776.095,-42.480,-24.414,-37.109,-45.410
1683643776.098,-42.480,-29.785,-40.039,-49.316
1683643776.102,-39.062,-27.832,-38.574,-51.758
1683643776.106,-33.691,-29.785,-38.086,-46.387
1683643776.110,-35.645,-28.320,-37.598,-36.621
1683643776.114,-40.039,-24.414,-34.180,-33.203
1683643776.131,-32.715,-25.391,-28.809,-33.691
1683643776.135,-24.414,-24.902,-30.273,-33.203
1683643776.139,-23.926,-26.367,-38.086,-33.691
1683643776.143,-21.484,-23.926,-38.086,-19.043
1683643776.147,-25.879,-22.949,-29.297,-19.531
1683643776.151,-23.438,-28.320,-23.926,-23.438
1683643776.155,-16.602,-31.250,-28.320,-23.438
1683643776.158,-24.902,-34.668,-32.227,-25.391
1683643776.162,-32.227,-29.297,-26.855,-21.484
1683643776.166,-33.203,-30.273,-27.344,-21.484
1683643776.170,-33.691,-33.203,-29.785,-25.391
1683643776.174,-36.133,-29.785,-25.391,-32.227
1683643776.176,-45.410,-33.203,-27.344,-37.109
1683643776.180,-52.734,-33.691,-30.762,-45.410
1683643776.184,-54.688,-31.250,-32.227,-46.387
1683643776.188,-51.758,-30.273,-37.109,-39.062
1683643776.192,-55.664,-26.367,-39.062,-44.434
1683643776.196,-55.176,-24.902,-38.086,-43.945
1683643776.200,-48.828,-31.250,-39.062,-42.969
1683643776.203,-48.340,-35.645,-38.086,-41.016
1683643776.207,-40.527,-32.227,-33.691,-34.180
1683643776.211,-33.691,-30.762,-34.668,-25.879
1683643776.215,-35.645,-32.227,-39.062,-23.438
1683643776.219,-35.156,-31.250,-38.574,-26.855
1683643776.221,-28.809,-30.762,-33.203,-22.949
1683643776.225,-25.879,-30.273,-29.297,-14.648
1683643776.229,-22.949,-25.879,-29.297,-9.277
1683643776.233,-20.508,-30.273,-32.715,-14.648
1683643776.237,-25.391,-31.250,-27.344,-15.625
1683643776.241,-26.367,-23.438,-23.926,-16.602
1683643776.245,-25.391,-25.879,-22.949,-25.879
1683643776.248,-21.973,-30.273,-23.926,-12.695
1683643776.252,-19.043,-27.344,-30.762,-11.719
1683643776.256,-27.344,-30.273,-34.180,-29.785
1683643776.260,-34.668,-33.203,-26.367,-31.250
1683643776.264,-33.203,-26.855,-22.461,-26.367
1683643776.266,-30.762,-22.949,-28.809,-26.367
1683643776.270,-37.109,-25.391,-31.250,-32.227
1683643776.274,-35.645,-28.320,-33.203,-42.480
1683643776.278,-37.598,-30.273,-25.391,-44.434
1683643776.282,-41.504,-28.809,-18.066,-34.668
1683643776.286,-29.785,-26.367,-20.020,-30.273
1683643776.290,-24.902,-28.809,-29.785,-30.762
1683643776.293,-22.461,-29.785,-35.645,-36.133
1683643776.297,-13.672,-29.785,-28.320,-21.484
1683643776.301,-4.395,-26.855,-20.508,0.977
1683643776.305,-4.395,-27.832,-20.020,-2.930
1683643776.309,-10.254,-31.250,-31.738,-4.395
1683643776.311,-15.137,-30.762,-36.621,-7.324
1683643776.315,-17.578,-29.785,-27.832,-13.184
1683643776.319,-15.137,-31.250,-22.461,-1.953
1683643776.323,-24.414,-31.738,-20.508,3.418
1683643776.327,-20.020,-29.785,-27.832,-2.930
1683643776.331,-13.184,-25.879,-29.785,-5.859
1683643776.335,-24.902,-25.879,-25.879,-13.672
1683643776.338,-28.809,-30.273,-22.461,-19.043
1683643776.342,-29.297,-26.367,-20.508,-14.160
1683643776.346,-36.621,-26.855,-30.762,-22.949
1683643776.350,-34.668,-26.855,-36.621,-25.391
1683643776.354,-29.785,-27.832,-32.227,-17.578
1683643776.356,-36.621,-32.227,-30.273,-22.949
1683643776.360,-38.086,-26.855,-29.785,-20.508
1683643776.364,-35.156,-25.879,-31.738,-21.973
1683643776.368,-37.109,-27.832,-33.203,-28.809
1683643776.372,-39.062,-28.320,-32.715,-25.391
1683643776.376,-37.598,-29.785,-26.855,-28.320
1683643776.380,-24.414,-25.391,-24.902,-15.625
1683643776.383,-13.184,-24.902,-29.785,-4.395
1683643776.387,-16.113,-28.320,-26.367,-13.184
1683643776.391,-24.414,-33.203,-32.227,-17.578
1683643776.395,-25.391,-35.645,-33.691,-13.184
1683643776.399,-13.672,-32.715,-28.809,-14.160
1683643776.401,-13.672,-26.367,-24.902,-15.625
1683643776.405,-18.555,-25.879,-26.367,-1.953
1683643776.409,-31.250,-34.180,-31.738,-10.254
1683643776.413,-37.109,-39.551,-33.203,-21.973
1683643776.417,-22.461,-36.621,-30.762,-25.391
1683643776.421,-16.602,-24.414,-25.879,-28.809
1683643776.425,-24.414,-25.391,-34.180,-32.227
1683643776.428,-32.227,-36.133,-41.016,-29.297
1683643776.432,-39.062,-33.203,-35.645,-35.156
1683643776.436,-40.039,-32.715,-33.203,-34.180
1683643776.440,-36.621,-37.598,-33.691,-39.062
1683643776.444,-41.504,-38.086,-37.109,-56.641
1683643776.446,-43.457,-38.086,-41.016,-61.035
1683643776.450,-41.504,-40.039,-34.668,-57.129
1683643776.454,-43.945,-34.180,-32.227,-67.383
1683643776.458,-49.805,-39.551,-37.109,-77.148
1683643776.462,-45.898,-43.945,-36.621,-64.453
1683643776.466,-39.062,-40.527,-36.133,-62.012
1683643776.470,-42.480,-43.457,-39.062,-67.871
1683643776.473,-40.527,-44.434,-33.203,-66.895
1683643776.477,-32.715,-44.434,-33.203,-58.105
1683643776.481,-26.367,-40.039,-37.109,-52.246
1683643776.485,-21.484,-37.598,-40.039,-52.734
1683643776.489,-15.137,-43.945,-38.086,-55.664
1683643776.506,-15.625,-43.457,-29.785,-45.898
1683643776.510,-17.578,-38.086,-32.715,-27.344
1683643776.514,-20.020,-44.922,-39.551,-39.062
1683643776.518,-27.832,-49.805,-41.016,-46.875
1683643776.522,-33.203,-44.922,-37.109,-44.922
1683643776.526,-30.273,-41.504,-34.180,-47.852
1683643776.530,-31.250,-48.340,-38.086,-51.758
1683643776.533,-40.039,-53.223,-42.480,-55.664
1683643776.537,-40.527,-50.781,-44.434,-52.734
1683643776.541,-46.387,-58.594,-46.875,-51.270
1683643776.545,-54.688,-53.711,-40.039,-45.898
1683643776.549,-53.711,-47.363,-33.203,-47.363
1683643776.551,-54.688,-49.805,-32.227,-47.852
1683643776.555,-56.641,-50.293,-32.227,-46.875
1683643776.559,-55.664,-48.340,-32.227,-46.387
1683643776.563,-59.570,-47.363,-32.715,-40.527
1683643776.567,-55.176,-46.875,-34.668,-38.086
1683643776.571,-37.598,-41.016,-33.691,-31.250
1683643776.575,-33.203,-37.109,-35.645,-34.668
1683643776.578,-27.344,-41.992,-39.062,-35.156
1683643776.582,-20.508,-43.945,-39.062,-25.879
1683643776.586,-22.949,-40.527,-38.086,-25.391
1683643776.590,-19.531,-37.109,-41.016,-26.367
1683643776.594,-17.578,-38.574,-49.805,-26.855
1683643776.596,-23.438,-40.527,-44.922,-24.902
1683643776.600,-20.996,-40.527,-36.621,-23.926
1683643776.604,-20.996,-35.156,-37.109,-33.203
1683643776.608,-24.902,-34.180,-38.086,-38.574
1683643776.612,-17.578,-36.621,-40.527,-40.039
1683643776.616,-20.508,-34.180,-41.992,-45.410
1683643776.620,-21.973,-33.203,-40.527,-41.992
1683643776.623,-20.508,-35.156,-41.992,-30.273
1683643776.627,-23.438,-33.691,-41.504,-24.414
1683643776.631,-33.691,-30.273,-46.387,-43.945
1683643776.635,-36.621,-29.785,-50.781,-49.316
1683643776.639,-37.598,-31.738,-42.969,-43.457
1683643776.641,-48.828,-34.668,-35.156,-46.387
1683643776.645,-46.387,-33.203,-34.668,-44.922
1683643776.649,-34.668,-29.785,-34.668,-41.504
1683643776.653,-35.156,-30.762,-38.574,-41.504
1683643776.657,-40.527,-28.320,-41.504,-33.203
1683643776.661,-32.715,-19.531,-35.645,-33.691
1683643776.665,-24.414,-19.531,-29.785,-30.273
1683643776.668,-23.438,-25.879,-40.039,-25.391
1683643776.672,-24.902,-26.855,-49.805,-32.227
1683643776.676,-30.762,-25.391,-45.410,-32.227
1683643776.680,-28.320,-27.832,-35.156,-20.996
1683643776.684,-13.184,-26.855,-29.785,-12.695
1683643776.686,-19.043,-24.414,-34.668,-22.949
1683643776.690,-22.461,-25.879,-39.062,-28.320
1683643776.694,-18.555,-28.809,-40.527,-26.855
1683643776.698,-19.531,-26.855,-39.062,-23.926
1683643776.702,-21.973,-25.391,-41.504,-30.273
1683643776.706,-12.695,-24.414,-39.551,-34.180
1683643776.710,-13.184,-26.367,-42.480,-28.320
1683643776.713,-22.949,-32.227,-43.945,-29.785
1683643776.717,-27.832,-29.785,-37.109,-32.715
1683643776.721,-29.785,-27.832,-35.156,-34.180
1683643776.725,-36.621,-33.203,-37.598,-35.645
1683643776.729,-39.062,-31.738,-40.527,-39.551
1683643776.731,-34.668,-27.832,-36.133,-37.109
1683643776.735,-38.574,-27.832,-32.227,-38.086
1683643776.739,-32.715,-24.902,-23.926,-28.809
1683643776.743,-21.973,-26.855,-24.414,-24.414
1683643776.747,-21.973,-26.855,-26.367,-33.203
1683643776.751,-26.367,-25.391,-25.391,-33.203
1683643776.755,-26.855,-24.902,-27.344,-34.180
1683643776.758,-23.438,-31.738,-26.367,-34.668
1683643776.762,-20.996,-31.250,-26.367,-29.297
1683643776.766,-22.461,-24.414,-27.832,-17.578
1683643776.770,-20.996,-22.461,-27.832,-15.137
1683643776.774,-18.555,-27.344,-29.297,-21.973
1683643776.776,-18.066,-25.879,-25.879,-23.926
1683643776.780,-22.949,-20.996,-22.461,-20.020
1683643776.784,-30.762,-25.391,-25.391,-20.996
1683643776.788,-34.180,-28.320,-33.691,-30.762
1683643776.792,-31.250,-22.949,-28.320,-29.297
1683643776.796,-25.391,-22.949,-22.949,-28.320
1683643776.800,-20.996,-24.902,-25.879,-29.297
1683643776.803,-21.973,-23.438,-25.391,-31.738
1683643776.807,-30.762,-22.949,-29.297,-32.227
1683643776.811,-31.738,-22.949,-29.297,-36.621
1683643776.815,-25.879,-18.555,-20.020,-35.156
1683643776.819,-28.320,-20.508,-20.508,-19.531
1683643776.821,-34.180,-24.414,-32.227,-26.855
1683643776.825,-31.250,-18.555,-32.715,-28.320
1683643776.829,-23.926,-14.648,-27.344,-21.973
1683643776.833,-20.020,-20.508,-24.902,-22.461
1683643776.837,-17.090,-21.973,-19.531,-11.230
1683643776.841,-15.625,-25.391,-19.043,-3.418
1683643776.845,-7.812,-35.645,-25.879,2.930
1683643776.848,-3.906,-30.273,-32.227,-0.977
1683643776.852,-13.184,-18.066,-30.273,-11.719
1683643776.856,-13.672,-15.137,-28.809,-5.859
1683643776.860,-6.348,-15.137,-27.832,1.465
1683643776.864,-15.625,-22.461,-29.785,-10.742
1683643776.881,-34.668,-25.879,-30.273,-32.227
1683643776.885,-39.062,-24.902,-25.879,-32.715
1683643776.889,-29.785,-20.508,-25.879,-25.391
1683643776.893,-25.879,-14.648,-30.273,-17.090
1683643776.897,-29.297,-15.625,-34.180,-24.902
1683643776.901,-47.852,-20.020,-39.062,-44.922
1683643776.905,-52.246,-20.508,-36.133,-41.992
1683643776.908,-49.316,-22.949,-26.855,-35.645
1683643776.912,-53.223,-31.250,-25.391,-38.574
1683643776.916,-53.223,-33.691,-37.109,-40.039
1683643776.920,-59.570,-25.879,-44.434,-48.828
1683643776.924,-58.594,-26.367,-33.691,-43.945
1683643776.926,-44.922,-30.273,-21.484,-27.344
1683643776.930,-38.086,-22.461,-21.973,-27.344
1683643776.934,-39.551,-15.137,-28.809,-35.645
1683643776.938,-38.086,-17.578,-37.109,-34.180
1683643776.942,-45.898,-22.949,-32.715,-32.227
1683643776.946,-46.875,-25.391,-23.926,-22.949
1683643776.950,-23.438,-23.926,-30.273,-14.160
1683643776.953,-11.719,-22.949,-36.133,-19.531
1683643776.957,-19.043,-27.832,-33.691,-15.625
1683643776.961,-33.203,-32.715,-34.180,-11.719
1683643776.965,-23.438,-30.762,-30.762,-11.230
1683643776.969,-10.742,-28.320,-30.273,-17.578
1683643776.971,-17.578,-21.484,-32.715,-32.715
1683643776.975,-32.715,-20.020,-41.016,-46.387
1683643776.979,-24.414,-20.996,-41.992,-41.016
1683643776.983,-12.207,-25.391,-32.715,-36.133
1683643776.987,-22.461,-23.438,-28.320,-39.551
1683643776.991,-44.434,-26.855,-30.762,-54.688
1683643776.995,-52.246,-41.992,-39.062,-67.383
1683643776.998,-40.527,-50.293,-39.551,-59.082
1683643777.002,-40.527,-52.246,-29.785,-47.852
1683643777.006,-44.434,-57.617,-21.484,-42.969
1683643777.010,-50.293,-63.477,-21.484,-41.504
1683643777.014,-51.758,-61.523,-24.902,-34.180
1683643777.016,-51.758,-56.641,-26.367,-25.391
1683643777.020,-54.688,-60.547,-26.855,-28.320
1683643777.024,-45.410,-56.641,-19.531,-18.066
1683643777.028,-32.715,-42.969,-17.578,-11.230
1683643777.032,-25.879,-39.062,-23.438,-13.184
1683643777.036,-28.320,-38.574,-26.367,-13.672
1683643777.040,-26.855,-41.992,-28.809,-16.113
1683643777.043,-23.438,-43.945,-30.762,-15.625
1683643777.047,-25.391,-40.039,-31.250,-20.996
1683643777.051,-20.996,-40.527,-38.086,-26.367
1683643777.055,-27.344,-37.598,-41.504,-27.344
1683643777.059,-34.668,-38.574,-40.527,-36.621
1683643777.061,-33.203,-35.645,-37.598,-38.086
1683643777.065,-36.133,-33.203,-31.738,-36.133
1683643777.069,-39.551,-41.992,-34.180,-42.969
1683643777.073,-40.527,-38.574,-41.992,-51.758
1683643777.077,-46.387,-33.203,-35.156,-54.688
1683643777.081,-50.293,-30.273,-28.809,-49.805
1683643777.085,-46.875,-26.855,-30.273,-32.227
1683643777.088,-41.016,-30.762,-35.645,-29.785
1683643777.092,-43.945,-29.297,-37.109,-27.832
1683643777.096,-48.828,-28.809,-31.738,-20.508
1683643777.100,-41.016,-25.879,-24.414,-18.555
1683643777.104,-36.621,-19.531,-23.438,-10.254
1683643777.106,-42.480,-20.996,-27.832,-9.277
1683643777.110,-36.133,-21.973,-32.715,-8.789
1683643777.114,-27.832,-27.832,-35.156,-4.395
1683643777.118,-24.414,-27.344,-27.344,-6.348
1683643777.122,-12.695,-17.578,-18.555,0.488
1683643777.126,-11.230,-14.648,-20.508,5.371
1683643777.130,-23.926,-20.508,-31.738,-8.789
1683643777.133,-27.344,-26.855,-35.645,-24.414
1683643777.137,-28.809,-29.297,-25.391,-33.203
1683643777.141,-27.344,-26.367,-25.391,-34.180
1683643777.145,-16.113,-20.508,-30.273,-20.996
1683643777.149,-16.602,-20.508,-30.273,-24.902
1683643777.151,-23.926,-20.996,-28.320,-39.551
1683643777.155,-23.926,-19.043,-24.902,-47.852
1683643777.159,-28.809,-23.926,-21.484,-43.945
1683643777.163,-40.039,-24.414,-30.762,-48.340
1683643777.167,-42.480,-20.996,-37.598,-50.293
1683643777.171,-38.086,-24.414,-32.227,-41.016
1683643777.175,-45.898,-32.715,-29.785,-47.363
1683643777.178,-46.387,-32.227,-32.227,-43.945
1683643777.182,-25.391,-26.855,-29.297,-34.180
1683643777.186,-17.090,-23.438,-30.762,-33.691
1683643777.190,-28.320,-27.344,-33.691,-31.738
1683643777.194,-25.879,-29.785,-32.227,-35.156
1683643777.151,-23.926,-20.996,-28.320,-39.551
1683643777.155,-23.926,-19.043,-24.902,-47.852
1683643777.159,-28.809,-23.926,-21.484,-43.945
1683643777.163,-40.039,-24.414,-30.762,-48.340
1683643777.167,-42.480,-20.996,-37.598,-50.293
1683643777.171,-38.086,-24.414,-32.227,-41.016
1683643777.175,-45.898,-32.715,-29.785,-47.363
1683643777.178,-46.387,-32.227,-32.227,-43.945
1683643777.182,-25.391,-26.855,-29.297,-34.180
1683643777.186,-17.090,-23.438,-30.762,-33.691
1683643777.190,-28.320,-27.344,-33.691,-31.738
1683643777.194,-25.879,-29.785,-32.227,-35.156
1683643777.196,-22.949,-25.391,-30.273,-37.598
1683643777.200,-34.180,-23.926,-30.273,-38.086
1683643777.204,-42.480,-22.461,-37.598,-44.922
1683643777.208,-32.227,-22.461,-41.992,-39.062
1683643777.212,-16.113,-16.113,-32.227,-19.531
1683643777.216,-8.301,-14.160,-23.438,-11.230
1683643777.220,-15.137,-23.926,-30.273,-20.508
1683643777.223,-27.344,-30.273,-37.598,-29.785
1683643777.227,-30.273,-23.438,-37.109,-41.992
1683643777.231,-29.297,-19.043,-36.133,-41.992
1683643777.235,-31.250,-17.578,-37.109,-43.945
1683643777.239,-29.785,-13.184,-34.668,-39.062
1683643777.256,-32.715,-14.648,-33.691,-42.969
1683643777.260,-43.945,-20.020,-38.086,-46.387
1683643777.264,-33.691,-18.066,-31.738,-35.645
1683643777.268,-25.879,-26.367,-28.809,-41.992
1683643777.272,-28.320,-28.809,-30.762,-44.922
1683643777.276,-30.273,-16.602,-33.691,-33.203
1683643777.280,-30.273,-22.461,-38.086,-29.785
1683643777.283,-29.297,-28.320,-34.180,-29.785
1683643777.287,-26.367,-20.020,-20.508,-22.461
1683643777.291,-22.949,-22.461,-20.996,-14.648
1683643777.295,-14.160,-24.414,-26.855,-10.742
1683643777.299,-7.812,-22.461,-26.855,-11.719
1683643777.301,-11.230,-20.996,-25.391,-3.906
1683643777.305,-24.414,-22.949,-21.484,-5.859
1683643777.309,-23.926,-22.461,-23.438,-17.090
1683643777.313,-18.555,-21.484,-32.715,-25.879
1683643777.317,-24.414,-19.531,-36.621,-24.414
1683643777.321,-28.320,-11.230,-26.855,-32.227
1683643777.325,-24.414,-8.789,-21.484,-26.367
1683643777.328,-26.855,-19.043,-27.344,-26.855
1683643777.332,-33.203,-23.438,-26.367,-41.504
1683643777.336,-34.180,-20.996,-28.320,-45.410
1683643777.340,-36.133,-22.949,-31.738,-38.086
1683643777.344,-35.645,-23.438,-28.320,-29.785
1683643777.301,-11.230,-20.996,-25.391,-3.906
1683643777.305,-24.414,-22.949,-21.484,-5.859
1683643777.309,-23.926,-22.461,-23.438,-17.090
1683643777.313,-18.555,-21.484,-32.715,-25.879
1683643777.317,-24.414,-19.531,-36.621,-24.414
1683643777.321,-28.320,-11.230,-26.855,-32.227
1683643777.325,-24.414,-8.789,-21.484,-26.367
1683643777.328,-26.855,-19.043,-27.344,-26.855
1683643777.332,-33.203,-23.438,-26.367,-41.504
1683643777.336,-34.180,-20.996,-28.320,-45.410
1683643777.340,-36.133,-22.949,-31.738,-38.086
1683643777.344,-35.645,-23.438,-28.320,-29.785
1683643777.346,-33.691,-18.555,-23.926,-25.391
1683643777.350,-40.039,-17.090,-31.250,-25.879
1683643777.354,-42.969,-19.043,-39.551,-23.438
1683643777.358,-35.645,-24.414,-36.621,-19.043
1683643777.362,-29.785,-20.996,-24.902,-9.277
1683643777.366,-22.949,-13.184,-21.973,-0.488
1683643777.370,-19.043,-16.602,-31.738,-4.395
1683643777.373,-17.090,-20.996,-36.133,6.836
1683643777.377,-17.090,-24.902,-36.621,11.719
1683643777.381,-20.020,-29.297,-32.715,15.137
1683643777.385,-11.230,-25.391,-22.949,29.785
1683643777.389,-0.488,-20.996,-21.973,24.414
1683643777.391,-4.395,-19.043,-31.250,7.324
1683643777.395,-8.301,-18.066,-28.320,4.395
1683643777.399,-10.254,-19.531,-25.391,-2.441
1683643777.403,-14.160,-20.508,-24.902,-10.742
1683643777.407,-11.230,-21.973,-18.555,-5.371
1683643777.411,-14.160,-20.996,-16.602,-15.625
1683643777.415,-23.926,-15.625,-19.531,-27.344
1683643777.418,-33.691,-18.066,-22.949,-21.484
1683643777.422,-40.527,-20.508,-24.414,-34.668
1683643777.426,-33.691,-13.184,-23.926,-43.945
1683643777.430,-28.809,-16.113,-24.414,-39.551
1683643777.434,-37.109,-23.926,-28.809,-37.109
1683643777.436,-37.109,-25.879,-23.926,-40.039
1683643777.440,-20.996,-22.949,-13.184,-38.086
1683643777.444,-19.531,-18.555,-12.695,-17.578
1683643777.448,-30.762,-24.902,-25.391,-21.973
1683643777.452,-30.273,-27.344,-26.367,-33.691
1683643777.456,-29.785,-20.020,-20.020,-30.273
1683643777.460,-25.391,-19.043,-15.137,-24.902
1683643777.463,-21.484,-17.578,-16.602,-18.066
1683643777.467,-12.695,-19.043,-20.996,-7.324
1683643777.471,-8.301,-16.113,-18.555,1.953
1683643777.475,-20.996,-14.160,-24.414,-6.348
1683643777.479,-17.090,-16.113,-27.344,-5.371
1683643777.481,-7.812,-15.137,-20.508,-2.441
1683643777.485,-17.090,-15.625,-21.484,-7.812
1683643777.489,-24.902,-20.020,-26.367,-16.113
1683643777.493,-19.043,-23.438,-27.832,-25.391
1683643777.497,-18.555,-22.461,-21.484,-16.602
1683643777.501,-21.484,-15.625,-18.066,-20.996
1683643777.505,-23.926,-15.137,-22.949,-35.645
1683643777.508,-28.320,-19.043,-31.250,-39.551
1683643777.512,-33.691,-19.531,-26.367,-47.852
1683643777.516,-30.762,-19.531,-16.113,-42.480
1683643777.520,-27.832,-19.531,-16.602,-41.016
1683643777.524,-24.414,-15.137,-18.066,-35.156
1683643777.526,-18.066,-10.254,-20.508,-31.738
1683643777.530,-25.879,-13.184,-20.996,-36.621
1683643777.534,-27.344,-21.973,-18.555,-28.320
1683643777.538,-11.230,-20.508,-14.648,-17.090
1683643777.542,-7.812,-17.578,-17.578,-7.812
1683643777.546,-14.160,-16.602,-24.902,-10.254
1683643777.550,-18.066,-23.438,-29.297,-6.836
1683643777.553,-19.531,-24.414,-23.926,-2.441
1683643777.557,-15.137,-12.695,-12.207,11.230
1683643777.561,-20.020,-16.113,-10.254,17.090
1683643777.565,-23.926,-18.555,-14.160,12.695
1683643777.569,-27.832,-17.578,-15.625,-0.977
1683643777.571,-32.715,-15.625,-10.742,-8.301
1683643777.575,-27.832,-11.230,-6.836,-4.883
1683643777.579,-28.809,-11.230,-6.836,-9.766
1683643777.583,-37.109,-18.555,-13.184,-21.484
1683643777.587,-40.039,-25.391,-19.043,-23.926
1683643777.591,-46.875,-26.367,-20.020,-29.297
1683643777.595,-50.293,-26.855,-22.949,-30.762
1683643777.598,-47.363,-22.461,-18.066,-30.762
1683643777.602,-47.363,-21.484,-16.113,-32.227
1683643777.606,-49.316,-23.926,-21.973,-30.762
1683643777.610,-40.039,-22.461,-19.531,-31.250
1683643777.614,-26.855,-25.879,-14.648,-30.762
1683643777.631,-26.855,-29.297,-14.648,-26.855
1683643777.635,-24.414,-22.949,-19.531,-26.855
1683643777.639,-23.926,-21.973,-24.414,-22.949
1683643777.643,-32.227,-27.344,-26.367,-27.832
1683643777.647,-36.133,-26.855,-19.531,-25.391
1683643777.651,-24.902,-28.809,-21.973,-20.020
1683643777.655,-17.090,-28.320,-28.320,-21.973
1683643777.658,-16.602,-23.926,-29.297,-15.137
1683643777.662,-12.695,-20.508,-24.902,-12.207
1683643777.666,-11.230,-19.531,-20.996,-9.766
1683643777.670,-18.066,-19.531,-15.625,-14.648
1683643777.674,-23.926,-24.414,-17.090,-18.555
1683643777.677,-32.227,-24.902,-23.926,-24.414
1683643777.681,-36.621,-21.973,-28.320,-39.551
1683643777.685,-39.062,-25.391,-24.902,-43.945
1683643777.689,-43.457,-28.320,-22.461,-45.410
1683643777.693,-43.945,-23.926,-19.043,-40.527
1683643777.697,-38.574,-17.578,-17.090,-31.250
1683643777.701,-26.855,-12.695,-18.555,-25.879
1683643777.704,-26.367,-13.672,-16.113,-21.484
1683643777.708,-35.645,-19.531,-15.137,-19.043
1683643777.712,-30.273,-16.602,-18.555,-19.043
1683643777.716,-23.438,-16.602,-24.414,-20.996
1683643777.720,-29.785,-22.461,-22.461,-14.648
1683643777.721,-29.785,-22.461,-11.230,-6.348
1683643777.725,-22.461,-20.996,-0.977,-2.441
1683643777.729,-13.672,-17.578,0.000,10.742
1683643777.733,-16.113,-19.531,-6.348,17.578
1683643777.737,-18.066,-20.020,-5.371,12.695
1683643777.741,-7.812,-11.719,-1.953,6.836
1683643777.745,-3.418,-6.836,-2.930,1.465
1683643777.748,-11.230,-14.648,-3.906,-11.719
1683643777.752,-22.461,-15.625,-9.277,-29.785
1683643777.756,-26.855,-9.766,-16.113,-37.109
1683643777.760,-27.344,-12.695,-12.695,-28.320
1683643777.764,-30.762,-21.973,-5.371,-22.461
1683643777.766,-34.180,-23.438,-2.930,-30.273
1683643777.770,-34.668,-17.090,-12.695,-42.480
1683643777.774,-32.715,-18.066,-18.555,-46.875
1683643777.778,-31.738,-23.438,-10.254,-30.762
1683643777.782,-34.668,-21.973,-2.930,-23.926
1683643777.786,-39.062,-18.555,-7.812,-37.109
1683643777.790,-29.297,-13.184,-14.648,-28.320
1683643777.793,-19.043,-9.766,-21.484,-24.902
1683643777.797,-20.020,-8.789,-22.461,-16.602
1683643777.801,-22.949,-12.695,-7.324,-13.672
1683643777.805,-23.438,-18.555,3.906,-24.902
1683643777.809,-15.625,-13.672,-5.371,-8.301
1683643777.811,-19.531,-13.672,-22.949,-15.625
1683643777.815,-18.555,-20.020,-18.066,-25.879
1683643777.819,-2.930,-8.789,-6.348,-20.508
1683643777.823,0.488,-5.859,-8.301,-26.367
1683643777.827,-0.977,-10.254,-13.672,-36.133
1683643777.831,-15.625,-13.184,-16.602,-60.059
1683643777.835,-24.902,-22.949,-13.672,-55.664
1683643777.838,-15.137,-23.926,-14.160,-41.504
1683643777.842,-17.578,-17.578,-7.324,-51.270
1683643777.846,-5.859,-12.207,-7.324,-51.270
1683643777.850,-5.859,-14.648,-14.648,-59.570
1683643777.854,-11.719,-17.090,-14.648,-60.547
1683643777.856,-2.930,-15.625,-10.254,-49.316
1683643777.860,-5.371,-7.812,-3.906,-57.129
1683643777.864,-9.766,-1.465,-10.742,-63.477
1683643777.868,-6.348,-8.789,-24.902,-60.547
1683643777.872,-12.695,-16.113,-24.414,-56.641
1683643777.876,-24.902,-12.207,-22.461,-64.941
1683643777.880,-12.207,-19.531,-20.996,-44.434
1683643777.883,3.906,-23.926,-20.020,-20.508
1683643777.887,2.930,-13.672,-19.043,-31.250
1683643777.891,4.395,-8.301,-15.625,-27.344
1683643777.895,8.301,-13.672,-15.625,-14.648
1683643777.899,9.277,-15.625,-13.672,-8.301
1683643777.901,10.742,-13.184,-17.090,-10.254
1683643777.905,5.371,-15.137,-21.484,-13.672
1683643777.909,11.230,-11.230,-19.531,-2.441
1683643777.913,13.184,-7.812,-14.648,5.859
1683643777.917,7.812,-7.812,-11.230,1.465
1683643777.921,4.395,-12.207,-8.301,0.488
1683643777.925,-3.906,-16.602,-17.578,-0.977
1683643777.928,-14.648,-14.160,-21.973,-10.742
1683643777.932,-24.414,-8.301,-15.625,-23.926
1683643777.936,-24.414,-12.207,-21.484,-31.250
1683643777.940,-16.602,-16.602,-23.438,-29.297
1683643777.944,-17.090,-20.996,-20.508,-27.832
1683643777.947,-21.484,-18.555,-22.461,-26.367
1683643777.951,-18.555,-16.113,-20.996,-19.043
1683643777.955,-18.555,-16.113,-17.090,-16.602
1683643777.959,-17.578,-12.695,-10.742,-12.207
1683643777.963,-6.348,-2.930,-5.859,-5.371
1683643777.967,3.906,7.812,-9.277,-10.742
1683643777.971,9.277,9.277,-10.254,-5.859
1683643777.974,16.602,8.789,-3.906,15.137
1683643777.978,15.625,7.812,2.441,24.902
1683643777.982,26.367,11.230,10.742,37.598
1683643777.986,34.180,9.277,7.324,35.156
1683643777.990,26.367,13.184,-4.395,26.855
1683643778.006,33.691,18.066,-3.418,37.598
1683643778.010,31.738,8.789,7.324,39.062
1683643778.014,13.672,-3.418,8.789,27.832
1683643778.018,3.418,0.488,-5.371,11.230
1683643778.022,-9.766,11.719,-15.625,-6.836
1683643778.026,-3.418,6.348,-8.301,-7.324
1683643778.030,11.719,-1.465,-4.395,-3.906
1683643778.033,3.418,-4.883,-4.395,4.395
1683643778.037,-15.137,-10.254,-4.883,-2.441
1683643778.041,-35.645,-15.137,-13.184,-36.133
1683643778.045,-42.969,-18.555,-13.184,-34.668
1683643778.049,-33.203,-15.137,-10.254,-15.625
1683643778.051,-33.203,-4.883,-20.508,-27.832
1683643778.055,-45.898,-1.953,-22.461,-34.180
1683643778.059,-52.246,-5.371,-12.207,-35.156
1683643778.063,-40.527,-8.789,-8.789,-37.109
1683643778.067,-31.738,-8.301,-5.371,-24.902
1683643778.071,-24.414,-4.395,-1.953,-9.766
1683643778.075,-21.973,-0.977,-11.719,-11.230
1683643778.078,-27.832,1.953,-21.484,-15.137
1683643778.082,-20.508,2.441,-18.555,-11.230
1683643778.086,-6.836,-3.418,-16.113,0.977
1683643778.090,5.371,-5.371,-11.230,9.277
1683643778.094,11.719,-7.812,-5.859,11.719
1683643778.096,6.836,-3.418,-13.184,3.906
1683643778.100,3.906,4.395,-25.391,-11.230
1683643778.104,-1.953,2.441,-28.809,-9.766
1683643778.108,4.395,4.395,-19.043,1.953
1683643778.112,10.254,6.836,-12.695,5.371
1683643778.116,6.348,0.488,-11.230,-4.395
1683643778.120,1.465,-7.324,-10.742,-12.207
1683643778.123,-2.441,0.000,-9.277,-16.113
1683643778.127,-9.766,4.883,-9.766,-25.391
1683643778.131,-15.137,-4.395,-14.648,-31.738
1683643778.135,-14.648,-0.977,-13.672,-26.367
1683643778.139,-19.531,-6.348,-13.184,-15.137
1683643778.141,-27.832,-14.160,-9.766,-21.973
1683643778.145,-29.297,-6.348,-8.301,-34.668
1683643778.149,-22.949,3.418,-10.742,-34.668
1683643778.153,-16.602,2.930,-15.137,-26.367
1683643778.157,-18.066,-2.930,-18.066,-11.230
1683643778.161,-26.855,2.930,-16.602,-19.043
1683643778.165,-27.344,6.836,-15.625,-28.809
1683643778.168,-19.043,-0.977,-18.555,-21.484
1683643778.172,-8.301,-5.371,-20.508,-5.859
1683643778.176,-1.953,-3.906,-19.043,1.953
1683643778.180,-3.906,-2.930,-18.066,-0.488
1683643778.184,-2.930,-6.348,-20.508,-3.418
1683643778.186,4.883,2.441,-19.043,-5.371
1683643778.190,3.418,10.254,-24.902,-11.719
1683643778.194,0.488,2.441,-21.973,1.953
1683643778.198,8.789,-2.930,-10.742,16.602
1683643778.202,5.859,-0.488,-4.395,13.672
1683643778.206,-13.672,8.789,-11.230,-2.930
1683643778.210,-11.230,12.695,-22.949,-11.230
1683643778.213,-2.930,0.977,-25.879,-1.953
1683643778.217,-4.395,2.441,-12.207,3.418
1683643778.221,-7.812,6.836,-0.977,7.812
1683643778.225,-10.254,2.930,-2.930,1.953
1683643778.229,-19.531,6.836,-12.207,-4.395
1683643778.231,-24.902,6.348,-19.531,-11.719
1683643778.235,-21.973,3.906,-11.230,-12.695
1683643778.239,-16.113,3.418,-8.301,-5.371
1683643778.243,-17.578,2.930,-11.230,-10.254
1683643778.247,-18.066,7.324,-17.090,-22.461
1683643778.251,-7.324,11.230,-18.066,-7.812
1683643778.255,-6.348,5.371,-6.348,6.348
1683643778.258,-7.324,-4.395,3.418,12.207
1683643778.262,5.371,1.465,4.395,20.020
1683643778.266,2.930,10.742,-3.418,12.207
1683643778.270,-9.766,7.324,-10.742,3.418
1683643778.274,0.000,6.836,-6.836,13.184
1683643778.276,3.418,8.789,-5.371,6.836
1683643778.280,-11.719,-0.488,-5.859,-0.488
1683643778.284,-18.555,-10.254,-4.395,9.766
1683643778.288,-20.508,-10.742,-8.789,8.789
1683643778.292,-26.855,-0.977,-15.625,-6.348
1683643778.296,-26.855,5.371,-11.719,-15.137
1683643778.300,-20.020,0.488,-6.836,-2.930
1683643778.303,-27.832,-15.137,-8.301,3.418
1683643778.307,-25.879,-13.184,-6.348,4.395
1683643778.311,-27.344,-2.441,-15.137,-10.254
1683643778.315,-36.133,-3.906,-19.043,-18.066
1683643778.319,-27.344,-2.441,-7.812,4.395
1683643778.321,-19.043,-5.859,-8.301,12.695
1683643778.325,-18.555,-13.184,-17.090,5.859
1683643778.329,-17.090,-8.301,-21.973,-0.977
1683643778.333,-19.531,-10.254,-20.996,-1.465
1683643778.337,-9.277,-11.719,-16.602,0.000
1683643778.341,-0.977,-7.812,-12.695,6.348
1683643778.345,-11.230,-15.625,-17.090,9.766
1683643778.348,-15.625,-22.461,-16.602,11.230
1683643778.352,-14.160,-16.602,-16.602,13.672
1683643778.356,-14.648,-8.789,-20.508,6.836
1683643778.360,-22.949,-9.766,-20.508,-4.395
1683643778.364,-32.227,-15.137,-27.832,-14.160
1683643778.381,-29.785,-16.602,-29.297,-3.418
1683643778.385,-31.250,-22.461,-20.508,0.000
1683643778.389,-34.180,-24.902,-16.602,-9.766
1683643778.393,-32.715,-19.531,-16.113,-0.488
1683643778.397,-39.062,-18.555,-18.066,-7.324
1683643778.401,-39.062,-18.555,-24.414,-17.090
1683643778.405,-38.574,-20.020,-23.438,-7.812
1683643778.408,-38.574,-18.555,-16.602,-5.859
1683643778.412,-36.621,-12.207,-14.648,-4.883
1683643778.416,-43.945,-13.184,-27.344,-16.113
1683643778.420,-47.852,-16.113,-32.227,-17.090
1683643778.424,-37.598,-23.438,-24.414,-13.672
1683643778.426,-27.832,-20.996,-17.090,-9.277
1683643778.430,-20.020,-12.207,-15.137,-11.719
1683643778.434,-20.508,-12.695,-18.555,-17.090
1683643778.438,-21.973,-21.973,-21.973,-7.324
1683643778.442,-23.438,-30.762,-9.766,5.859
1683643778.446,-32.715,-20.508,-12.207,-0.977
1683643778.450,-41.504,-18.555,-26.855,-10.742
1683643778.453,-31.738,-25.879,-28.809,-0.977
1683643778.457,-35.645,-21.484,-28.320,-7.324
1683643778.461,-41.016,-18.066,-27.344,-12.695
1683643778.465,-35.645,-19.531,-21.484,-9.766
1683643778.469,-28.809,-24.414,-18.555,-8.301
1683643778.471,-29.297,-17.090,-18.555,-11.719
1683643778.475,-35.645,-15.137,-24.414,-18.555
1683643778.479,-39.062,-20.020,-31.738,-24.902
1683643778.483,-38.574,-23.438,-28.320,-29.297
1683643778.487,-37.598,-24.414,-20.020,-27.344
1683643778.491,-42.969,-30.273,-19.531,-32.227
1683643778.495,-51.270,-35.156,-24.414,-44.922
1683643778.498,-51.758,-33.691,-27.832,-44.922
1683643778.502,-44.434,-27.832,-23.926,-40.039
1683643778.506,-38.574,-28.809,-22.949,-43.945
1683643778.510,-34.180,-28.809,-24.902,-52.734
1683643778.514,-33.203,-28.320,-32.227,-67.871
1683643778.516,-36.621,-30.273,-32.715,-46.875
1683643778.520,-39.551,-27.344,-18.555,-35.156
1683643778.524,-33.203,-24.902,-16.602,-41.016
1683643778.528,-19.531,-23.926,-22.461,-40.527
1683643778.532,-22.461,-19.043,-24.902,-41.016
1683643778.536,-27.344,-18.066,-24.902,-33.203
1683643778.540,-22.949,-20.020,-19.531,-27.832
1683643778.543,-29.297,-23.926,-20.020,-38.086
1683643778.547,-31.738,-26.367,-24.414,-55.176
1683643778.551,-24.414,-21.484,-23.926,-54.199
1683643778.555,-25.391,-23.438,-28.320,-57.129
1683643778.559,-41.016,-28.320,-34.668,-69.336
1683643778.516,-36.621,-30.273,-32.715,-46.875
1683643778.520,-39.551,-27.344,-18.555,-35.156
1683643778.524,-33.203,-24.902,-16.602,-41.016
1683643778.528,-19.531,-23.926,-22.461,-40.527
1683643778.532,-22.461,-19.043,-24.902,-41.016
1683643778.536,-27.344,-18.066,-24.902,-33.203
1683643778.540,-22.949,-20.020,-19.531,-27.832
1683643778.543,-29.297,-23.926,-20.020,-38.086
1683643778.547,-31.738,-26.367,-24.414,-55.176
1683643778.551,-24.414,-21.484,-23.926,-54.199
1683643778.555,-25.391,-23.438,-28.320,-57.129
1683643778.559,-41.016,-28.320,-34.668,-69.336
1683643778.561,-39.551,-22.461,-26.855,-57.617
1683643778.565,-25.879,-22.461,-22.949,-53.711
1683643778.569,-28.809,-23.438,-28.809,-64.941
1683643778.573,-34.668,-23.438,-33.691,-67.383
1683643778.577,-33.203,-22.461,-32.715,-70.312
1683643778.581,-31.738,-14.160,-27.344,-72.754
1683643778.585,-36.133,-17.578,-25.879,-71.289
1683643778.588,-29.785,-25.879,-32.227,-66.895
1683643778.592,-28.320,-25.879,-35.156,-60.059
1683643778.596,-38.574,-28.320,-33.691,-62.500
1683643778.600,-33.691,-27.344,-29.297,-56.152
1683643778.604,-27.344,-28.320,-25.879,-44.922
1683643778.606,-28.320,-32.227,-29.297,-49.805
1683643778.610,-26.855,-30.762,-31.738,-46.875
1683643778.614,-30.273,-29.785,-31.250,-45.898
1683643778.618,-42.480,-36.133,-30.762,-49.805
1683643778.622,-43.945,-37.109,-22.461,-38.574
1683643778.626,-32.227,-31.738,-20.020,-29.297
1683643778.630,-34.180,-33.203,-27.832,-43.945
1683643778.633,-46.387,-44.434,-33.691,-59.082
1683643778.637,-49.805,-42.969,-28.809,-52.734
1683643778.641,-49.316,-42.480,-27.344,-48.828
1683643778.645,-52.734,-44.922,-35.156,-51.270
1683643778.649,-59.082,-47.363,-45.410,-53.223
1683643778.606,-28.320,-32.227,-29.297,-49.805
1683643778.610,-26.855,-30.762,-31.738,-46.875
1683643778.614,-30.273,-29.785,-31.250,-45.898
1683643778.618,-42.480,-36.133,-30.762,-49.805
1683643778.622,-43.945,-37.109,-22.461,-38.574
1683643778.626,-32.227,-31.738,-20.020,-29.297
1683643778.630,-34.180,-33.203,-27.832,-43.945
1683643778.633,-46.387,-44.434,-33.691,-59.082
1683643778.637,-49.805,-42.969,-28.809,-52.734
1683643778.641,-49.316,-42.480,-27.344,-48.828
1683643778.645,-52.734,-44.922,-35.156,-51.270
1683643778.649,-59.082,-47.363,-45.410,-53.223
1683643778.651,-67.383,-44.922,-47.852,-58.105
1683643778.655,-59.570,-36.133,-38.574,-50.781
1683643778.659,-46.875,-34.668,-31.738,-43.945
1683643778.663,-48.340,-36.621,-39.062,-49.805
1683643778.667,-59.082,-38.574,-41.016,-57.129
1683643778.671,-62.012,-40.527,-40.039,-51.270
1683643778.675,-59.082,-43.457,-43.457,-51.270
1683643778.678,-54.688,-46.875,-46.387,-46.387
1683643778.682,-50.293,-46.875,-44.922,-44.922
1683643778.686,-50.781,-45.898,-46.875,-45.410
1683643778.690,-52.734,-48.828,-51.758,-38.086
1683643778.694,-55.176,-53.223,-51.758,-39.551
1683643778.697,-52.734,-51.270,-42.969,-42.480
1683643778.701,-55.176,-48.828,-39.062,-41.992
1683643778.705,-58.105,-52.734,-40.039,-36.133
1683643778.709,-63.477,-58.105,-45.410,-42.480
1683643778.713,-70.312,-57.129,-44.922,-49.316
1683643778.717,-71.289,-53.711,-44.922,-44.922
1683643778.721,-66.406,-56.641,-54.688,-50.781
1683643778.724,-68.848,-62.012,-64.453,-63.477
1683643778.728,-74.219,-63.477,-62.500,-65.430
1683643778.732,-71.777,-60.059,-53.711,-68.848
1683643778.736,-81.055,-63.965,-52.734,-65.918
1683643778.740,-79.102,-63.477,-53.223,-51.270
1683643778.756,-60.547,-59.570,-49.316,-46.387
1683643778.760,-65.430,-59.082,-55.664,-55.664
1683643778.764,-72.266,-60.059,-56.152,-64.453
1683643778.768,-66.406,-59.570,-47.852,-62.500
1683643778.772,-53.711,-51.758,-40.527,-57.129
1683643778.776,-53.711,-48.828,-44.922,-57.129
1683643778.780,-62.500,-52.246,-51.758,-64.453
1683643778.783,-63.965,-57.129,-51.270,-61.523
1683643778.787,-65.430,-59.570,-48.828,-50.293
1683643778.791,-63.477,-67.383,-50.293,-52.246
1683643778.795,-60.059,-62.988,-53.711,-53.223
1683643778.799,-58.105,-55.664,-50.781,-47.363
1683643778.801,-55.664,-49.316,-45.410,-46.875
1683643778.805,-55.664,-44.922,-41.016,-46.875
1683643778.809,-50.293,-43.457,-40.039,-41.992
1683643778.813,-47.363,-49.316,-40.039,-47.852
1683643778.817,-48.828,-52.246,-42.969,-61.523
1683643778.821,-54.688,-43.945,-41.992,-62.500
1683643778.825,-48.828,-44.922,-34.180,-49.805
1683643778.828,-46.875,-52.734,-32.715,-49.805
1683643778.832,-59.570,-53.223,-35.645,-61.523
1683643778.836,-64.453,-52.734,-40.527,-59.570
1683643778.840,-60.547,-44.922,-38.574,-50.781
1683643778.844,-58.105,-40.527,-31.738,-44.434
1683643778.846,-57.129,-40.527,-29.297,-40.039
1683643778.850,-55.664,-43.457,-33.691,-42.480
1683643778.854,-52.734,-39.062,-35.645,-42.969
1683643778.858,-49.805,-39.551,-36.133,-46.387
1683643778.862,-58.594,-46.387,-41.504,-50.293
1683643778.866,-46.387,-43.945,-33.691,-41.016
1683643778.870,-39.551,-45.898,-35.645,-36.621
1683643778.873,-51.758,-49.316,-44.922,-45.410
1683643778.877,-57.129,-47.852,-41.992,-48.828
1683643778.881,-59.570,-50.293,-41.992,-35.645
1683643778.885,-52.734,-55.176,-40.527,-37.109
1683643778.889,-49.316,-57.617,-43.457,-46.875
1683643778.892,-59.082,-57.617,-49.316,-54.199
1683643778.896,-62.012,-56.152,-53.223,-63.965
1683643778.900,-62.988,-58.105,-48.828,-62.500
1683643778.904,-69.824,-59.082,-43.457,-61.523
1683643778.908,-66.895,-54.199,-45.410,-57.617
1683643778.912,-65.430,-48.340,-44.922,-57.617
1683643778.916,-79.102,-55.176,-49.316,-69.824
1683643778.919,-86.914,-61.035,-56.152,-71.289
1683643778.923,-75.195,-60.059,-49.316,-49.805
1683643778.927,-59.570,-61.523,-45.898,-39.062
1683643778.931,-59.082,-59.570,-55.176,-41.016
1683643778.935,-59.082,-53.711,-59.570,-43.457
1683643778.936,-59.082,-48.828,-56.152,-40.527
1683643778.940,-54.688,-47.363,-44.434,-33.203
1683643778.944,-42.480,-48.340,-41.504,-34.668
1683643778.948,-42.969,-55.664,-51.758,-33.203
1683643778.952,-50.293,-54.688,-55.664,-41.992
1683643778.956,-50.781,-49.316,-50.781,-43.945
1683643778.960,-48.340,-50.293,-49.316,-36.621
1683643778.963,-52.734,-55.664,-51.270,-48.828
1683643778.967,-52.734,-55.664,-53.711,-49.316
1683643778.971,-54.199,-53.223,-61.035,-42.480
1683643778.975,-63.477,-56.152,-62.500,-43.457
1683643778.979,-51.270,-52.734,-59.570,-35.645
1683643778.981,-46.875,-55.176,-50.781,-27.344
1683643778.985,-65.918,-57.129,-52.246,-45.898
1683643778.989,-60.059,-41.992,-65.430,-47.852
1683643778.993,-44.434,-42.969,-61.035,-22.461
1683643778.997,-59.082,-54.688,-41.504,-25.391
1683643779.001,-68.359,-49.316,-41.016,-39.551
1683643779.005,-60.059,-36.133,-59.082,-48.828
1683643779.008,-52.734,-35.645,-72.754,-47.363
1683643779.012,-62.500,-44.434,-65.430,-44.434
1683643779.016,-78.613,-49.805,-55.176,-59.570
1683643779.020,-74.707,-51.758,-52.734,-53.223
1683643779.024,-53.711,-55.176,-48.828,-31.250
1683643778.981,-46.875,-55.176,-50.781,-27.344
1683643778.985,-65.918,-57.129,-52.246,-45.898
1683643778.989,-60.059,-41.992,-65.430,-47.852
1683643778.993,-44.434,-42.969,-61.035,-22.461
1683643778.997,-59.082,-54.688,-41.504,-25.391
1683643779.001,-68.359,-49.316,-41.016,-39.551
1683643779.005,-60.059,-36.133,-59.082,-48.828
1683643779.008,-52.734,-35.645,-72.754,-47.363
1683643779.012,-62.500,-44.434,-65.430,-44.434
1683643779.016,-78.613,-49.805,-55.176,-59.570
1683643779.020,-74.707,-51.758,-52.734,-53.223
1683643779.024,-53.711,-55.176,-48.828,-31.250
1683643779.026,-43.945,-45.898,-50.781,-28.320
1683643779.030,-51.270,-39.551,-59.570,-32.715
1683643779.034,-58.105,-46.387,-63.965,-42.480
1683643779.038,-44.922,-45.410,-60.547,-45.410
1683643779.042,-35.645,-41.504,-57.129,-29.297
1683643779.046,-34.180,-37.109,-57.617,-26.367
1683643779.050,-46.387,-37.598,-62.012,-26.855
1683643779.053,-62.988,-47.363,-58.105,-27.344
1683643779.057,-58.105,-48.340,-44.922,-32.715
1683643779.061,-54.688,-43.457,-51.758,-39.551
1683643779.065,-67.871,-45.898,-60.059,-41.504
1683643779.069,-67.871,-48.828,-55.176,-42.969
1683643779.071,-68.848,-45.898,-49.316,-46.387
1683643779.075,-76.172,-43.945,-52.734,-45.898
1683643779.079,-67.871,-43.945,-45.410,-30.762
1683643779.083,-59.082,-48.340,-37.598,-25.391
1683643779.087,-68.848,-42.480,-49.805,-42.480
1683643779.091,-66.406,-31.738,-57.129,-46.875
1683643779.095,-54.199,-38.574,-49.805,-41.504
1683643779.098,-57.129,-44.922,-39.551,-39.551
1683643779.102,-59.570,-39.062,-41.504,-38.086
1683643779.106,-69.336,-41.016,-48.340,-48.340
1683643779.110,-76.172,-45.410,-40.527,-55.664
1683643779.114,-58.594,-40.039,-36.621,-37.109
1683643779.132,-35.156,-34.668,-39.551,-20.508
1683643779.136,-34.180,-32.715,-46.875,-21.973
1683643779.140,-33.691,-37.109,-50.293,-15.137
1683643779.144,-29.785,-41.016,-42.969,-3.906
1683643779.148,-32.227,-32.715,-38.574,-17.578
1683643779.152,-24.414,-22.461,-42.480,-25.879
1683643779.156,-32.227,-26.367,-42.969,-19.043
1683643779.159,-54.688,-37.109,-44.922,-26.367
1683643779.163,-53.223,-40.527,-46.387,-33.203
1683643779.167,-44.434,-38.574,-38.574,-27.832
1683643779.171,-47.363,-41.504,-33.691,-27.344
1683643779.175,-50.293,-44.922,-36.621,-38.574
1683643779.176,-62.500,-44.434,-41.504,-48.828
1683643779.180,-74.707,-47.363,-41.016,-57.129
1683643779.184,-58.105,-50.293,-32.715,-45.898
1683643779.188,-43.945,-49.316,-26.855,-29.297
1683643779.192,-45.410,-39.551,-30.273,-29.785
1683643779.196,-46.875,-30.762,-38.086,-29.297
1683643779.200,-50.293,-32.227,-42.480,-31.250
1683643779.203,-57.617,-38.086,-36.621,-37.598
1683643779.207,-68.359,-41.016,-35.645,-48.340
1683643779.211,-60.547,-42.480,-37.109,-41.504
1683643779.215,-40.527,-46.875,-37.109,-34.668
1683643779.219,-36.133,-46.387,-42.480,-32.715
1683643779.221,-26.367,-33.203,-40.527,-33.203
1683643779.225,-20.020,-29.785,-40.527,-51.270
1683643779.229,-12.207,-31.250,-42.969,-47.852
1683643779.233,-12.207,-29.297,-44.922,-57.129
1683643779.237,-28.809,-30.273,-41.016,-68.359
1683643779.241,-34.180,-34.180,-34.180,-65.430
1683643779.245,-37.598,-33.203,-30.273,-73.242
1683643779.248,-33.203,-32.715,-23.926,-72.754
1683643779.252,-25.879,-32.227,-31.250,-84.961
1683643779.256,-40.527,-31.250,-41.992,-96.191
1683643779.260,-62.500,-37.598,-35.156,-104.492
1683643779.264,-64.941,-40.527,-29.785,-111.328
1683643779.266,-55.176,-40.039,-29.785,-93.750
1683643779.270,-49.316,-39.551,-35.156,-83.496
1683643779.274,-40.527,-34.668,-42.969,-75.195
1683643779.278,-53.223,-36.133,-45.898,-80.078
1683643779.282,-60.059,-38.574,-42.480,-89.355
1683643779.286,-49.316,-32.715,-39.062,-80.566
1683643779.290,-52.734,-37.598,-38.574,-76.172
1683643779.293,-62.500,-43.945,-42.480,-70.801
1683643779.297,-68.359,-37.598,-44.922,-79.102
1683643779.301,-52.246,-38.574,-40.039,-71.777
1683643779.305,-32.715,-38.574,-35.645,-53.223
1683643779.309,-29.297,-33.203,-42.480,-46.875
1683643779.311,-24.902,-31.250,-44.434,-38.574
1683643779.315,-35.645,-31.738,-40.527,-51.270
1683643779.319,-49.316,-32.715,-42.480,-65.430
1683643779.323,-51.270,-36.133,-43.457,-69.336
1683643779.327,-40.527,-42.969,-41.504,-66.406
1683643779.331,-36.133,-52.734,-47.363,-54.199
1683643779.335,-36.133,-46.387,-47.852,-46.875
1683643779.338,-40.527,-35.156,-50.293,-55.664
1683643779.342,-49.316,-37.109,-45.410,-71.777
1683643779.346,-60.547,-39.062,-38.086,-81.055
1683643779.350,-70.801,-38.086,-42.969,-84.961
1683643779.354,-65.430,-41.016,-48.340,-73.730
1683643779.356,-52.246,-38.086,-45.410,-51.270
1683643779.360,-45.898,-31.250,-46.875,-48.828
1683643779.364,-59.082,-35.156,-46.875,-60.547
1683643779.368,-70.801,-42.480,-42.969,-57.617
1683643779.372,-69.336,-45.410,-41.992,-53.223
1683643779.376,-59.570,-39.551,-37.598,-50.781
1683643779.380,-42.969,-30.762,-30.762,-30.762
1683643779.383,-34.668,-26.367,-34.180,-14.160
1683643779.387,-34.180,-32.227,-38.086,-19.531
1683643779.391,-54.688,-48.340,-41.992,-34.180
1683643779.395,-51.758,-48.828,-45.410,-29.785
1683643779.399,-32.715,-35.645,-41.016,-8.301
1683643779.401,-29.785,-33.203,-41.992,-5.371
1683643779.405,-34.668,-38.574,-50.293,-6.348
1683643779.409,-47.852,-41.504,-44.922,-19.043
1683643779.413,-49.805,-38.574,-39.551,-36.621
1683643779.417,-43.945,-34.180,-38.086,-34.180
1683643779.421,-38.086,-36.133,-38.086,-41.016
1683643779.425,-38.086,-32.227,-47.363,-49.805
1683643779.428,-46.387,-35.645,-51.758,-39.062
1683643779.432,-56.641,-45.410,-39.062,-32.715
1683643779.436,-58.594,-41.992,-32.715,-32.715
1683643779.440,-51.270,-35.156,-38.574,-22.949
1683643779.444,-49.316,-31.250,-44.922,-17.578
1683643779.447,-51.270,-29.297,-49.805,-28.809
1683643779.451,-46.875,-35.645,-45.410,-24.414
1683643779.455,-56.152,-43.945,-33.203,-23.926
1683643779.459,-60.547,-44.922,-32.715,-22.461
1683643779.463,-53.711,-32.227,-33.691,-17.578
1683643779.467,-46.387,-21.973,-38.574,-32.715
1683643779.471,-41.016,-34.668,-47.852,-34.668
1683643779.474,-35.645,-41.992,-42.480,-15.137
1683643779.478,-29.785,-41.992,-33.691,-8.301
1683643779.482,-28.809,-35.156,-36.133,-13.184
1683643779.486,-23.438,-27.344,-41.016,-6.836
1683643779.490,-18.555,-33.203,-44.434,-9.277
1683643779.506,-20.020,-32.227,-36.133,-15.137
1683643779.510,-29.785,-33.203,-30.273,-10.742
1683643779.514,-34.668,-39.551,-28.809,-13.672
1683643779.518,-33.691,-43.457,-30.273,-24.414
1683643779.522,-37.598,-41.992,-35.156,-25.391
1683643779.526,-46.875,-36.133,-35.645,-33.691
1683643779.530,-44.434,-34.180,-34.180,-41.016
1683643779.533,-49.316,-39.551,-37.598,-40.527
1683643779.537,-61.035,-42.480,-37.109,-46.387
1683643779.541,-62.012,-41.016,-34.668,-62.988
1683643779.545,-53.223,-41.504,-32.715,-65.430
1683643779.549,-44.434,-39.551,-36.621,-53.711
1683643779.551,-61.035,-41.504,-40.039,-65.430
1683643779.555,-68.848,-42.969,-39.062,-67.383
1683643779.559,-65.918,-44.434,-39.062,-55.176
1683643779.563,-67.871,-50.781,-36.621,-48.828
1683643779.567,-62.012,-53.223,-32.715,-34.180
1683643779.571,-48.340,-47.852,-23.926,-32.715
1683643779.575,-39.551,-41.992,-27.832,-22.949
1683643779.578,-35.645,-39.062,-35.645,-11.719
1683643779.582,-40.527,-43.945,-32.227,-20.020
1683643779.586,-41.504,-45.410,-28.809,-21.484
1683643779.590,-22.461,-35.645,-25.391,-9.277
1683643779.594,-13.672,-32.715,-22.949,10.742
1683643779.596,-23.438,-33.203,-22.949,12.207
1683643779.600,-34.668,-28.320,-24.414,-8.301
1683643779.604,-36.621,-34.180,-18.066,4.883
1683643779.608,-31.250,-42.969,-9.766,7.324
1683643779.612,-33.203,-41.992,-22.949,-16.113
1683643779.616,-40.039,-37.598,-32.227,-17.090
1683643779.620,-47.363,-42.969,-22.949,-18.555
1683643779.623,-55.664,-47.852,-18.066,-30.762
1683643779.627,-50.293,-46.387,-20.996,-28.809
1683643779.631,-43.945,-40.527,-28.809,-31.250
1683643779.635,-50.293,-33.691,-30.762,-42.969
1683643779.639,-67.871,-37.598,-32.715,-53.711
1683643779.641,-77.148,-41.504,-25.391,-48.340
1683643779.645,-61.035,-38.086,-14.648,-24.414
1683643779.649,-48.828,-38.086,-20.020,-23.926
1683643779.653,-51.758,-39.551,-28.809,-21.484
1683643779.657,-41.016,-41.016,-32.715,-18.555
1683643779.661,-42.480,-38.086,-28.320,-28.320
1683643779.665,-51.270,-40.039,-24.902,-28.809
1683643779.668,-27.832,-37.598,-27.344,-23.438
1683643779.672,-13.672,-32.227,-30.762,-24.414
1683643779.676,-23.438,-37.109,-34.180,-36.133
1683643779.680,-27.832,-36.621,-34.180,-31.738
1683643779.684,-25.391,-35.645,-34.180,-17.578
1683643779.686,-18.555,-33.203,-34.180,-19.531
1683643779.690,-24.902,-31.738,-35.156,-32.227
1683643779.694,-32.227,-35.156,-33.691,-36.621
1683643779.698,-34.668,-38.086,-30.762,-32.715
1683643779.702,-41.016,-34.668,-25.879,-36.621
1683643779.706,-43.945,-27.832,-22.949,-44.434
1683643779.710,-40.527,-30.762,-26.367,-41.016
1683643779.713,-50.781,-33.203,-30.273,-46.387
1683643779.717,-61.523,-29.297,-24.902,-57.129
1683643779.721,-55.176,-33.691,-19.043,-51.270
1683643779.725,-46.387,-34.180,-17.578,-50.781
1683643779.729,-39.551,-32.227,-15.137,-40.039
1683643779.731,-42.969,-30.273,-13.672,-24.414
1683643779.735,-56.152,-30.273,-5.371,-30.273
1683643779.739,-45.898,-40.039,0.488,-21.973
1683643779.743,-14.648,-38.086,-5.859,-10.254
1683643779.747,-11.230,-23.438,-14.160,-13.672
1683643779.751,-17.578,-20.996,-12.207,-13.672
1683643779.755,-9.766,-23.438,-10.742,-8.301
1683643779.758,-13.184,-24.414,-20.996,-10.742
1683643779.762,-14.648,-26.367,-17.090,-15.137
1683643779.766,0.000,-23.926,-10.742,-10.254
1683643779.770,-6.348,-21.484,-13.672,-14.160
1683643779.774,-18.555,-25.391,-18.555,-19.531
1683643779.776,-23.926,-34.668,-15.137,-21.973
1683643779.780,-29.785,-37.109,-10.742,-20.508
1683643779.784,-29.297,-35.156,-7.812,-16.113
1683643779.788,-32.715,-34.668,-13.672,-16.602
1683643779.792,-35.156,-29.297,-17.578,-26.855
1683643779.796,-37.109,-31.250,-12.695,-30.273
1683643779.800,-26.855,-38.574,-9.766,-17.090
1683643779.803,-21.484,-33.691,-14.648,-9.277
1683643779.807,-30.273,-23.438,-17.090,-14.160
1683643779.811,-37.109,-21.973,-19.531,-21.973
1683643779.815,-48.828,-30.762,-20.020,-27.344
1683643779.819,-54.688,-34.668,-14.648,-27.832
1683643779.822,-46.387,-30.273,-15.625,-29.297
1683643779.826,-48.340,-32.715,-22.461,-25.391
1683643779.830,-47.852,-33.203,-22.461,-17.578
1683643779.834,-39.062,-28.320,-17.090,-14.160
1683643779.838,-36.621,-25.879,-10.742,-10.254
1683643779.842,-28.809,-31.250,-9.277,-9.766
1683643779.846,-16.602,-34.668,-14.648,2.930
1683643779.849,-13.184,-30.762,-19.043,5.859
1683643779.853,-20.020,-25.879,-19.043,-5.859
1683643779.857,-18.066,-25.391,-8.789,1.465
1683643779.861,-11.719,-27.344,-4.883,-2.441
1683643779.865,-12.695,-23.926,-12.207,-16.113
1683643779.866,-14.648,-14.648,-6.836,-11.719
1683643779.870,-20.996,-19.531,-5.859,-7.324
1683643779.874,-30.762,-26.855,-2.930,-18.555
1683643779.878,-37.598,-24.414,-6.348,-28.809
1683643779.882,-26.367,-18.555,-13.672,-19.043
1683643779.886,-34.180,-17.578,-13.672,-20.996
1683643779.890,-43.945,-28.320,-7.324,-31.250
1683643779.893,-27.344,-30.273,1.465,-15.625
1683643779.897,-29.785,-26.855,-2.930,-9.277
1683643779.901,-36.621,-24.902,-15.625,-27.344
1683643779.905,-33.203,-19.043,-18.555,-35.645
1683643779.909,-38.574,-21.484,-17.578,-34.180
1683643779.926,-43.457,-22.949,-11.719,-37.598
1683643779.930,-41.992,-23.438,-8.789,-37.598
1683643779.934,-39.062,-26.855,-15.625,-40.527
1683643779.938,-43.945,-28.809,-19.043,-51.758
1683643779.942,-46.875,-30.762,-16.602,-50.781
1683643779.946,-36.133,-23.438,-16.602,-50.781
1683643779.950,-25.879,-13.672,-27.344,-71.289
1683643779.953,-21.973,-18.066,-26.367,-61.523
1683643779.957,-19.043,-31.738,-29.785,-47.852
1683643779.961,-18.555,-31.250,-28.320,-50.781
1683643779.965,-28.320,-23.438,-16.602,-52.246
1683643779.969,-31.250,-20.996,-18.066,-54.688
1683643779.971,-29.785,-21.484,-12.207,-47.363
1683643779.975,-42.480,-29.297,-14.648,-59.570
1683643779.979,-52.734,-34.668,-22.949,-68.359
1683643779.983,-49.805,-30.762,-19.531,-68.359
1683643779.987,-37.109,-18.066,-18.555,-62.500
1683643779.991,-33.691,-17.578,-12.695,-55.176
1683643779.995,-36.621,-26.855,-10.742,-62.012
1683643779.998,-42.480,-33.691,-17.578,-59.570
1683643780.002,-51.758,-33.691,-17.090,-53.711
1683643780.006,-39.551,-23.438,-19.043,-43.457
1683643780.010,-26.367,-18.555,-22.949,-38.086
1683643780.014,-40.527,-26.367,-28.809,-55.176
1683643780.016,-50.781,-28.809,-37.598,-68.359
1683643780.020,-27.832,-20.508,-35.645,-44.922
1683643780.024,-21.484,-21.973,-24.902,-37.109
1683643780.028,-27.344,-31.250,-19.043,-43.457
1683643780.032,-12.207,-35.645,-22.461,-16.602
1683643780.036,-4.883,-25.879,-26.367,-12.207
1683643780.040,-18.555,-11.719,-27.832,-22.949
1683643780.043,-29.785,-20.508,-23.438,-18.555
1683643780.047,-26.855,-32.715,-21.484,-15.137
1683643780.051,-28.809,-34.668,-26.367,-17.578
1683643780.055,-30.762,-26.367,-27.344,-27.832
1683643780.059,-34.180,-14.160,-26.855,-36.133
1683643780.061,-36.621,-13.184,-28.320,-40.039
1683643780.065,-36.133,-22.949,-21.484,-37.109
1683643780.069,-45.410,-29.785,-18.555,-39.551
1683643780.073,-49.316,-28.320,-30.762,-41.016
1683643780.077,-42.969,-26.367,-32.227,-41.016
1683643780.081,-35.645,-26.367,-19.043,-34.668
1683643780.085,-40.039,-23.438,-13.184,-21.973
1683643780.088,-42.480,-26.367,-22.461,-27.344
1683643780.092,-35.645,-24.414,-29.297,-34.180
1683643780.096,-32.715,-15.137,-27.832,-35.156
1683643780.100,-40.039,-21.973,-15.625,-28.320
1683643780.104,-47.363,-27.344,-3.418,-27.832
1683643780.106,-38.086,-22.949,-12.695,-25.391
1683643780.110,-25.879,-16.602,-24.902,-15.137
1683643780.114,-20.996,-12.207,-23.438,-6.836
1683643780.118,-16.113,-15.625,-16.602,-1.953
1683643780.122,-11.719,-18.066,-10.742,4.883
1683643780.126,-11.719,-13.672,-6.348,12.695
1683643780.130,-9.766,-17.578,-15.625,28.809
1683643780.133,-16.113,-29.297,-31.250,17.090
1683643780.137,-30.762,-25.879,-18.555,9.277
1683643780.141,-32.227,-24.902,-2.930,18.555
1683643780.145,-31.738,-29.785,-10.742,20.020
1683643780.149,-31.738,-29.297,-19.043,20.020
1683643780.151,-37.109,-24.414,-14.648,13.672
1683643780.155,-43.457,-21.973,-8.301,12.695
1683643780.159,-40.527,-20.996,-7.324,8.789
1683643780.163,-45.410,-21.484,-21.484,-7.812
1683643780.167,-58.105,-31.738,-29.297,-19.043
1683643780.171,-65.430,-36.621,-19.531,-17.090
1683643780.175,-67.871,-37.598,-14.160,-10.254
1683643780.178,-64.941,-38.574,-21.973,-9.766
1683643780.182,-63.965,-32.715,-27.832,-17.578
1683643780.186,-61.523,-34.668,-32.715,-20.996
1683643780.190,-57.129,-38.574,-40.527,-26.367
1683643780.194,-46.875,-39.551,-39.062,-23.926
1683643780.196,-41.016,-41.016,-28.320,-8.301
1683643780.200,-43.457,-41.016,-31.250,-6.348
1683643780.204,-36.621,-46.387,-36.621,-7.324
1683643780.208,-37.598,-50.293,-37.109,-4.883
1683643780.212,-41.992,-50.293,-35.156,-10.254
1683643780.216,-31.738,-51.758,-21.973,0.488
1683643780.220,-20.020,-48.828,-17.578,10.254
1683643780.223,-24.902,-30.762,-33.691,-6.836
1683643780.227,-44.922,-23.438,-41.504,-23.926
1683643780.231,-44.922,-33.203,-34.668,-14.648
1683643780.235,-29.297,-32.715,-27.832,2.441
1683643780.239,-21.484,-31.250,-23.926,10.742
1683643780.241,-20.996,-32.715,-20.020,19.531
1683643780.245,-27.832,-27.832,-21.973,17.578
1683643780.249,-37.109,-25.879,-25.879,-0.488
1683643780.253,-47.852,-23.438,-29.297,-4.395
1683643780.257,-49.805,-19.043,-27.832,1.465
1683643780.261,-41.016,-23.438,-18.066,-0.488
1683643780.265,-40.039,-30.762,-18.555,2.441
1683643780.268,-45.410,-30.762,-27.832,4.395
1683643780.272,-49.316,-19.531,-27.832,0.488
1683643780.276,-50.293,-14.648,-24.902,5.371
1683643780.280,-35.645,-18.555,-29.785,12.207
1683643780.284,-25.391,-20.508,-31.738,9.277
1683643780.301,-29.297,-22.949,-27.344,5.859
1683643780.305,-33.203,-25.391,-25.391,-2.930
1683643780.309,-29.785,-25.391,-23.926,-9.766
1683643780.313,-21.973,-29.297,-19.531,3.418
1683643780.317,-20.508,-31.250,-15.137,23.438
1683643780.321,-25.879,-25.391,-19.043,10.254
1683643780.325,-28.320,-18.555,-23.926,-9.766
1683643780.328,-32.715,-19.043,-25.391,-3.418
1683643780.332,-24.902,-21.973,-22.461,0.000
1683643780.336,-9.277,-23.926,-24.414,-7.324
1683643780.340,-15.625,-26.367,-18.066,-3.906
1683643780.344,-35.645,-29.297,-12.695,-1.465
1683643780.346,-46.387,-20.996,-18.555,-9.277
1683643780.350,-40.039,-15.137,-22.461,-4.883
1683643780.354,-28.320,-16.602,-20.508,5.859
1683643780.358,-30.762,-21.973,-18.555,1.465
1683643780.362,-43.457,-23.926,-13.184,-5.859
1683643780.366,-46.387,-19.531,-6.836,-0.488
1683643780.370,-38.086,-19.531,-9.277,0.000
1683643780.373,-37.109,-16.602,-18.066,-10.254
1683643780.377,-34.668,-4.883,-30.762,-10.254
1683643780.381,-23.438,-8.301,-27.832,-6.836
1683643780.385,-24.414,-18.555,-13.184,-9.766
1683643780.389,-30.273,-25.391,-12.207,-2.441
1683643780.391,-20.020,-26.855,-10.742,14.648
1683643780.395,-18.066,-16.113,-20.996,10.254
1683643780.399,-26.855,-2.441,-28.809,-8.301
1683643780.403,-20.996,-6.836,-22.949,-4.395
1683643780.407,-13.672,-15.625,-18.555,12.695
1683643780.411,-20.996,-21.973,-12.207,55.176
1683643780.415,-24.414,-29.297,-10.742,76.660
1683643780.418,-33.203,-23.438,-16.113,50.293
1683643780.422,-47.852,-15.137,-21.484,30.273
1683643780.426,-38.574,-14.160,-18.555,41.504
1683643780.430,-27.832,-26.367,-14.160,44.434
1683643780.434,-38.086,-42.480,-13.672,35.645
1683643780.436,-47.852,-37.109,-19.531,28.809
1683643780.440,-47.852,-23.926,-24.902,17.578
1683643780.444,-30.762,-19.531,-25.879,13.184
1683643780.448,-12.207,-20.996,-24.414,21.973
1683643780.452,-18.555,-28.320,-22.949,19.043
1683643780.456,-37.598,-41.016,-18.555,16.113
1683643780.460,-35.156,-40.527,-14.648,30.762
1683643780.463,-27.344,-28.320,-24.902,26.855
1683643780.467,-27.344,-28.320,-34.668,22.949
1683643780.471,-19.043,-29.297,-31.250,33.203
1683643780.475,-11.719,-28.320,-25.391,37.598
1683643780.479,-12.207,-29.297,-18.066,39.551
1683643780.481,-11.230,-26.855,-5.859,46.387
1683643780.485,-10.742,-25.879,-0.977,52.246
1683643780.489,-15.625,-25.879,-10.254,50.781
1683643780.493,-20.020,-25.879,-17.578,41.992
1683643780.497,-25.391,-21.973,-18.555,27.832
1683643780.501,-30.273,-15.137,-17.090,24.414
1683643780.505,-33.691,-19.043,-23.438,22.461
1683643780.508,-52.734,-35.156,-31.738,8.301
1683643780.512,-59.570,-43.457,-22.949,-0.977
1683643780.516,-52.246,-40.039,-12.695,-6.836
1683643780.520,-55.664,-33.691,-15.625,-12.695
1683643780.524,-61.035,-27.832,-19.043,-9.766
1683643780.526,-62.500,-25.879,-16.113,-14.648
1683643780.530,-59.082,-21.484,-20.508,-19.043
1683643780.534,-50.293,-21.973,-22.461,-11.230
1683643780.538,-51.270,-31.250,-18.066,-8.301
1683643780.542,-57.129,-32.715,-17.578,-3.906
1683643780.546,-57.617,-25.879,-20.020,-6.836
1683643780.550,-57.129,-29.297,-23.926,-0.977
1683643780.553,-52.246,-35.156,-22.949,12.695
1683643780.557,-47.363,-32.715,-20.020,10.254
1683643780.561,-32.227,-29.785,-21.973,15.625
1683643780.565,-27.832,-32.715,-24.902,29.785
1683643780.569,-50.781,-39.062,-30.273,24.414
1683643780.571,-66.406,-39.551,-26.367,11.230
1683643780.575,-60.059,-40.527,-24.902,12.695
1683643780.579,-45.898,-38.574,-29.785,23.438
1683643780.583,-44.922,-38.086,-35.645,22.949
1683643780.587,-63.477,-42.969,-42.480,1.465
1683643780.591,-70.801,-43.457,-40.527,-10.254
1683643780.595,-66.406,-44.922,-39.551,-18.066
1683643780.598,-62.500,-44.434,-33.203,-31.250
1683643780.602,-53.711,-40.527,-24.902,-31.738
1683643780.606,-52.734,-41.016,-33.203,-36.133
1683643780.610,-55.664,-41.016,-43.457,-55.176
1683643780.614,-60.547,-40.527,-44.922,-66.895
1683643780.616,-65.430,-43.945,-34.180,-75.684
1683643780.620,-73.242,-51.758,-30.273,-90.332
1683643780.624,-73.242,-50.781,-32.715,-89.844
1683643780.628,-63.477,-51.270,-41.016,-95.215
1683643780.632,-55.664,-43.945,-42.480,-97.656
1683643780.636,-48.340,-38.086,-31.738,-86.914
1683643780.640,-52.246,-42.969,-33.691,-88.379
1683643780.643,-54.199,-42.969,-35.156,-91.797
1683643780.647,-49.805,-40.527,-31.250,-91.309
1683643780.651,-43.945,-44.434,-37.109,-83.496
1683643780.655,-40.527,-42.480,-34.180,-76.172
1683643780.659,-38.574,-34.180,-28.809,-77.148
1683643780.616,-65.430,-43.945,-34.180,-75.684
1683643780.620,-73.242,-51.758,-30.273,-90.332
1683643780.624,-73.242,-50.781,-32.715,-89.844
1683643780.628,-63.477,-51.270,-41.016,-95.215
1683643780.632,-55.664,-43.945,-42.480,-97.656
1683643780.636,-48.340,-38.086,-31.738,-86.914
1683643780.640,-52.246,-42.969,-33.691,-88.379
1683643780.643,-54.199,-42.969,-35.156,-91.797
1683643780.647,-49.805,-40.527,-31.250,-91.309
1683643780.651,-43.945,-44.434,-37.109,-83.496
1683643780.655,-40.527,-42.480,-34.180,-76.172
1683643780.659,-38.574,-34.180,-28.809,-77.148
1683643780.676,-38.086,-34.668,-35.156,-73.730
1683643780.680,-36.621,-36.133,-40.527,-68.359
1683643780.684,-37.598,-36.133,-33.203,-63.477
1683643780.688,-42.969,-34.668,-25.879,-59.570
1683643780.692,-43.457,-34.180,-24.414,-55.176
1683643780.696,-44.922,-36.133,-28.320,-54.688
1683643780.700,-52.246,-38.086,-32.715,-60.059
1683643780.703,-51.270,-43.945,-32.227,-55.664
1683643780.707,-45.898,-43.457,-34.668,-51.270
1683643780.711,-45.898,-36.133,-42.969,-64.941
1683643780.715,-51.270,-36.133,-48.340,-63.965
1683643780.719,-57.129,-43.945,-40.527,-67.383
1683643780.721,-50.781,-44.922,-34.180,-58.594
1683643780.725,-39.062,-41.992,-39.062,-45.898
1683643780.729,-43.945,-37.598,-43.457,-58.594
1683643780.733,-55.664,-39.062,-49.316,-64.453
1683643780.737,-60.547,-38.086,-51.758,-55.664
1683643780.741,-59.570,-39.551,-50.293,-46.875
1683643780.745,-51.758,-43.945,-44.922,-37.109
1683643780.748,-42.480,-41.992,-38.574,-21.973
1683643780.752,-40.039,-36.133,-41.016,-20.996
1683643780.756,-37.598,-35.156,-42.969,-22.461
1683643780.760,-36.133,-35.645,-36.621,-16.113
1683643780.764,-34.668,-32.715,-24.902,-6.836
1683643780.766,-35.156,-30.273,-19.043,-10.742
1683643780.770,-36.133,-32.715,-22.461,-18.066
1683643780.774,-31.250,-35.645,-24.414,-20.020
1683643780.778,-30.762,-33.203,-24.902,-18.066
1683643780.782,-33.203,-29.785,-20.996,-15.625
1683643780.786,-38.086,-32.227,-16.113,-12.695
1683643780.790,-40.039,-30.273,-23.438,-18.555
1683643780.793,-35.645,-33.203,-33.691,-37.598
1683643780.797,-32.227,-40.527,-35.156,-31.738
1683643780.801,-37.109,-33.203,-32.227,-25.391
1683643780.805,-42.969,-31.738,-29.785,-24.414
1683643780.809,-33.691,-41.504,-28.809,-21.484
1683643780.811,-32.227,-44.922,-36.621,-26.367
1683643780.815,-43.945,-41.992,-37.598,-22.461
1683643780.819,-42.480,-43.945,-36.133,-17.090
1683643780.823,-37.598,-44.922,-38.086,-19.043
1683643780.827,-32.715,-36.621,-30.762,-13.184
1683643780.831,-27.344,-25.879,-29.297,-8.789
1683643780.835,-34.180,-31.250,-38.086,-10.254
1683643780.838,-40.527,-37.598,-45.898,-15.625
1683643780.842,-37.109,-39.062,-41.992,-21.973
1683643780.846,-31.250,-37.109,-39.551,-19.531
1683643780.850,-35.645,-35.645,-47.852,-29.297
1683643780.854,-43.945,-41.992,-50.293,-33.691
1683643780.856,-40.039,-45.410,-44.434,-26.367
1683643780.860,-41.016,-43.457,-38.086,-27.344
1683643780.864,-40.039,-42.480,-37.109,-28.809
1683643780.868,-39.062,-41.992,-40.527,-37.598
1683643780.872,-41.992,-40.527,-40.039,-39.551
1683643780.876,-50.781,-41.992,-39.062,-41.016
1683643780.880,-51.758,-42.480,-41.992,-46.875
1683643780.883,-46.387,-44.922,-44.922,-41.016
1683643780.887,-42.969,-43.457,-41.992,-30.762
1683643780.891,-52.246,-46.875,-43.945,-34.180
1683643780.895,-49.316,-48.340,-44.434,-39.062
1683643780.899,-40.039,-46.387,-40.527,-41.992
1683643780.901,-37.109,-45.410,-35.156,-41.016
1683643780.905,-29.785,-42.480,-36.133,-36.133
1683643780.909,-25.391,-43.457,-42.480,-23.926
1683643780.913,-28.320,-41.504,-48.828,-25.879
1683643780.917,-33.203,-37.109,-43.457,-35.156
1683643780.921,-25.879,-34.180,-33.691,-32.715
1683643780.925,-19.043,-32.715,-36.621,-34.668
1683643780.928,-26.367,-39.551,-40.039,-42.969
1683643780.932,-29.297,-38.086,-37.109,-40.527
1683643780.936,-31.250,-38.086,-38.086,-43.457
1683643780.940,-33.691,-45.898,-35.156,-52.246
1683643780.944,-41.016,-45.410,-32.227,-58.594
1683643780.961,-51.270,-41.016,-29.785,-62.500
1683643780.965,-50.781,-40.039,-30.762,-56.152
1683643780.969,-53.223,-39.551,-32.715,-62.012
1683643780.973,-57.129,-41.504,-30.273,-68.848
1683643780.977,-61.035,-43.945,-36.133,-71.289
1683643780.981,-62.988,-42.480,-39.062,-73.242
1683643780.985,-57.617,-41.992,-38.574,-63.965
1683643780.988,-54.688,-42.480,-30.762,-54.199
1683643780.992,-54.199,-41.504,-22.949,-48.828
1683643780.996,-50.781,-45.898,-32.227,-43.457
1683643781.000,-53.223,-50.293,-40.039,-39.551
1683643781.004,-52.246,-47.363,-40.527,-34.180
1683643781.006,-42.480,-49.805,-36.133,-22.949
1683643781.010,-34.180,-50.293,-33.203,-18.555
1683643781.014,-31.250,-47.363,-30.273,-17.578
1683643781.018,-36.621,-50.781,-32.227,-17.090
1683643781.022,-40.039,-53.223,-38.086,-22.949
1683643781.026,-41.992,-51.758,-37.598,-29.785
1683643781.030,-51.270,-46.387,-32.227,-26.367
1683643781.033,-59.082,-46.875,-30.273,-29.297
1683643781.037,-54.688,-48.828,-32.227,-30.762
1683643781.041,-54.688,-45.898,-38.086,-34.668
1683643781.045,-63.965,-47.852,-37.598,-43.945
1683643781.049,-65.430,-47.363,-32.715,-51.270
1683643781.051,-66.406,-45.898,-32.227,-58.105
1683643781.055,-68.359,-45.898,-33.691,-58.594
1683643781.059,-69.824,-44.922,-35.156,-56.641
1683643781.063,-68.848,-46.875,-38.574,-58.594
1683643781.067,-63.965,-43.457,-39.551,-62.500
1683643781.071,-54.688,-40.039,-37.109,-60.547
1683643781.075,-52.734,-41.992,-41.016,-48.340
1683643781.078,-47.363,-41.504,-43.945,-44.434
1683643781.082,-41.504,-42.969,-45.410,-49.316
1683643781.086,-43.457,-37.109,-39.062,-36.621
1683643781.090,-41.016,-31.250,-34.180,-16.113
1683643781.094,-37.109,-35.645,-36.621,-18.066
1683643781.096,-30.762,-38.574,-39.062,-18.555
1683643781.100,-32.715,-40.039,-44.434,-9.766
1683643781.104,-39.062,-37.109,-41.016,-15.137
1683643781.108,-37.598,-34.180,-30.762,-14.160
1683643781.112,-41.016,-39.551,-34.180,-15.137
1683643781.116,-47.363,-37.598,-38.086,-20.020
1683643781.120,-50.293,-37.598,-44.434,-20.508
1683643781.123,-51.758,-38.574,-43.457,-21.973
1683643781.127,-47.363,-36.621,-36.133,-21.973
1683643781.131,-46.875,-36.621,-38.574,-20.508
1683643781.135,-45.410,-38.574,-39.551,-22.949
1683643781.139,-52.246,-41.992,-36.133,-36.621
1683643781.142,-62.500,-33.203,-29.297,-35.645
1683643781.146,-56.152,-31.738,-24.902,-23.438
1683643781.150,-52.246,-33.691,-25.391,-27.344
1683643781.154,-56.641,-31.738,-31.250,-34.180
1683643781.158,-48.828,-32.715,-33.203,-26.367
1683643781.162,-47.363,-29.297,-26.367,-22.461
1683643781.166,-47.363,-29.297,-21.973,-16.602
1683643781.169,-38.086,-35.156,-28.320,-14.160
1683643781.173,-33.203,-32.227,-35.156,-16.602
1683643781.177,-29.785,-24.414,-32.715,-17.578
1683643781.181,-23.926,-28.320,-28.320,-17.090
1683643781.185,-22.461,-33.691,-26.367,-11.719
1683643781.142,-62.500,-33.203,-29.297,-35.645
1683643781.146,-56.152,-31.738,-24.902,-23.438
1683643781.150,-52.246,-33.691,-25.391,-27.344
1683643781.154,-56.641,-31.738,-31.250,-34.180
1683643781.158,-48.828,-32.715,-33.203,-26.367
1683643781.162,-47.363,-29.297,-26.367,-22.461
1683643781.166,-47.363,-29.297,-21.973,-16.602
1683643781.169,-38.086,-35.156,-28.320,-14.160
1683643781.173,-33.203,-32.227,-35.156,-16.602
1683643781.177,-29.785,-24.414,-32.715,-17.578
1683643781.181,-23.926,-28.320,-28.320,-17.090
1683643781.185,-22.461,-33.691,-26.367,-11.719
1683643781.186,-19.531,-24.414,-24.902,-16.113
1683643781.190,-17.578,-25.391,-31.250,-17.090
1683643781.194,-22.949,-32.715,-36.133,-7.324
1683643781.198,-30.273,-34.668,-31.250,-12.207
1683643781.202,-34.668,-36.133,-24.414,-12.695
1683643781.206,-34.180,-33.203,-19.043,-9.766
1683643781.210,-36.133,-29.785,-26.855,-17.578
1683643781.213,-41.016,-29.785,-33.203,-26.367
1683643781.217,-52.734,-33.203,-35.156,-39.551
1683643781.221,-51.270,-36.133,-32.715,-41.992
1683643781.225,-51.270,-34.180,-28.809,-41.016
1683643781.229,-61.523,-35.645,-31.250,-37.598
1683643781.231,-56.152,-28.809,-22.949,-38.086
1683643781.235,-53.223,-26.367,-19.043,-37.109
1683643781.239,-56.152,-30.273,-15.137,-18.555
1683643781.243,-51.270,-30.762,-13.672,-17.578
1683643781.247,-56.152,-33.203,-19.531,-25.391
1683643781.251,-59.082,-28.320,-21.484,-23.926
1683643781.255,-58.105,-30.762,-27.344,-24.902
1683643781.258,-56.641,-40.527,-28.320,-30.273
1683643781.262,-44.434,-35.645,-21.973,-35.645
1683643781.266,-38.086,-28.809,-25.879,-36.133
1683643781.270,-40.527,-25.879,-30.273,-37.109
1683643781.274,-27.832,-22.949,-29.297,-31.250
1683643781.277,-22.461,-25.391,-24.414,-25.879
1683643781.281,-28.320,-30.762,-20.020,-20.996
1683643781.285,-24.902,-34.180,-21.484,-16.602
1683643781.289,-26.855,-38.574,-26.855,-20.508
1683643781.293,-30.273,-37.598,-25.391,-29.785
1683643781.297,-21.973,-30.273,-23.438,-37.109
1683643781.301,-19.531,-33.691,-26.855,-41.992
1683643781.304,-34.180,-42.480,-29.785,-45.410
1683643781.308,-43.457,-40.039,-30.273,-54.199
1683643781.312,-36.133,-35.156,-33.203,-57.129
1683643781.316,-43.457,-35.645,-28.809,-68.359
1683643781.320,-49.316,-32.227,-20.508,-79.590
1683643781.321,-41.992,-28.320,-15.137,-70.312
1683643781.325,-46.387,-29.297,-25.391,-80.078
1683643781.329,-51.270,-30.762,-33.691,-88.379
1683643781.333,-54.199,-32.715,-30.762,-90.332
1683643781.337,-57.129,-34.180,-27.344,-86.914
1683643781.341,-46.387,-28.809,-23.438,-73.242
1683643781.345,-41.992,-31.250,-32.227,-78.613
1683643781.348,-43.945,-34.668,-30.762,-80.566
1683643781.352,-38.574,-30.273,-26.855,-78.125
1683643781.356,-31.738,-30.762,-30.762,-76.172
1683643781.360,-30.762,-32.227,-27.832,-67.871
1683643781.364,-30.273,-34.180,-30.762,-59.082
1683643781.381,-30.273,-32.227,-33.203,-51.758
1683643781.385,-28.320,-31.738,-28.809,-49.316
1683643781.389,-23.438,-23.438,-22.949,-41.992
1683643781.393,-24.414,-19.531,-25.391,-28.809
1683643781.397,-24.414,-20.020,-28.320,-28.809
1683643781.401,-29.785,-20.996,-31.250,-41.992
1683643781.405,-40.527,-29.785,-37.598,-46.875
1683643781.408,-39.062,-33.691,-32.227,-42.480
1683643781.412,-34.668,-30.762,-27.832,-38.574
1683643781.416,-34.668,-28.809,-32.227,-36.133
1683643781.420,-40.527,-27.832,-35.645,-42.969
1683643781.424,-48.828,-31.250,-38.086,-48.340
1683643781.426,-56.152,-33.691,-35.645,-52.246
1683643781.430,-52.734,-27.832,-32.715,-49.316
1683643781.434,-49.805,-27.832,-32.227,-48.340
1683643781.438,-59.570,-34.180,-36.133,-52.734
1683643781.442,-60.059,-33.691,-37.109,-51.758
1683643781.446,-51.270,-36.133,-34.668,-41.992
1683643781.450,-48.340,-38.086,-29.297,-35.156
1683643781.453,-43.457,-39.062,-26.855,-33.691
1683643781.457,-36.621,-41.504,-30.273,-26.367
1683643781.461,-35.645,-40.039,-32.715,-20.020
1683643781.465,-30.273,-36.133,-25.391,-15.625
1683643781.469,-24.902,-30.273,-19.043,-13.184
1683643781.471,-25.879,-28.809,-21.484,-9.277
1683643781.475,-23.926,-30.762,-25.391,-8.789
1683643781.479,-29.297,-31.738,-25.391,-15.137
1683643781.483,-27.344,-29.297,-30.762,-16.113
1683643781.487,-21.973,-24.414,-30.762,-8.789
1683643781.491,-20.996,-19.531,-22.949,-9.277
1683643781.495,-30.762,-20.508,-30.273,-20.508
1683643781.498,-45.410,-24.414,-38.574,-32.715
1683643781.502,-52.246,-24.414,-37.109,-32.715
1683643781.506,-54.688,-28.320,-35.156,-34.668
1683643781.510,-41.992,-28.320,-27.832,-34.180
1683643781.514,-32.715,-25.391,-29.297,-27.832
1683643781.516,-41.016,-28.320,-39.062,-26.855
1683643781.520,-45.410,-30.273,-38.086,-25.391
1683643781.524,-51.758,-29.785,-28.320,-21.973
1683643781.528,-53.223,-31.250,-22.949,-26.367
1683643781.532,-46.387,-33.203,-19.043,-23.438
1683643781.536,-42.480,-27.344,-20.996,-20.996
1683643781.540,-34.668,-17.090,-30.273,-29.785
1683643781.543,-28.320,-16.602,-28.320,-24.902
1683643781.547,-25.879,-20.020,-23.438,-24.414
1683643781.551,-22.949,-20.996,-19.531,-27.344
1683643781.555,-25.879,-28.320,-21.484,-21.973
1683643781.559,-31.250,-31.250,-25.879,-17.090
1683643781.561,-28.809,-22.949,-16.602,-12.207
1683643781.565,-26.367,-20.020,-14.160,-15.137
1683643781.569,-19.531,-18.555,-19.531,-14.648
1683643781.573,-26.367,-25.391,-25.879,-23.926
1683643781.577,-36.621,-30.762,-24.414,-32.227
1683643781.581,-37.109,-28.809,-13.672,-28.320
1683643781.585,-29.785,-20.020,-11.719,-31.250
1683643781.588,-26.367,-15.137,-21.973,-39.551
1683643781.592,-29.297,-18.555,-23.926,-37.598
1683643781.596,-42.480,-23.438,-21.973,-36.621
1683643781.600,-57.129,-25.879,-19.043,-41.016
1683643781.604,-54.199,-31.738,-13.184,-37.109
1683643781.606,-33.691,-25.391,-18.066,-28.320
1683643781.610,-16.602,-13.184,-32.715,-16.602
1683643781.614,-43.457,-22.461,-31.250,-40.039
1683643781.618,-62.988,-28.809,-22.949,-63.477
1683643781.622,-41.016,-19.043,-14.160,-38.086
1683643781.626,-21.973,-18.066,-11.719,-27.832
1683643781.630,-25.879,-25.879,-19.043,-25.879
1683643781.633,-38.086,-37.109,-20.996,-19.531
1683643781.637,-27.344,-36.133,-14.160,-8.789
1683643781.641,-14.648,-25.391,-12.695,-0.488
1683643781.645,-18.066,-22.949,-21.484,-16.113
1683643781.649,-15.137,-22.461,-32.715,-21.973
1683643781.652,-14.160,-26.367,-32.227,-14.160
1683643781.656,-25.879,-34.180,-25.879,-21.973
1683643781.660,-37.109,-36.621,-26.367,-31.250
1683643781.664,-30.273,-37.109,-22.949,-23.438
1683643781.668,-26.367,-36.621,-19.531,-24.414
1683643781.672,-37.598,-30.273,-19.043,-28.809
1683643781.676,-47.852,-29.785,-24.414,-25.879
1683643781.679,-38.574,-30.762,-27.344,-29.297
1683643781.683,-36.133,-27.832,-19.043,-28.320
1683643781.687,-47.852,-32.227,-20.020,-36.133
1683643781.691,-51.270,-30.762,-31.738,-41.992
1683643781.695,-46.875,-21.973,-39.062,-40.527
1683643781.696,-39.551,-20.508,-31.738,-46.387
1683643781.700,-38.574,-20.508,-27.832,-49.805
1683643781.704,-36.621,-19.531,-31.738,-40.527
1683643781.708,-33.203,-19.531,-36.621,-39.551
1683643781.712,-38.086,-20.996,-38.574,-44.434
1683643781.716,-40.039,-22.949,-31.738,-39.551
1683643781.720,-37.598,-28.809,-34.180,-38.086
1683643781.723,-39.551,-34.180,-33.203,-36.133
1683643781.727,-37.598,-31.250,-30.273,-33.691
1683643781.731,-35.645,-31.738,-30.762,-26.367
1683643781.735,-36.621,-35.156,-24.902,-14.648
1683643781.739,-32.715,-28.809,-29.297,-9.766
1683643781.742,-31.738,-18.066,-33.691,-12.207
1683643781.746,-35.645,-20.996,-33.203,-17.578
1683643781.750,-37.109,-26.367,-33.691,-20.508
1683643781.754,-38.086,-19.043,-37.109,-28.320
1683643781.758,-36.133,-17.578,-38.086,-33.691
1683643781.762,-30.273,-22.949,-32.715,-34.668
1683643781.766,-33.691,-28.320,-31.250,-25.879
1683643781.769,-46.387,-36.621,-34.668,-24.902
1683643781.773,-51.758,-35.156,-29.785,-24.414
1683643781.777,-56.152,-22.949,-37.109,-35.645
1683643781.781,-57.129,-16.602,-38.574,-48.828
1683643781.785,-60.059,-23.926,-35.645,-43.945
1683643781.801,-69.336,-32.715,-35.645,-41.504
1683643781.805,-71.289,-35.156,-24.414,-34.180
1683643781.809,-62.988,-37.109,-16.602,-23.926
1683643781.813,-51.270,-26.855,-24.414,-30.762
1683643781.817,-49.805,-16.602,-41.016,-39.551
1683643781.821,-53.223,-19.531,-41.016,-39.062
1683643781.825,-46.387,-26.367,-29.785,-39.062
1683643781.828,-37.598,-31.250,-20.996,-37.109
1683643781.832,-33.691,-22.949,-24.414,-26.367
1683643781.836,-23.438,-13.184,-40.527,-25.879
1683643781.840,-25.391,-9.277,-41.992,-25.391
1683643781.844,-28.320,-25.879,-31.250,-19.043
1683643781.846,-23.926,-32.715,-24.414,-14.648
1683643781.850,-33.203,-21.973,-27.832,-25.391
1683643781.854,-39.062,-22.949,-29.785,-37.109
1683643781.858,-48.828,-32.715,-31.738,-24.414
1683643781.862,-60.059,-40.039,-27.832,-23.926
1683643781.866,-56.641,-36.133,-25.879,-30.762
1683643781.870,-53.711,-28.320,-34.668,-37.109
1683643781.873,-60.547,-27.832,-39.062,-45.410
1683643781.877,-71.777,-33.691,-40.039,-46.875
1683643781.881,-72.754,-40.527,-40.527,-50.781
1683643781.885,-55.664,-38.574,-34.180,-37.109
1683643781.889,-42.480,-31.738,-27.344,-27.832
1683643781.891,-52.246,-27.344,-23.926,-36.133
1683643781.895,-57.617,-31.738,-29.785,-37.109
1683643781.899,-57.617,-34.180,-35.156,-46.387
1683643781.903,-55.664,-29.785,-37.109,-43.457
1683643781.907,-39.551,-19.043,-30.273,-26.855
1683643781.911,-27.344,-18.555,-25.879,-25.879
1683643781.915,-38.574,-27.344,-30.273,-20.020
1683643781.918,-41.016,-28.320,-35.645,-13.672
1683643781.922,-36.621,-28.809,-41.504,-26.367
1683643781.926,-34.180,-25.391,-34.668,-24.414
1683643781.930,-26.367,-25.391,-32.227,-12.695
1683643781.934,-29.297,-31.250,-40.527,-12.207
1683643781.936,-37.598,-34.668,-37.109,-14.160
1683643781.940,-41.504,-37.598,-22.461,-15.137
1683643781.944,-40.527,-35.645,-15.137,-16.113
1683643781.948,-38.574,-28.320,-25.391,-22.949
1683643781.952,-42.969,-21.973,-40.527,-31.250
1683643781.956,-52.246,-25.879,-42.480,-37.598
1683643781.960,-54.688,-30.273,-31.738,-34.668
1683643781.963,-56.152,-34.180,-23.926,-37.598
1683643781.967,-47.852,-31.250,-21.484,-40.039
1683643781.971,-38.574,-23.926,-28.320,-40.039
1683643781.975,-45.898,-27.832,-33.203,-43.945
1683643781.979,-45.410,-31.738,-28.320,-36.621
1683643781.981,-31.738,-31.738,-17.578,-31.738
1683643781.985,-27.832,-29.785,-11.719,-27.832
1683643781.989,-31.738,-27.832,-18.555,-23.438
1683643781.993,-31.738,-34.180,-24.414,-39.551
1683643781.997,-40.039,-35.645,-14.648,-42.480
1683643782.001,-37.109,-30.762,-12.695,-31.738
1683643782.005,-22.949,-28.809,-24.414,-37.109
1683643782.008,-20.996,-30.273,-32.715,-50.293
1683643782.012,-25.879,-31.738,-30.273,-47.852
1683643782.016,-28.320,-38.086,-22.949,-42.480
1683643782.020,-31.250,-43.945,-19.043,-49.805
1683643782.024,-29.785,-43.457,-18.555,-58.594
1683643782.026,-26.367,-36.621,-21.484,-61.035
1683643782.030,-32.227,-30.273,-29.297,-68.848
1683643782.034,-38.086,-34.180,-28.809,-75.684
1683643782.038,-38.574,-35.645,-23.438,-70.801
1683643782.042,-35.645,-28.809,-17.090,-64.941
1683643782.046,-37.109,-27.344,-19.043,-63.477
1683643782.050,-60.059,-36.621,-24.414,-74.707
1683643782.053,-74.219,-43.457,-25.879,-95.703
1683643782.057,-56.641,-40.527,-23.438,-85.938
1683643782.061,-41.992,-39.062,-18.066,-68.359
1683643782.065,-39.551,-37.598,-19.043,-55.664
1683643782.069,-35.156,-32.715,-23.926,-40.039
1683643782.071,-40.527,-33.691,-17.578,-38.574
1683643782.075,-38.086,-34.180,-17.090,-38.574
1683643782.079,-26.855,-30.762,-20.020,-38.086
1683643782.083,-24.414,-30.273,-26.367,-40.527
1683643782.087,-25.879,-30.273,-30.273,-42.480
1683643782.091,-32.715,-31.738,-31.250,-49.316
1683643782.095,-39.551,-38.574,-33.691,-49.805
1683643782.098,-40.039,-46.387,-27.832,-43.457
1683643782.102,-34.668,-43.945,-20.996,-32.715
1683643782.106,-37.109,-38.574,-30.762,-34.668
1683643782.110,-47.852,-40.039,-38.086,-46.875
1683643782.114,-47.363,-41.016,-39.551,-43.945
1683643782.116,-50.781,-42.969,-38.574,-38.574
1683643782.120,-51.270,-42.969,-35.156,-34.668
1683643782.124,-54.199,-45.410,-35.156,-38.086
1683643782.128,-52.246,-50.781,-35.645,-36.621
1683643782.132,-39.062,-41.992,-37.109,-27.344
1683643782.136,-40.039,-31.250,-33.691,-36.621
1683643782.140,-53.711,-34.668,-35.156,-45.898
1683643782.143,-56.152,-46.387,-46.387,-50.781
1683643782.147,-44.434,-50.781,-47.363,-47.852
1683643782.151,-45.898,-46.875,-47.363,-39.551
1683643782.155,-56.152,-46.875,-47.363,-45.410
1683643782.159,-55.664,-43.945,-41.016,-50.781
1683643782.176,-44.434,-37.109,-38.086,-37.109
1683643782.180,-35.156,-37.109,-43.457,-36.133
1683643782.184,-39.062,-38.574,-42.969,-40.527
1683643782.188,-42.480,-37.598,-32.715,-35.156
1683643782.192,-44.922,-40.039,-29.297,-42.969
1683643782.196,-39.062,-41.016,-33.203,-35.156
1683643782.200,-39.551,-38.086,-39.551,-26.367
1683643782.203,-51.270,-39.551,-41.504,-34.668
1683643782.207,-51.758,-39.062,-39.062,-35.645
1683643782.211,-48.340,-42.480,-42.480,-29.785
1683643782.215,-41.504,-40.039,-46.875,-28.320
1683643782.219,-50.293,-42.480,-46.387,-34.668
1683643782.221,-67.383,-44.922,-42.969,-41.016
1683643782.225,-67.383,-43.945,-41.992,-41.992
1683643782.229,-63.965,-48.828,-39.551,-46.387
1683643782.233,-67.871,-45.410,-48.828,-47.852
1683643782.237,-73.730,-41.016,-54.199,-44.434
1683643782.241,-80.566,-40.527,-48.340,-40.527
1683643782.245,-83.984,-44.434,-45.410,-47.363
1683643782.248,-72.266,-49.316,-38.086,-52.246
1683643782.252,-64.453,-45.898,-35.645,-46.387
1683643782.256,-64.453,-46.875,-38.574,-49.805
1683643782.260,-62.012,-52.734,-38.086,-46.387
1683643782.264,-52.734,-48.340,-40.039,-37.109
1683643782.266,-37.598,-36.133,-40.527,-35.645
1683643782.270,-37.109,-28.809,-38.086,-36.133
1683643782.274,-49.316,-34.180,-41.992,-44.434
1683643782.278,-55.664,-42.480,-45.410,-46.387
1683643782.282,-44.922,-36.133,-37.109,-39.551
1683643782.286,-37.109,-30.762,-32.715,-34.668
1683643782.290,-30.762,-32.227,-36.621,-31.738
1683643782.293,-29.297,-43.457,-42.969,-30.762
1683643782.297,-44.922,-52.246,-49.316,-36.133
1683643782.301,-43.457,-44.922,-44.434,-38.574
1683643782.305,-42.480,-36.133,-37.109,-39.551
1683643782.309,-51.758,-41.016,-35.156,-42.969
1683643782.311,-59.570,-47.852,-38.574,-38.086
1683643782.315,-64.453,-49.316,-45.898,-38.086
1683643782.319,-69.336,-45.898,-46.875,-47.363
1683643782.323,-63.477,-40.039,-43.945,-45.898
1683643782.327,-60.547,-35.645,-36.133,-42.969
1683643782.331,-63.965,-38.086,-35.645,-48.340
1683643782.335,-58.594,-40.039,-42.969,-51.270
1683643782.338,-51.758,-46.875,-39.551,-43.457
1683643782.342,-53.223,-48.828,-33.691,-39.062
1683643782.346,-47.852,-47.363,-29.297,-51.270
1683643782.350,-35.645,-44.434,-26.855,-45.898
1683643782.354,-42.969,-44.922,-30.762,-43.457
1683643782.311,-59.570,-47.852,-38.574,-38.086
1683643782.315,-64.453,-49.316,-45.898,-38.086
1683643782.319,-69.336,-45.898,-46.875,-47.363
1683643782.323,-63.477,-40.039,-43.945,-45.898
1683643782.327,-60.547,-35.645,-36.133,-42.969
1683643782.331,-63.965,-38.086,-35.645,-48.340
1683643782.335,-58.594,-40.039,-42.969,-51.270
1683643782.338,-51.758,-46.875,-39.551,-43.457
1683643782.342,-53.223,-48.828,-33.691,-39.062
1683643782.346,-47.852,-47.363,-29.297,-51.270
1683643782.350,-35.645,-44.434,-26.855,-45.898
1683643782.354,-42.969,-44.922,-30.762,-43.457
1683643782.356,-45.410,-45.898,-32.715,-50.293
