timestamps,TP9,AF7,AF8,TP10,Right AUX
1680451804.247,-51.758,-38.086,-36.621,-44.922,0.000
1680451804.251,-37.598,-41.504,-35.645,-41.504,0.000
1680451804.254,-22.949,-43.945,-36.621,-34.180,0.000
1680451804.258,-18.555,-40.527,-40.039,-37.598,0.000
1680451804.262,-14.648,-37.109,-35.156,-28.320,0.000
1680451804.266,-21.973,-37.109,-31.738,-20.996,0.000
1680451804.270,-20.508,-44.434,-37.598,-20.020,0.000
1680451804.274,-10.742,-48.828,-43.457,-12.695,0.000
1680451804.278,-1.465,-42.480,-27.344,-11.719,0.000
1680451804.282,-5.859,-42.480,-7.812,-7.812,0.000
1680451804.286,-21.484,-42.480,-27.832,-4.395,0.000
1680451804.290,-20.020,-42.480,-36.133,0.488,0.000
1680451804.294,-13.672,-43.945,-28.809,0.977,0.000
1680451804.297,-20.508,-40.039,-34.180,-20.508,0.000
1680451804.301,-35.156,-35.156,-40.527,-40.039,0.000
1680451804.305,-50.781,-34.180,-43.945,-50.293,0.000
1680451804.309,-50.293,-32.715,-40.039,-46.875,0.000
1680451804.313,-31.738,-31.738,-38.086,-24.902,0.000
1680451804.317,-27.344,-38.086,-36.133,-25.391,0.000
1680451804.321,-52.734,-36.133,-42.480,-53.711,0.000
1680451804.325,-78.613,-31.738,-29.297,-68.848,0.000
1680451804.329,-63.965,-32.227,-20.508,-53.223,0.000
1680451804.333,-34.668,-29.297,-39.551,-36.133,0.000
1680451804.337,-35.645,-33.203,-42.969,-41.016,0.000
1680451804.340,-49.805,-34.668,-41.016,-51.758,0.000
1680451804.344,-59.082,-27.832,-41.504,-54.199,0.000
1680451804.348,-43.457,-24.414,-41.992,-39.062,0.000
1680451804.352,-28.809,-25.391,-45.410,-30.762,0.000
1680451804.356,-34.180,-25.391,-41.016,-39.551,0.000
1680451804.360,-37.109,-25.879,-37.598,-41.504,0.000
1680451804.364,-50.781,-42.969,-36.621,-39.062,0.000
1680451804.368,-57.129,-48.340,-36.621,-32.227,0.000
1680451804.372,-46.875,-35.645,-40.527,-41.016,0.000
1680451804.376,-30.273,-24.902,-41.504,-47.852,0.000
1680451804.379,-31.738,-22.949,-42.969,-43.945,0.000
1680451804.383,-56.641,-38.574,-44.922,-53.223,0.000
1680451804.387,-53.223,-42.969,-48.828,-52.246,0.000
1680451804.391,-21.484,-34.180,-42.969,-30.762,0.000
1680451804.395,-28.320,-31.250,-41.992,-41.504,0.000
1680451804.399,-51.270,-29.297,-43.945,-54.688,0.000
1680451804.403,-46.387,-28.320,-40.527,-38.574,0.000
1680451804.407,-29.297,-23.438,-41.504,-27.832,0.000
1680451804.411,-25.391,-28.809,-36.621,-20.996,0.000
1680451804.415,-38.086,-41.504,-4.395,-26.855,0.000
1680451804.419,-43.457,-40.039,-1.465,-39.551,0.000
1680451804.422,-64.453,-26.855,-33.691,-65.430,0.000
1680451804.426,-57.617,-26.367,-34.668,-59.570,0.000
1680451804.430,-22.949,-26.855,-30.762,-25.879,0.000
1680451804.434,-15.625,-28.809,-34.668,-29.297,0.000
1680451804.438,-26.367,-25.879,-36.621,-45.410,0.000
1680451804.442,-22.461,-25.391,-31.250,-45.898,0.000
1680451804.446,-21.973,-34.180,-28.320,-40.527,0.000
1680451804.450,-9.277,-26.855,-31.738,-23.438,0.000
1680451804.454,8.301,-21.484,-37.598,-8.789,0.000
1680451804.458,-8.301,-31.250,-26.855,-14.648,0.000
1680451804.462,-42.969,-43.945,0.977,-31.738,0.000
1680451804.465,-50.293,-41.504,-8.301,-23.438,0.000
1680451804.469,-37.109,-32.227,-23.438,-14.648,0.000
1680451804.473,-42.480,-31.738,-24.414,-32.715,0.000
1680451804.477,-50.781,-31.250,-27.832,-38.086,0.000
1680451804.481,-45.898,-34.180,-26.367,-34.180,0.000
1680451804.485,-45.898,-39.551,-30.273,-35.156,0.000
1680451804.489,-39.551,-37.109,-34.180,-31.250,0.000
1680451804.493,-26.367,-41.016,-30.762,-27.832,0.000
1680451804.497,-39.551,-52.734,-29.297,-36.133,0.000
1680451804.501,-53.711,-50.781,-33.691,-43.457,0.000
1680451804.504,-59.570,-52.734,-31.250,-45.410,0.000
1680451804.508,-60.547,-50.781,-25.391,-43.945,0.000
1680451804.512,-34.180,-37.109,-29.297,-31.738,0.000
1680451804.516,-9.277,-38.574,-34.668,-26.367,0.000
1680451804.520,-19.531,-44.434,-32.715,-35.645,0.000
1680451804.524,-48.828,-50.781,-32.715,-46.387,0.000
1680451804.528,-53.223,-54.688,-34.668,-34.180,0.000
1680451804.532,-38.574,-41.992,-34.668,-23.438,0.000
1680451804.536,-30.273,-33.691,-32.227,-29.297,0.000
1680451804.540,-29.785,-33.691,-33.203,-30.762,0.000
1680451804.544,-34.180,-36.133,-36.133,-30.273,0.000
1680451804.547,-35.156,-31.250,-31.738,-22.949,0.000
1680451804.551,-19.531,-31.738,-7.324,-11.719,0.000
1680451804.555,-13.672,-40.039,-16.602,-15.625,0.000
1680451804.559,-24.902,-39.551,-36.621,-20.020,0.000
1680451804.563,-27.344,-36.621,-33.203,-20.508,0.000
1680451804.567,-27.344,-39.062,-29.297,-25.879,0.000
1680451804.571,-36.621,-44.922,-31.738,-24.414,0.000
1680451804.575,-40.039,-48.828,-34.180,-22.949,0.000
1680451804.579,-45.898,-44.922,-35.156,-30.762,0.000
1680451804.583,-51.270,-38.574,-37.109,-35.156,0.000
1680451804.587,-41.992,-39.551,-34.180,-24.414,0.000
1680451804.590,-37.109,-41.016,-37.109,-18.066,0.000
1680451804.594,-38.574,-39.551,-21.484,-28.320,0.000
1680451804.598,-32.227,-41.504,-15.625,-30.273,0.000
1680451804.602,-35.156,-39.062,-35.645,-24.902,0.000
1680451804.606,-32.715,-36.133,-34.668,-15.137,0.000
1680451804.610,-19.043,-29.785,-29.785,-6.836,0.000
1680451804.614,-18.555,-29.785,-30.762,-10.254,0.000
1680451804.618,-20.020,-42.969,-37.598,-12.695,0.000
1680451804.622,-19.531,-45.410,-37.598,-11.230,0.000
1680451804.626,-24.902,-36.133,-26.855,-6.836,0.000
1680451804.629,-24.902,-32.715,-28.809,-4.883,0.000
1680451804.633,-20.996,-33.203,-37.109,-14.648,0.000
1680451804.637,-20.996,-33.203,-32.227,-20.508,0.000
1680451804.641,-36.621,-32.715,-25.879,-20.996,0.000
1680451804.645,-42.969,-36.621,-32.227,-23.926,0.000
1680451804.649,-35.645,-39.551,-38.086,-19.531,0.000
1680451804.653,-30.762,-35.156,-22.461,-22.461,0.000
1680451804.657,-32.715,-32.227,-8.789,-24.902,0.000
1680451804.661,-45.410,-31.250,-28.809,-25.879,0.000
1680451804.665,-58.105,-33.691,-39.551,-36.621,0.000
1680451804.669,-58.105,-32.715,-30.273,-28.809,0.000
1680451804.672,-46.387,-24.902,-23.438,-16.113,0.000
1680451804.676,-38.086,-25.879,-29.297,-20.508,0.000
1680451804.680,-40.039,-31.738,-32.715,-20.508,0.000
1680451804.684,-41.992,-38.086,-31.250,-18.555,0.000
1680451804.688,-28.320,-34.668,-29.297,-10.254,0.000
1680451804.692,-14.160,-29.785,-26.855,0.000,0.000
1680451804.696,-11.230,-26.855,-28.320,-1.465,0.000
1680451804.700,-23.926,-24.414,-3.906,-11.230,0.000
1680451804.704,-30.762,-31.250,3.906,-17.090,0.000
1680451804.708,-31.250,-31.250,-27.832,-13.184,0.000
1680451804.711,-23.926,-32.715,-28.320,-13.672,0.000
1680451804.715,-18.066,-38.086,-25.391,-23.926,0.000
1680451804.719,-24.902,-35.156,-29.785,-31.250,0.000
1680451804.723,-33.691,-30.273,-33.691,-32.227,0.000
1680451804.727,-35.156,-33.691,-36.133,-35.156,0.000
1680451804.731,-34.180,-33.691,-33.203,-39.551,0.000
1680451804.735,-32.715,-30.273,-33.203,-40.527,0.000
1680451804.739,-32.227,-30.273,-37.109,-45.898,0.000
1680451804.743,-46.875,-36.133,-36.621,-52.734,0.000
1680451804.747,-56.152,-37.598,-23.438,-42.969,0.000
1680451804.751,-38.086,-26.855,-23.438,-32.715,0.000
1680451804.754,-24.902,-23.926,-28.809,-32.715,0.000
1680451804.758,-25.391,-27.344,-27.344,-31.738,0.000
1680451804.762,-32.227,-31.250,-27.344,-28.320,0.000
1680451804.766,-39.062,-34.180,-31.738,-25.879,0.000
1680451804.770,-30.273,-40.039,-32.227,-17.578,0.000
1680451804.774,-7.812,-39.551,-30.273,-2.930,0.000
1680451804.778,0.000,-23.926,-40.039,-11.230,0.000
1680451804.782,-18.066,-26.367,-38.574,-20.508,0.000
1680451804.786,-22.949,-38.086,-24.414,-10.742,0.000
1680451804.790,-23.438,-30.273,-21.973,-24.902,0.000
1680451804.794,-28.809,-22.949,-26.367,-41.992,0.000
1680451804.797,-6.836,-29.297,-24.902,-15.137,0.000
1680451804.801,-13.672,-30.273,-24.902,-20.508,0.000
1680451804.805,-59.570,-24.414,-37.109,-66.895,0.000
1680451804.809,-53.223,-30.273,-34.180,-59.570,0.000
1680451804.813,-16.602,-32.227,-27.344,-17.578,0.000
1680451804.817,-23.926,-17.578,-29.297,-33.203,0.000
1680451804.821,-44.434,-15.137,-31.250,-61.523,0.000
1680451804.825,-42.969,-26.855,-35.645,-51.270,0.000
1680451804.829,-29.297,-27.832,-37.109,-33.203,0.000
1680451804.833,-31.738,-32.715,-33.691,-26.367,0.000
1680451804.836,-43.945,-37.598,-22.949,-40.039,0.000
1680451804.840,-62.012,-26.855,-28.809,-48.340,0.000
1680451804.844,-81.543,-24.414,-40.039,-52.734,0.000
1680451804.848,-58.105,-29.785,-38.086,-38.086,0.000
1680451804.852,-32.227,-25.879,-33.691,-19.531,0.000
1680451804.856,-25.391,-15.137,-32.715,-29.785,0.000
1680451804.860,-40.527,-17.578,-40.527,-46.875,0.000
1680451804.864,-43.457,-21.484,-42.480,-47.363,0.000
1680451804.868,-23.926,-17.090,-31.250,-29.297,0.000
1680451804.872,-25.879,-25.879,-20.020,-26.367,0.000
1680451804.876,-29.785,-27.832,-34.668,-38.086,0.000
1680451804.879,-43.457,-23.438,-17.090,-47.363,0.000
1680451804.883,-67.871,-29.297,-1.953,-54.199,0.000
1680451804.887,-48.828,-32.715,-30.762,-37.598,0.000
1680451804.891,-41.016,-28.809,-29.785,-35.645,0.000
1680451804.895,-74.219,-25.879,-33.691,-79.102,0.000
1680451804.899,-72.266,-28.320,-42.480,-79.590,0.000
1680451804.903,-44.434,-31.738,-42.480,-41.992,0.000
1680451804.907,-34.668,-27.832,-35.156,-24.414,0.000
1680451804.911,-38.574,-20.508,-33.203,-33.203,0.000
1680451804.915,-60.059,-21.484,-40.039,-55.664,0.000
1680451804.919,-73.730,-22.461,-43.457,-53.711,0.000
1680451804.922,-61.523,-20.020,-37.109,-32.715,0.000
1680451804.926,-58.594,-28.320,-16.113,-23.926,0.000
1680451804.930,-62.500,-32.227,-13.184,-22.461,0.000
1680451804.934,-60.547,-20.508,-27.832,-30.762,0.000
1680451804.938,-59.082,-15.137,-39.062,-40.527,0.000
1680451804.942,-54.688,-20.508,-41.504,-34.180,0.000
1680451804.946,-60.547,-24.414,-35.645,-24.902,0.000
1680451804.950,-71.289,-30.762,-28.809,-31.738,0.000
1680451804.954,-62.012,-22.461,-31.738,-41.016,0.000
1680451804.958,-49.316,-26.367,-39.062,-31.738,0.000
1680451804.961,-51.270,-40.039,-39.062,-31.250,0.000
1680451804.965,-69.824,-40.039,-36.133,-44.434,0.000
1680451804.969,-74.219,-38.574,-35.645,-41.504,0.000
1680451804.973,-60.547,-31.250,-37.109,-34.668,0.000
1680451804.977,-64.453,-26.855,-38.574,-43.457,0.000
1680451804.981,-65.918,-30.762,-33.203,-45.898,0.000
1680451804.985,-73.242,-32.227,-28.320,-42.480,0.000
1680451804.989,-73.242,-28.809,-25.879,-39.062,0.000
1680451804.993,-61.523,-24.902,-25.879,-40.039,0.000
1680451804.997,-61.523,-33.203,-30.762,-42.969,0.000
1680451805.001,-69.824,-40.527,-36.621,-43.945,0.000
1680451805.004,-67.871,-39.551,-34.668,-38.574,0.000
1680451805.008,-62.500,-37.109,-30.762,-32.715,0.000
1680451805.012,-64.453,-37.598,-33.203,-29.785,0.000
1680451805.016,-70.312,-42.480,-31.250,-23.438,0.000
1680451805.020,-79.102,-47.363,-30.273,-35.645,0.000
1680451805.024,-70.801,-43.945,-35.156,-28.320,0.000
1680451805.028,-50.781,-37.598,-25.879,-16.113,0.000
1680451805.032,-29.297,-35.645,-6.836,-18.555,0.000
1680451805.036,-21.973,-35.645,-23.926,-28.809,0.000
1680451805.040,-22.949,-39.551,-34.180,-35.156,0.000
1680451805.043,-14.648,-33.691,-26.367,-28.320,0.000
1680451805.047,-15.137,-28.809,-24.414,-22.949,0.000
1680451805.051,-14.160,-32.227,-28.320,-20.508,0.000
1680451805.055,-13.672,-29.297,-28.320,-21.973,0.000
1680451805.059,-41.992,-28.320,-26.855,-24.414,0.000
1680451805.063,-59.082,-33.203,-27.832,-27.344,0.000
1680451805.067,-59.570,-36.621,-27.344,-25.391,0.000
1680451805.071,-49.316,-31.250,-27.344,-25.879,0.000
1680451805.075,-47.363,-37.109,-20.508,-33.691,0.000
1680451805.079,-61.035,-44.434,-18.555,-42.969,0.000
1680451805.083,-65.430,-39.551,-32.715,-43.945,0.000
1680451805.086,-53.711,-33.691,-28.809,-32.715,0.000
1680451805.090,-47.363,-30.762,-22.461,-34.180,0.000
1680451805.094,-42.480,-29.785,-26.367,-37.109,0.000
1680451805.098,-35.645,-28.320,-32.227,-41.992,0.000
1680451805.102,-30.762,-29.297,-36.133,-40.527,0.000
1680451805.106,-36.133,-34.180,-29.297,-27.832,0.000
1680451805.110,-51.270,-40.527,-26.367,-39.551,0.000
1680451805.114,-37.109,-41.992,-31.250,-33.691,0.000
1680451805.118,-33.691,-31.738,-31.738,-37.109,0.000
1680451805.122,-56.641,-27.344,-32.227,-66.406,0.000
1680451805.126,-49.316,-32.715,-32.227,-57.617,0.000
1680451805.129,-12.695,-33.691,-13.672,-20.508,0.000
1680451805.133,-11.230,-23.438,-14.648,-24.414,0.000
1680451805.137,-39.551,-14.160,-35.645,-58.105,0.000
1680451805.141,-39.062,-23.438,-35.156,-46.875,0.000
1680451805.145,-47.852,-35.645,-26.367,-48.340,0.000
1680451805.149,-43.945,-34.668,-16.113,-47.852,0.000
1680451805.153,-25.391,-27.832,-17.578,-30.273,0.000
1680451805.157,-32.715,-17.090,-20.996,-41.504,0.000
1680451805.161,-40.527,-19.531,-16.113,-46.387,0.000
1680451805.165,-42.480,-26.367,-9.766,-42.480,0.000
1680451805.168,-38.086,-17.090,-10.254,-47.363,0.000
1680451805.172,-25.879,-13.184,-21.484,-38.086,0.000
1680451805.176,-21.973,-14.160,-23.926,-32.715,0.000
1680451805.180,-29.785,-18.066,-27.832,-45.410,0.000
1680451805.184,-33.691,-30.273,-29.297,-41.992,0.000
1680451805.188,-26.855,-25.391,-27.344,-27.832,0.000
1680451805.192,-33.691,-15.625,-32.227,-42.480,0.000
1680451805.196,-11.230,-20.020,-28.809,-40.039,0.000
1680451805.200,3.418,-22.949,-27.832,-22.949,0.000
1680451805.204,-26.855,-30.762,-27.344,-37.598,0.000
1680451805.208,-31.738,-38.086,-22.461,-40.039,0.000
1680451805.211,-23.438,-29.297,-18.066,-35.645,0.000
1680451805.215,-12.695,-21.973,-23.438,-42.969,0.000
1680451805.219,-20.020,-35.645,-31.738,-44.922,0.000
1680451805.223,-32.715,-44.434,-21.973,-42.969,0.000
1680451805.227,-26.855,-43.945,-18.555,-38.086,0.000
1680451805.231,-24.902,-35.156,-32.227,-39.062,0.000
1680451805.235,-21.973,-23.926,-37.598,-41.992,0.000
1680451805.239,-12.207,-25.391,-25.879,-33.691,0.000
1680451805.243,-20.996,-30.762,-24.902,-30.762,0.000
1680451805.247,-31.738,-27.832,-30.762,-34.180,0.000
1680451805.251,-15.625,-20.020,-33.691,-25.879,0.000
1680451805.254,-12.695,-21.484,-1.953,-27.344,0.000
1680451805.258,-24.902,-25.879,8.789,-39.062,0.000
1680451805.262,-35.645,-27.344,-32.715,-34.180,0.000
1680451805.266,-36.621,-27.832,-38.086,-37.109,0.000
1680451805.270,-37.598,-28.320,-35.156,-41.504,0.000
1680451805.274,-41.016,-27.344,-36.621,-41.016,0.000
1680451805.278,-29.785,-25.391,-40.527,-36.621,0.000
1680451805.282,-20.996,-27.832,-33.691,-19.531,0.000
1680451805.286,-13.672,-36.133,-26.367,-6.836,0.000
1680451805.290,-21.484,-33.203,-30.273,-21.973,0.000
1680451805.293,-32.227,-20.508,-35.645,-44.922,0.000
1680451805.297,-22.461,-25.391,-32.715,-41.016,0.000
1680451805.301,-23.438,-33.691,0.977,-32.227,0.000
1680451805.305,-34.180,-30.762,-14.160,-38.574,0.000
1680451805.309,-25.879,-29.785,-36.621,-28.320,0.000
1680451805.313,-16.113,-29.297,-25.391,-17.090,0.000
1680451805.317,-19.043,-28.320,-31.250,-38.086,0.000
1680451805.321,-47.363,-30.273,-40.039,-55.176,0.000
1680451805.325,-56.641,-34.668,-36.621,-43.945,0.000
1680451805.329,-35.156,-35.645,-30.273,-25.879,0.000
1680451805.333,-39.062,-34.668,-30.273,-35.156,0.000
1680451805.336,-41.992,-33.691,-30.762,-37.109,0.000
1680451805.340,-40.527,-34.180,-33.203,-34.180,0.000
1680451805.344,-46.875,-33.203,-27.344,-39.551,0.000
1680451805.348,-40.039,-26.855,-22.949,-25.879,0.000
1680451805.352,-25.879,-25.879,-31.738,-20.508,0.000
1680451805.356,-23.438,-29.785,-34.668,-31.250,0.000
1680451805.360,-38.574,-29.785,-36.621,-39.551,0.000
1680451805.364,-39.062,-29.297,-34.180,-38.574,0.000
1680451805.368,-34.668,-30.762,-37.598,-31.738,0.000
1680451805.372,-38.086,-28.320,-42.480,-31.250,0.000
1680451805.375,-21.973,-28.320,-38.574,-28.809,0.000
1680451805.379,-25.879,-35.156,-36.621,-38.086,0.000
1680451805.383,-41.016,-33.691,-41.016,-46.387,0.000
1680451805.387,-42.480,-32.715,-37.109,-37.598,0.000
1680451805.391,-40.039,-29.297,-33.203,-35.156,0.000
1680451805.395,-23.926,-26.855,-36.133,-38.574,0.000
1680451805.399,-29.785,-29.785,-38.574,-37.109,0.000
1680451805.403,-40.527,-31.738,-38.086,-41.016,0.000
1680451805.407,-30.273,-32.227,-34.668,-39.062,0.000
1680451805.411,-33.203,-35.645,-34.180,-36.621,0.000
1680451805.415,-35.156,-40.527,-32.715,-35.645,0.000
1680451805.418,-38.574,-41.016,-32.227,-38.574,0.000
1680451805.422,-54.199,-44.434,-38.086,-45.898,0.000
1680451805.426,-60.547,-46.875,-44.434,-47.363,0.000
1680451805.430,-37.598,-37.598,-34.668,-32.715,0.000
1680451805.434,-27.832,-38.574,-30.273,-22.949,0.000
1680451805.438,-40.527,-39.062,-32.227,-40.039,0.000
1680451805.442,-43.457,-33.203,-28.809,-41.992,0.000
1680451805.446,-53.711,-35.156,-42.480,-40.527,0.000
1680451805.450,-30.273,-29.785,1.953,-23.926,0.000
1680451805.454,-11.719,-26.367,18.066,-13.184,0.000
1680451805.458,-26.367,-33.691,-41.992,-30.762,0.000
1680451805.461,-26.367,-32.227,-47.363,-38.086,0.000
1680451805.465,-36.133,-37.598,-38.574,-36.621,0.000
1680451805.469,-31.738,-36.133,-35.645,-28.809,0.000
1680451805.473,-13.184,-33.691,-40.527,-22.949,0.000
1680451805.477,-18.555,-35.156,-40.039,-22.461,0.000
1680451805.481,-23.438,-38.574,-33.203,-27.344,0.000
1680451805.485,-25.879,-39.551,-29.297,-34.180,0.000
1680451805.489,-28.320,-36.621,-36.621,-32.227,0.000
1680451805.493,-32.715,-39.062,-36.621,-29.785,0.000
1680451805.497,-43.457,-40.527,-18.555,-32.227,0.000
1680451805.500,-48.828,-40.039,-28.809,-31.738,0.000
1680451805.504,-53.223,-40.039,-41.992,-30.762,0.000
1680451805.508,-41.016,-33.203,-38.574,-28.809,0.000
1680451805.512,-25.391,-27.344,-34.180,-31.738,0.000
1680451805.516,-32.227,-34.180,-36.133,-47.363,0.000
1680451805.520,-39.551,-35.156,-34.668,-49.805,0.000
1680451805.524,-40.527,-30.762,-31.738,-33.691,0.000
1680451805.528,-34.180,-30.273,-35.156,-29.785,0.000
1680451805.532,-26.367,-26.367,-27.344,-21.484,0.000
1680451805.536,-29.785,-30.762,-31.738,-28.320,0.000
1680451805.540,-37.598,-33.691,-18.555,-34.180,0.000
1680451805.543,-50.781,-33.203,-9.766,-27.832,0.000
1680451805.547,-44.922,-33.203,-33.203,-30.273,0.000
1680451805.551,-26.855,-26.855,-33.691,-32.227,0.000
1680451805.555,-32.227,-31.250,-38.086,-35.645,0.000
1680451805.559,-56.641,-39.551,-49.805,-46.875,0.000
1680451805.563,-66.406,-35.645,-47.363,-48.340,0.000
1680451805.567,-58.105,-38.574,-40.039,-38.574,0.000
1680451805.571,-45.898,-38.574,-41.016,-40.527,0.000
1680451805.575,-39.062,-29.297,-37.109,-47.852,0.000
1680451805.579,-42.480,-26.367,-41.992,-54.688,0.000
1680451805.583,-59.570,-29.297,-40.527,-59.082,0.000
1680451805.586,-76.172,-41.504,-15.137,-60.547,0.000
1680451805.590,-65.430,-44.922,-31.738,-61.523,0.000
1680451805.594,-36.133,-30.273,-49.805,-45.898,0.000
1680451805.598,-33.203,-24.902,-40.039,-47.363,0.000
1680451805.602,-44.922,-25.879,-32.715,-49.316,0.000
1680451805.606,-28.809,-21.484,-35.156,-34.668,0.000
1680451805.610,10.254,-17.578,-39.551,-15.625,0.000
1680451805.614,11.719,-23.926,-33.203,-14.648,0.000
1680451805.618,-16.113,-36.621,-36.621,-36.133,0.000
1680451805.622,-25.391,-37.598,-37.109,-35.156,0.000
1680451805.625,-36.621,-31.250,-34.668,-25.879,0.000
1680451805.629,-45.898,-35.645,-20.508,-24.414,0.000
1680451805.633,-29.297,-44.922,-3.906,-11.719,0.000
1680451805.637,-33.203,-39.551,-23.438,-14.648,0.000
1680451805.641,-62.500,-35.645,-31.738,-35.645,0.000
1680451805.645,-70.312,-39.062,-32.227,-42.969,0.000
1680451805.649,-64.453,-42.480,-33.691,-40.527,0.000
1680451805.653,-49.805,-42.969,-28.809,-35.156,0.000
1680451805.657,-44.434,-38.086,-33.203,-39.062,0.000
1680451805.661,-53.223,-38.574,-35.645,-45.410,0.000
1680451805.665,-64.453,-47.363,-29.785,-43.945,0.000
1680451805.668,-54.688,-44.434,-32.227,-35.156,0.000
1680451805.672,-37.109,-35.645,-26.367,-30.762,0.000
1680451805.676,-35.645,-36.621,3.418,-30.762,0.000
1680451805.680,-50.293,-47.852,-14.648,-41.016,0.000
1680451805.684,-52.734,-41.504,-41.016,-38.574,0.000
1680451805.688,-42.480,-37.598,-41.016,-34.180,0.000
1680451805.692,-24.902,-45.410,-39.062,-29.297,0.000
1680451805.696,-14.648,-41.016,-37.109,-19.531,0.000
1680451805.700,-29.297,-33.203,-37.598,-19.043,0.000
1680451805.704,-33.203,-33.691,-37.109,-22.461,0.000
1680451805.707,-26.855,-42.480,-38.086,-19.531,0.000
1680451805.711,-10.742,-35.645,-32.227,-2.930,0.000
1680451805.715,4.883,-29.785,-30.762,3.906,0.000
1680451805.719,-11.230,-37.598,-22.461,-6.836,0.000
1680451805.723,-35.645,-44.434,-19.043,-16.602,0.000
1680451805.727,-39.551,-47.852,-30.273,-17.578,0.000
1680451805.731,-34.180,-48.340,-34.180,-19.043,0.000
1680451805.735,-40.039,-48.828,-39.062,-24.414,0.000
1680451805.739,-47.363,-44.434,-36.133,-35.156,0.000
1680451805.743,-49.805,-39.062,-25.879,-39.062,0.000
1680451805.747,-50.781,-44.434,-23.926,-36.133,0.000
1680451805.750,-47.852,-40.527,-25.879,-39.062,0.000
1680451805.754,-51.758,-35.645,-26.367,-47.852,0.000
1680451805.758,-48.340,-39.062,-27.832,-51.758,0.000
1680451805.762,-50.293,-38.086,-24.902,-53.223,0.000
1680451805.766,-57.129,-34.668,-21.484,-49.316,0.000
1680451805.770,-36.621,-33.691,-23.438,-35.645,0.000
1680451805.774,-23.438,-35.156,-32.715,-31.250,0.000
1680451805.778,-24.414,-39.062,-31.738,-35.645,0.000
1680451805.782,-22.949,-38.574,-2.441,-31.250,0.000
1680451805.786,-24.902,-37.598,-14.160,-24.902,0.000
1680451805.790,-20.996,-35.645,-32.227,-18.555,0.000
1680451805.793,-14.648,-32.227,-23.438,-15.625,0.000
1680451805.797,-12.207,-30.273,-22.949,-15.137,0.000
1680451805.801,-7.324,-27.344,-28.320,-16.602,0.000
1680451805.805,-9.277,-31.250,-27.832,-20.508,0.000
1680451805.809,-13.672,-35.645,-24.902,-21.973,0.000
1680451805.813,-5.371,-29.785,-25.879,-21.973,0.000
1680451805.817,-6.348,-26.855,-27.344,-29.297,0.000
1680451805.821,-31.250,-34.180,-36.133,-37.598,0.000
1680451805.825,-42.969,-40.527,-6.348,-41.992,0.000
1680451805.829,-40.039,-40.039,6.348,-47.852,0.000
1680451805.832,-33.203,-35.156,-31.250,-45.410,0.000
1680451805.836,-35.156,-33.203,-36.133,-47.852,0.000
1680451805.840,-52.734,-38.086,-37.598,-60.547,0.000
1680451805.844,-55.664,-40.527,-37.109,-57.129,0.000
1680451805.848,-37.598,-38.574,-35.645,-39.062,0.000
1680451805.852,-27.832,-37.598,-32.227,-36.133,0.000
1680451805.856,-34.180,-37.598,-29.785,-42.480,0.000
1680451805.860,-43.945,-37.109,-32.227,-41.992,0.000
1680451805.864,-46.875,-40.039,-37.598,-41.504,0.000
1680451805.868,-42.480,-40.527,-35.156,-37.109,0.000
1680451805.872,-25.879,-40.039,-16.113,-23.926,0.000
1680451805.875,-11.719,-41.504,-22.949,-21.973,0.000
1680451805.879,-17.090,-40.527,-40.527,-26.367,0.000
1680451805.883,-25.879,-36.133,-40.039,-20.508,0.000
1680451805.887,-19.043,-33.203,-35.156,-15.625,0.000
1680451805.891,-6.836,-28.320,-38.574,-13.184,0.000
1680451805.895,-10.254,-35.156,-39.062,-19.531,0.000
1680451805.899,-33.203,-44.922,-36.133,-27.832,0.000
1680451805.903,-37.598,-44.922,-44.434,-31.738,0.000
1680451805.907,-33.691,-44.922,-41.992,-29.785,0.000
1680451805.911,-22.949,-36.621,-39.551,-21.484,0.000
1680451805.915,-36.133,-40.039,-34.180,-33.691,0.000
1680451805.918,-47.852,-47.852,-25.391,-40.527,0.000
1680451805.922,-29.785,-40.039,-33.691,-35.645,0.000
1680451805.926,-32.715,-37.109,-39.551,-37.109,0.000
1680451805.930,-40.527,-38.574,-38.574,-34.668,0.000
1680451805.934,-33.203,-33.691,-36.621,-30.762,0.000
1680451805.938,-35.156,-34.668,-39.062,-33.203,0.000
1680451805.942,-47.852,-40.527,-38.086,-45.410,0.000
1680451805.946,-52.246,-35.645,-33.203,-39.551,0.000
1680451805.950,-39.062,-29.785,-33.203,-24.414,0.000
1680451805.954,-23.926,-26.367,-32.715,-20.996,0.000
1680451805.957,-24.902,-30.762,-33.203,-29.297,0.000
1680451805.961,-35.645,-41.016,-35.645,-35.156,0.000
1680451805.965,-39.551,-42.969,-37.109,-32.715,0.000
1680451805.969,-32.227,-41.016,-37.109,-28.809,0.000
1680451805.973,-14.648,-37.109,-29.785,-16.113,0.000
1680451805.977,-11.230,-33.203,-31.738,-15.625,0.000
1680451805.981,-27.344,-32.715,-35.156,-22.949,0.000
1680451805.985,-35.645,-37.109,-27.344,-19.531,0.000
1680451805.989,-37.598,-33.691,-28.809,-20.508,0.000
1680451805.993,-36.621,-27.344,-32.715,-23.926,0.000
1680451805.997,-36.621,-29.785,-26.367,-24.414,0.000
1680451806.000,-43.945,-40.039,-33.203,-35.156,0.000
1680451806.004,-48.340,-43.945,-14.160,-42.969,0.000
1680451806.008,-44.434,-41.504,1.465,-40.527,0.000
1680451806.012,-22.949,-35.156,-22.461,-31.250,0.000
1680451806.016,-17.090,-31.250,-29.297,-33.691,0.000
1680451806.020,-30.762,-34.180,-28.320,-37.109,0.000
1680451806.024,-31.738,-35.156,-28.320,-36.621,0.000
1680451806.028,-27.832,-26.855,-30.762,-29.785,0.000
1680451806.032,-24.902,-21.484,-31.250,-19.531,0.000
1680451806.036,-19.531,-27.344,-29.297,-19.043,0.000
1680451806.040,-23.926,-31.738,-27.832,-22.949,0.000
1680451806.043,-26.367,-29.785,-32.715,-25.879,0.000
1680451806.047,-26.367,-28.320,-35.645,-17.578,0.000
1680451806.051,-28.320,-32.715,-28.320,-15.625,0.000
1680451806.055,-20.508,-32.715,-33.203,-20.996,0.000
1680451806.059,-20.996,-29.785,-38.574,-24.902,0.000
1680451806.063,-22.949,-32.227,-32.227,-21.484,0.000
1680451806.067,-23.438,-33.203,-36.621,-9.277,0.000
1680451806.071,-23.926,-33.691,-45.410,-14.160,0.000
1680451806.075,-20.508,-29.785,-41.504,-21.973,0.000
1680451806.079,-28.809,-27.832,-34.180,-22.949,0.000
1680451806.082,-34.668,-35.645,-39.551,-28.320,0.000
1680451806.086,-38.086,-41.016,-42.480,-27.344,0.000
1680451806.090,-31.250,-28.809,-37.109,-24.414,0.000
1680451806.094,-21.484,-25.391,-35.156,-29.297,0.000
1680451806.098,-32.715,-39.551,-39.062,-43.457,0.000
1680451806.102,-40.527,-36.133,-37.598,-46.387,0.000
1680451806.106,-30.273,-30.762,-26.855,-29.297,0.000
1680451806.110,-26.367,-35.156,-30.762,-17.090,0.000
1680451806.114,-28.320,-33.203,-30.273,-20.020,0.000
1680451806.118,-36.133,-38.086,-28.809,-34.668,0.000
1680451806.122,-41.504,-41.016,-31.738,-36.621,0.000
1680451806.125,-42.969,-38.574,-35.156,-24.902,0.000
1680451806.129,-38.574,-36.133,-34.668,-20.508,0.000
1680451806.133,-15.137,-28.320,-26.367,-16.602,0.000
1680451806.137,-5.371,-32.715,-24.414,-10.742,0.000
1680451806.141,-21.484,-42.480,-25.391,-19.043,0.000
1680451806.145,-21.484,-39.062,-25.879,-19.531,0.000
1680451806.149,-7.324,-42.969,-31.250,-9.277,0.000
1680451806.153,-1.465,-44.434,-27.344,-11.230,0.000
1680451806.157,-8.301,-36.621,-17.090,-15.137,0.000
1680451806.161,-11.719,-33.203,-24.902,-19.043,0.000
1680451806.164,-18.066,-38.574,-32.715,-24.414,0.000
1680451806.168,-14.160,-40.527,-32.715,-15.625,0.000
1680451806.172,-9.277,-34.180,-32.227,-15.137,0.000
1680451806.176,-24.414,-31.738,-35.645,-27.832,0.000
1680451806.180,-35.156,-40.527,-39.551,-32.715,0.000
1680451806.184,-50.293,-47.363,-36.133,-38.086,0.000
1680451806.188,-56.152,-40.039,-34.180,-36.621,0.000
1680451806.192,-36.133,-35.645,-35.156,-25.391,0.000
1680451806.196,-31.250,-36.133,-34.180,-30.273,0.000
1680451806.200,-44.922,-37.598,-28.320,-43.457,0.000
1680451806.204,-50.781,-42.969,-28.809,-40.039,0.000
1680451806.207,-47.852,-42.480,-36.133,-32.227,0.000
1680451806.211,-37.109,-39.062,-35.156,-32.715,0.000
1680451806.215,-31.250,-35.156,-38.086,-28.320,0.000
1680451806.219,-41.504,-33.691,-38.574,-27.832,0.000
1680451806.223,-41.992,-34.668,-35.156,-25.391,0.000
1680451806.227,-38.574,-37.598,-32.227,-16.113,0.000
1680451806.231,-32.715,-37.598,-28.320,-9.277,0.000
1680451806.235,-19.531,-24.902,-25.879,-0.488,0.000
1680451806.239,-23.926,-24.414,-27.344,-12.695,0.000
1680451806.243,-40.527,-39.062,-33.203,-19.531,0.000
1680451806.247,-46.875,-41.504,-36.133,-16.113,0.000
1680451806.250,-31.738,-32.715,-29.785,-10.254,0.000
1680451806.254,-22.949,-34.668,-29.297,-14.648,0.000
1680451806.258,-35.156,-41.016,-32.227,-30.762,0.000
1680451806.262,-46.387,-40.527,-30.273,-32.227,0.000
1680451806.266,-55.176,-37.598,-31.738,-38.574,0.000
1680451806.270,-54.688,-37.598,-35.645,-45.898,0.000
1680451806.274,-52.734,-38.086,-36.621,-47.363,0.000
1680451806.278,-53.223,-38.574,-33.203,-49.805,0.000
1680451806.282,-52.246,-37.109,-31.250,-45.898,0.000
1680451806.286,-51.270,-36.133,-29.785,-43.457,0.000
1680451806.289,-50.293,-38.574,-26.855,-46.387,0.000
1680451806.293,-44.434,-35.156,-28.809,-53.711,0.000
1680451806.297,-42.969,-34.180,-31.738,-59.082,0.000
1680451806.301,-47.363,-37.598,-34.180,-60.059,0.000
1680451806.305,-45.410,-33.691,-36.133,-46.875,0.000
1680451806.309,-32.227,-29.785,-32.715,-40.039,0.000
1680451806.313,-18.555,-28.320,-32.227,-43.945,0.000
1680451806.317,1.465,-25.391,-33.203,-24.902,0.000
1680451806.321,0.488,-30.273,-27.832,-12.207,0.000
1680451806.325,-42.480,-36.621,-27.832,-30.273,0.000
1680451806.329,-48.340,-26.855,-40.039,-41.016,0.000
1680451806.332,-24.414,-24.902,-38.574,-34.668,0.000
1680451806.336,-32.227,-36.133,-13.672,-40.039,0.000
1680451806.340,-58.594,-40.039,-24.902,-59.570,0.000
1680451806.344,-47.852,-28.320,-42.969,-52.734,0.000
1680451806.348,-24.902,-28.809,-37.109,-29.297,0.000
1680451806.352,-27.832,-37.109,-32.715,-37.598,0.000
1680451806.356,-33.691,-39.551,-29.785,-48.828,0.000
1680451806.360,-25.879,-39.551,-28.320,-38.574,0.000
1680451806.364,-33.203,-38.086,-32.715,-42.480,0.000
1680451806.368,-54.199,-35.645,-34.668,-61.035,0.000
1680451806.372,-50.781,-37.109,-29.785,-59.082,0.000
1680451806.375,-26.367,-41.504,-37.109,-44.434,0.000
1680451806.379,-24.902,-40.527,-20.020,-43.945,0.000
1680451806.383,-48.828,-38.086,-4.395,-49.316,0.000
1680451806.387,-46.875,-34.668,-28.320,-47.363,0.000
1680451806.391,-30.762,-27.832,-35.156,-32.715,0.000
1680451806.395,-31.738,-24.414,-30.762,-27.832,0.000
1680451806.399,-42.969,-33.691,-26.855,-33.203,0.000
1680451806.403,-49.316,-36.133,-29.785,-33.203,0.000
1680451806.407,-37.109,-33.203,-29.785,-27.344,0.000
1680451806.411,-24.414,-33.203,-28.809,-22.461,0.000
1680451806.414,-27.832,-37.598,-31.250,-17.578,0.000
1680451806.418,-39.062,-41.992,-36.621,-19.043,0.000
1680451806.422,-49.316,-27.344,-34.668,-31.250,0.000
1680451806.426,-37.598,-28.320,-13.672,-27.344,0.000
1680451806.430,-26.367,-41.504,-20.508,-25.391,0.000
1680451806.434,-30.273,-32.227,-36.133,-32.227,0.000
1680451806.438,-37.109,-29.297,-38.574,-43.457,0.000
1680451806.442,-34.668,-29.785,-40.039,-44.922,0.000
1680451806.446,-24.414,-28.809,-32.227,-25.879,0.000
1680451806.450,-36.621,-25.879,-28.809,-28.809,0.000
1680451806.454,-46.387,-25.391,-33.203,-45.410,0.000
1680451806.457,-36.133,-32.715,-34.668,-45.898,0.000
1680451806.461,-38.086,-37.109,-41.504,-47.852,0.000
1680451806.465,-45.898,-33.691,-43.457,-44.922,0.000
1680451806.469,-32.715,-30.273,-20.020,-33.203,0.000
1680451806.473,-23.926,-29.785,-14.648,-27.344,0.000
1680451806.477,-30.273,-28.809,-35.156,-25.879,0.000
1680451806.481,-30.273,-31.738,-33.691,-21.484,0.000
1680451806.485,-29.785,-34.668,-25.391,-17.578,0.000
1680451806.489,-31.250,-36.621,-29.785,-13.184,0.000
1680451806.493,-28.320,-31.738,-37.598,-14.648,0.000
1680451806.496,-27.832,-32.227,-35.645,-25.879,0.000
1680451806.500,-32.715,-38.086,-33.691,-26.855,0.000
1680451806.504,-35.645,-39.062,-39.062,-25.879,0.000
1680451806.508,-20.020,-34.180,-38.574,-23.438,0.000
1680451806.512,-18.066,-35.645,-41.504,-25.391,0.000
1680451806.516,-29.785,-36.621,-40.527,-34.180,0.000
1680451806.520,-34.180,-37.598,-36.133,-38.086,0.000
1680451806.524,-37.109,-40.039,-37.109,-41.992,0.000
1680451806.528,-32.227,-37.109,-38.574,-41.016,0.000
1680451806.532,-32.715,-35.645,-42.969,-46.387,0.000
1680451806.536,-31.738,-33.203,-34.180,-44.434,0.000
1680451806.539,-37.109,-31.738,-31.250,-35.645,0.000
1680451806.543,-35.645,-28.809,-30.273,-28.809,0.000
1680451806.547,-28.320,-27.832,-24.902,-20.508,0.000
1680451806.551,-26.367,-31.250,-30.273,-21.973,0.000
1680451806.555,-20.996,-31.738,-36.133,-19.531,0.000
1680451806.559,-25.391,-28.320,-38.574,-19.531,0.000
1680451806.563,-37.598,-33.203,-39.062,-27.832,0.000
1680451806.567,-33.203,-37.598,-36.133,-23.926,0.000
1680451806.571,-22.461,-29.785,-34.180,-21.973,0.000
1680451806.575,-20.508,-24.414,-31.738,-24.414,0.000
1680451806.579,-24.902,-26.855,-33.203,-24.414,0.000
1680451806.582,-29.297,-27.344,-33.691,-22.949,0.000
1680451806.586,-29.785,-29.297,-29.785,-22.949,0.000
1680451806.590,-18.066,-27.344,-34.180,-18.555,0.000
1680451806.594,-20.508,-26.855,-38.574,-21.973,0.000
1680451806.598,-36.621,-22.461,-34.180,-28.809,0.000
1680451806.602,-46.387,-31.738,-31.738,-27.344,0.000
1680451806.606,-44.922,-42.969,-30.273,-23.438,0.000
1680451806.610,-35.645,-29.297,-30.762,-23.438,0.000
1680451806.614,-37.598,-34.180,-40.527,-32.715,0.000
1680451806.618,-42.969,-41.992,-43.457,-44.922,0.000
1680451806.621,-49.805,-34.668,-30.273,-49.316,0.000
1680451806.625,-41.016,-29.297,-26.367,-37.598,0.000
1680451806.629,-27.344,-28.809,-31.250,-28.320,0.000
1680451806.633,-23.438,-27.344,-32.715,-28.320,0.000
1680451806.637,-34.180,-30.273,-34.180,-30.273,0.000
1680451806.641,-50.781,-31.738,-36.621,-36.133,0.000
1680451806.645,-54.688,-31.738,-34.180,-32.715,0.000
1680451806.649,-42.480,-34.180,-30.273,-21.973,0.000
1680451806.653,-34.668,-34.180,-32.715,-20.508,0.000
1680451806.657,-34.180,-27.344,-31.250,-22.461,0.000
1680451806.661,-43.457,-31.738,-35.645,-30.762,0.000
1680451806.664,-50.293,-41.992,-35.645,-30.273,0.000
1680451806.668,-38.574,-36.621,-33.203,-24.902,0.000
1680451806.672,-34.180,-33.203,-40.527,-35.156,0.000
1680451806.676,-32.227,-35.156,-36.133,-38.574,0.000
1680451806.680,-46.875,-41.504,-35.156,-41.504,0.000
1680451806.684,-54.199,-40.527,-42.480,-44.922,0.000
1680451806.688,-27.832,-29.297,-43.945,-39.551,0.000
1680451806.692,-11.719,-24.902,-42.480,-36.133,0.000
1680451806.696,-20.508,-33.203,-40.039,-41.504,0.000
1680451806.700,-40.039,-44.434,-39.062,-52.246,0.000
1680451806.704,-52.246,-41.992,-39.062,-57.617,0.000
1680451806.707,-45.898,-36.133,-37.109,-43.945,0.000
1680451806.711,-29.785,-35.156,-21.973,-28.809,0.000
1680451806.715,-25.391,-36.133,-22.461,-29.297,0.000
1680451806.719,-38.574,-38.086,-33.203,-34.180,0.000
1680451806.723,-49.805,-36.621,-30.762,-24.414,0.000
1680451806.727,-38.574,-32.715,-30.273,-17.090,0.000
1680451806.731,-28.809,-31.738,-29.297,-16.113,0.000
1680451806.735,-18.555,-31.738,-27.832,-10.254,0.000
1680451806.739,-21.973,-32.715,-31.738,-18.555,0.000
1680451806.743,-32.227,-31.250,-32.227,-18.066,0.000
1680451806.746,-34.180,-39.062,-31.738,-17.090,0.000
1680451806.750,-29.785,-38.086,-29.785,-16.602,0.000
1680451806.754,-23.438,-34.668,-25.879,-18.066,0.000
1680451806.758,-34.180,-43.457,-26.855,-22.949,0.000
1680451806.762,-48.828,-42.480,-28.809,-23.926,0.000
1680451806.766,-48.340,-41.992,-30.273,-20.996,0.000
1680451806.770,-38.086,-41.016,-29.785,-19.531,0.000
1680451806.774,-40.039,-42.480,-31.738,-21.484,0.000
1680451806.778,-47.363,-50.293,-35.156,-28.809,0.000
1680451806.782,-52.246,-46.875,-34.180,-42.480,0.000
1680451806.786,-49.316,-41.504,-36.133,-42.969,0.000
1680451806.789,-38.086,-40.039,-35.645,-36.133,0.000
1680451806.793,-39.062,-35.645,-34.180,-39.551,0.000
1680451806.797,-48.828,-33.203,-32.227,-43.457,0.000
1680451806.801,-49.316,-38.086,-15.137,-41.992,0.000
1680451806.805,-39.062,-38.574,-20.996,-37.598,0.000
1680451806.809,-38.574,-32.227,-34.180,-28.809,0.000
1680451806.813,-37.598,-29.785,-33.691,-35.645,0.000
1680451806.817,-36.621,-31.250,-33.203,-42.480,0.000
1680451806.821,-40.527,-33.691,-31.738,-33.203,0.000
1680451806.825,-31.738,-30.273,-33.691,-18.066,0.000
1680451806.828,-27.344,-23.438,-31.250,-20.508,0.000
1680451806.832,-30.273,-22.461,-28.320,-29.785,0.000
1680451806.836,-35.645,-24.902,-33.203,-35.156,0.000
1680451806.840,-42.480,-26.367,-38.574,-31.738,0.000
1680451806.844,-44.922,-25.879,-24.414,-30.273,0.000
1680451806.848,-40.527,-35.156,-17.578,-33.203,0.000
1680451806.852,-34.180,-36.621,-31.250,-39.551,0.000
1680451806.856,-35.156,-28.320,-30.273,-53.223,0.000
1680451806.860,-37.598,-31.250,-24.414,-51.270,0.000
1680451806.864,-42.480,-35.156,-23.438,-30.762,0.000
1680451806.868,-44.922,-25.879,-28.320,-35.156,0.000
1680451806.871,-39.062,-23.438,-34.180,-52.734,0.000
1680451806.875,-36.621,-24.902,-30.273,-51.758,0.000
1680451806.879,-51.270,-29.785,-26.855,-57.129,0.000
1680451806.883,-61.035,-33.691,-36.621,-63.477,0.000
1680451806.887,-58.594,-34.668,-34.180,-55.176,0.000
1680451806.891,-61.035,-42.969,-21.973,-53.223,0.000
1680451806.895,-58.105,-41.992,-28.809,-55.176,0.000
1680451806.899,-52.734,-34.668,-42.480,-53.223,0.000
1680451806.903,-43.945,-30.762,-33.691,-35.645,0.000
1680451806.907,-33.691,-29.297,-20.020,-22.949,0.000
1680451806.911,-29.297,-26.855,-29.297,-27.832,0.000
1680451806.914,-26.855,-29.785,-39.062,-30.762,0.000
1680451806.918,-27.344,-32.227,-35.156,-24.414,0.000
1680451806.922,-38.086,-29.297,-33.691,-31.250,0.000
1680451806.926,-40.039,-25.391,-35.645,-33.203,0.000
1680451806.930,-19.043,-35.156,-35.645,-16.602,0.000
1680451806.934,-25.391,-38.086,-33.691,-25.879,0.000
1680451806.938,-44.434,-27.832,-34.668,-43.945,0.000
1680451806.942,-46.387,-34.668,-34.668,-32.227,0.000
1680451806.946,-39.551,-44.922,-34.180,-21.484,0.000
1680451806.950,-33.203,-37.109,-10.254,-35.156,0.000
1680451806.953,-42.480,-26.367,-2.930,-49.805,0.000
1680451806.957,-55.664,-34.180,-31.250,-57.129,0.000
1680451806.961,-62.988,-45.898,-38.574,-60.547,0.000
1680451806.965,-49.805,-44.434,-37.109,-50.781,0.000
1680451806.969,-45.898,-37.109,-32.715,-42.480,0.000
1680451806.973,-49.316,-34.668,-33.203,-46.875,0.000
1680451806.977,-45.898,-32.715,-34.180,-47.852,0.000
1680451806.981,-47.363,-28.809,-36.621,-39.551,0.000
1680451806.985,-45.898,-31.250,-39.551,-40.039,0.000
1680451806.989,-30.762,-28.320,-35.645,-33.203,0.000
1680451806.993,-18.555,-24.902,-32.227,-19.531,0.000
1680451806.996,-28.809,-31.738,-15.137,-22.949,0.000
1680451807.000,-34.180,-32.715,-20.508,-26.367,0.000
1680451807.004,-35.645,-32.715,-35.156,-22.949,0.000
1680451807.008,-29.297,-37.598,-32.227,-17.090,0.000
1680451807.012,-16.113,-33.203,-35.156,-9.277,0.000
1680451807.016,-15.137,-30.273,-39.062,-17.578,0.000
1680451807.020,-34.180,-34.668,-36.133,-31.250,0.000
1680451807.024,-46.387,-41.016,-39.551,-32.227,0.000
1680451807.028,-39.551,-44.922,-43.945,-35.156,0.000
1680451807.032,-30.273,-34.180,-37.598,-30.273,0.000
1680451807.036,-27.344,-27.344,-34.668,-20.508,0.000
1680451807.039,-44.922,-38.086,-38.574,-29.297,0.000
1680451807.043,-53.711,-35.156,-35.645,-42.969,0.000
1680451807.047,-48.828,-30.273,-34.180,-44.922,0.000
1680451807.051,-45.898,-36.133,-38.574,-41.016,0.000
1680451807.055,-41.992,-37.598,-39.062,-37.598,0.000
1680451807.059,-52.734,-43.945,-35.645,-38.086,0.000
1680451807.063,-54.688,-43.457,-34.180,-36.621,0.000
1680451807.067,-48.340,-35.645,-35.156,-38.086,0.000
1680451807.071,-42.480,-30.762,-32.715,-35.645,0.000
1680451807.075,-34.180,-34.668,-29.297,-31.250,0.000
1680451807.078,-37.109,-36.133,-27.832,-34.180,0.000
1680451807.082,-39.551,-32.715,-32.227,-37.109,0.000
1680451807.086,-41.016,-36.621,-40.527,-34.180,0.000
1680451807.090,-28.809,-37.598,-33.691,-29.785,0.000
1680451807.094,-12.695,-34.180,-30.762,-24.902,0.000
1680451807.098,-21.484,-20.996,-42.480,-34.180,0.000
1680451807.102,-31.738,-21.973,-39.062,-40.039,0.000
1680451807.106,-36.133,-36.133,-21.484,-25.391,0.000
1680451807.110,-39.551,-30.273,-23.926,-22.461,0.000
1680451807.114,-48.340,-31.250,-36.621,-44.434,0.000
1680451807.118,-45.898,-31.738,-39.062,-50.781,0.000
1680451807.121,-31.738,-28.320,-32.227,-40.039,0.000
1680451807.125,-47.363,-36.621,-27.344,-38.574,0.000
1680451807.129,-52.246,-38.574,-31.250,-32.227,0.000
1680451807.133,-40.039,-33.691,-35.645,-37.109,0.000
1680451807.137,-48.828,-29.785,-33.691,-52.246,0.000
1680451807.141,-62.988,-32.227,-33.691,-55.664,0.000
1680451807.145,-64.453,-36.133,-33.203,-50.293,0.000
1680451807.149,-45.410,-35.156,-32.715,-32.715,0.000
1680451807.153,-20.020,-37.598,-36.621,-20.996,0.000
1680451807.157,-39.062,-38.574,-37.109,-32.227,0.000
1680451807.160,-63.965,-34.668,-34.668,-43.945,0.000
1680451807.164,-51.270,-32.715,-32.227,-30.762,0.000
1680451807.168,-35.156,-28.809,-30.273,-16.113,0.000
1680451807.172,-28.809,-25.879,-26.855,-18.066,0.000
1680451807.176,-45.898,-40.527,-20.996,-33.691,0.000
1680451807.180,-51.270,-47.363,-22.461,-39.062,0.000
1680451807.184,-49.805,-31.738,-33.203,-47.363,0.000
1680451807.188,-51.270,-22.949,-38.574,-62.988,0.000
1680451807.192,-32.227,-24.902,-31.250,-59.570,0.000
1680451807.196,-36.621,-25.879,-29.297,-62.988,0.000
1680451807.200,-60.059,-35.156,-31.250,-74.707,0.000
1680451807.203,-66.895,-33.203,-23.438,-85.449,0.000
1680451807.207,-70.312,-21.484,-26.855,-96.191,0.000
1680451807.211,-83.496,-24.414,-36.621,-91.797,0.000
1680451807.215,-83.496,-23.926,-32.227,-84.473,0.000
1680451807.219,-83.496,-22.949,-34.668,-89.355,0.000
1680451807.223,-91.309,-31.738,-39.062,-88.379,0.000
1680451807.227,-93.750,-34.180,-37.598,-84.473,0.000
1680451807.231,-86.426,-32.227,-36.133,-67.871,0.000
1680451807.235,-77.637,-25.879,-35.645,-56.152,0.000
1680451807.239,-73.730,-28.320,-38.574,-57.617,0.000
1680451807.243,-65.430,-29.785,-33.203,-45.898,0.000
1680451807.246,-61.035,-26.855,-27.344,-39.062,0.000
1680451807.250,-51.758,-28.320,-33.203,-42.480,0.000
1680451807.254,-37.109,-26.367,-34.180,-37.598,0.000
1680451807.258,-35.156,-22.949,-34.668,-30.273,0.000
1680451807.262,-53.223,-30.762,-33.203,-35.645,0.000
1680451807.266,-60.547,-34.180,-29.785,-45.898,0.000
1680451807.270,-46.387,-30.273,-32.227,-50.293,0.000
1680451807.274,-39.551,-33.691,-37.109,-46.387,0.000
1680451807.278,-41.504,-35.156,-40.527,-47.363,0.000
1680451807.282,-54.199,-37.598,-35.156,-53.223,0.000
1680451807.285,-69.336,-39.551,-39.551,-55.664,0.000
1680451807.289,-57.617,-32.715,-40.527,-45.410,0.000
1680451807.293,-46.875,-25.879,-35.156,-45.898,0.000
1680451807.297,-66.895,-30.273,-44.434,-57.617,0.000
1680451807.301,-77.148,-31.250,-45.898,-59.570,0.000
1680451807.305,-72.754,-34.668,-41.504,-62.012,0.000
1680451807.309,-62.500,-33.203,-40.527,-62.500,0.000
1680451807.313,-49.316,-24.414,-37.598,-60.547,0.000
1680451807.317,-53.223,-28.809,-39.551,-62.012,0.000
1680451807.321,-52.734,-39.062,-43.457,-52.246,0.000
1680451807.325,-50.781,-38.574,-32.715,-43.457,0.000
1680451807.328,-43.945,-30.273,-24.902,-38.086,0.000
1680451807.332,-25.391,-25.879,-33.691,-27.832,0.000
1680451807.336,-30.273,-27.832,-32.715,-20.508,0.000
1680451807.340,-49.805,-34.668,-33.203,-19.043,0.000
1680451807.344,-53.711,-40.527,-34.668,-20.508,0.000
1680451807.348,-45.898,-41.016,-39.062,-22.949,0.000
1680451807.352,-33.691,-30.273,-33.691,-27.344,0.000
1680451807.356,-31.738,-26.855,-29.785,-33.691,0.000
1680451807.360,-46.875,-28.809,-31.250,-39.551,0.000
1680451807.364,-47.363,-32.227,-34.668,-40.527,0.000
1680451807.368,-31.250,-36.621,-31.738,-37.598,0.000
1680451807.371,-35.645,-36.621,-18.066,-41.016,0.000
1680451807.375,-46.387,-34.668,-24.902,-50.781,0.000
1680451807.379,-52.246,-33.203,-38.086,-56.641,0.000
1680451807.383,-64.453,-41.016,-39.551,-63.965,0.000
1680451807.387,-62.988,-41.504,-37.598,-62.500,0.000
1680451807.391,-51.270,-34.180,-40.527,-52.734,0.000
1680451807.395,-44.922,-33.203,-41.504,-52.246,0.000
1680451807.399,-55.176,-37.598,-41.016,-65.430,0.000
1680451807.403,-50.781,-40.039,-36.621,-59.082,0.000
1680451807.407,-34.668,-29.785,-32.227,-39.062,0.000
1680451807.410,-29.297,-29.785,-41.504,-34.668,0.000
1680451807.414,-25.391,-35.156,-25.391,-31.738,0.000
1680451807.418,-25.391,-32.227,-13.184,-23.926,0.000
1680451807.422,-28.809,-32.227,-36.133,-21.973,0.000
1680451807.426,-29.297,-36.621,-41.992,-20.996,0.000
1680451807.430,-15.625,-32.227,-38.086,-9.277,0.000
1680451807.434,-20.508,-34.668,-36.621,-9.277,0.000
1680451807.438,-35.156,-35.156,-37.598,-24.902,0.000
1680451807.442,-35.645,-20.020,-32.715,-25.879,0.000
1680451807.446,-25.879,-24.902,-32.227,-15.625,0.000
1680451807.450,-23.438,-29.297,-26.855,-10.254,0.000
1680451807.453,-25.879,-18.555,-24.414,-17.090,0.000
1680451807.457,-34.668,-25.879,-30.273,-28.809,0.000
1680451807.461,-44.922,-35.156,-8.301,-31.738,0.000
1680451807.465,-47.852,-34.668,-16.602,-29.785,0.000
1680451807.469,-40.039,-29.297,-35.156,-31.250,0.000
1680451807.473,-27.344,-26.855,-30.762,-37.109,0.000
1680451807.477,-35.156,-31.738,-34.180,-44.434,0.000
1680451807.481,-40.039,-28.809,-35.645,-45.410,0.000
1680451807.485,-29.785,-20.996,-33.203,-42.480,0.000
1680451807.489,-33.691,-19.043,-35.645,-43.457,0.000
1680451807.492,-43.457,-21.973,-35.156,-37.109,0.000
1680451807.496,-33.203,-31.250,-32.715,-36.133,0.000
1680451807.500,-19.531,-24.902,-40.527,-32.715,0.000
1680451807.504,-31.738,-28.320,-14.160,-23.438,0.000
1680451807.508,-29.785,-35.156,2.441,-18.555,0.000
1680451807.512,-5.859,-31.250,-32.227,-10.254,0.000
1680451807.516,-8.789,-32.715,-39.551,-20.508,0.000
1680451807.520,-18.555,-29.297,-29.297,-21.484,0.000
1680451807.524,-21.484,-32.227,-24.902,-13.184,0.000
1680451807.528,-17.090,-35.645,-30.762,-17.578,0.000
1680451807.532,-11.230,-29.297,-35.156,-21.973,0.000
1680451807.535,-20.020,-28.809,-31.738,-20.020,0.000
1680451807.539,-31.738,-34.180,-28.809,-22.949,0.000
1680451807.543,-38.086,-36.621,-35.645,-35.645,0.000
1680451807.547,-39.062,-32.715,-38.086,-37.109,0.000
1680451807.551,-37.598,-29.297,-18.066,-38.086,0.000
1680451807.555,-34.180,-34.180,-24.414,-38.086,0.000
1680451807.559,-36.133,-31.738,-43.457,-43.457,0.000
1680451807.563,-47.363,-24.902,-40.039,-39.062,0.000
1680451807.567,-46.875,-29.297,-41.992,-28.809,0.000
1680451807.571,-34.180,-33.203,-45.898,-24.902,0.000
1680451807.575,-34.668,-33.203,-44.922,-30.762,0.000
1680451807.578,-41.504,-31.250,-44.434,-39.551,0.000
1680451807.582,-42.480,-31.250,-44.922,-33.691,0.000
1680451807.586,-37.109,-29.785,-41.992,-22.461,0.000
1680451807.590,-25.391,-29.297,-37.598,-17.090,0.000
1680451807.594,-19.531,-34.180,-23.438,-16.602,0.000
1680451807.598,-20.020,-34.180,-23.438,-23.926,0.000
1680451807.602,-33.203,-36.133,-38.574,-21.973,0.000
1680451807.606,-37.109,-39.062,-36.621,-14.160,0.000
1680451807.610,-21.484,-34.668,-27.832,-6.836,0.000
1680451807.614,-22.461,-26.855,-29.297,-13.184,0.000
1680451807.617,-30.273,-29.297,-39.062,-29.297,0.000
1680451807.621,-43.945,-37.598,-37.598,-34.180,0.000
1680451807.625,-40.527,-33.203,-31.738,-28.809,0.000
1680451807.629,-27.344,-32.227,-28.320,-22.461,0.000
1680451807.633,-31.738,-35.156,-30.762,-21.973,0.000
1680451807.637,-38.574,-31.738,-28.809,-28.809,0.000
1680451807.641,-51.758,-28.320,-26.367,-33.203,0.000
1680451807.645,-58.594,-23.926,-29.297,-31.738,0.000
1680451807.649,-50.781,-29.785,-32.715,-27.832,0.000
1680451807.653,-34.180,-29.785,-24.902,-21.484,0.000
1680451807.657,-30.762,-24.414,-4.395,-23.438,0.000
1680451807.660,-45.898,-28.809,-18.555,-28.320,0.000
1680451807.664,-51.270,-28.809,-35.156,-33.691,0.000
1680451807.668,-42.480,-27.344,-28.320,-29.785,0.000
1680451807.672,-31.738,-27.832,-27.832,-23.438,0.000
1680451807.676,-35.156,-24.902,-28.320,-27.832,0.000
1680451807.680,-45.898,-21.484,-29.785,-32.715,0.000
1680451807.684,-43.457,-25.879,-26.367,-28.320,0.000
1680451807.688,-32.227,-28.320,-22.949,-18.066,0.000
1680451807.692,-26.367,-25.391,-28.809,-19.531,0.000
1680451807.696,-24.902,-24.902,-36.621,-30.273,0.000
1680451807.700,-24.414,-32.715,-14.160,-30.762,0.000
1680451807.703,-23.926,-34.668,-3.418,-31.250,0.000
1680451807.707,-11.230,-33.691,-30.273,-33.691,0.000
1680451807.711,-11.719,-32.227,-35.645,-31.738,0.000
1680451807.715,-30.273,-33.203,-39.062,-41.504,0.000
1680451807.719,-33.691,-36.133,-47.852,-54.199,0.000
1680451807.723,-40.039,-38.574,-46.875,-50.293,0.000
1680451807.727,-52.734,-39.551,-40.039,-39.551,0.000
1680451807.731,-42.969,-41.992,-40.039,-32.715,0.000
1680451807.735,-34.668,-40.039,-43.457,-28.809,0.000
1680451807.739,-57.129,-33.691,-46.387,-40.527,0.000
1680451807.742,-61.035,-36.621,-39.551,-42.969,0.000
1680451807.746,-42.969,-44.922,-19.531,-24.902,0.000
1680451807.750,-43.945,-41.992,-25.879,-28.809,0.000
1680451807.754,-49.316,-33.691,-43.457,-40.039,0.000
1680451807.758,-46.875,-42.480,-40.527,-33.691,0.000
1680451807.762,-32.715,-43.945,-34.180,-20.508,0.000
1680451807.766,-35.156,-28.809,-34.180,-21.973,0.000
1680451807.770,-29.297,-19.531,-35.156,-20.020,0.000
1680451807.774,-8.301,-19.531,-35.645,-12.207,0.000
1680451807.778,-17.578,-30.762,-40.527,-21.973,0.000
1680451807.782,-47.363,-33.691,-39.551,-34.668,0.000
1680451807.785,-61.523,-33.691,-40.039,-32.715,0.000
1680451807.789,-41.504,-40.527,-11.719,-20.020,0.000
1680451807.793,-34.668,-41.016,-9.277,-34.180,0.000
1680451807.797,-59.082,-36.133,-44.434,-50.293,0.000
1680451807.801,-57.617,-34.180,-41.504,-43.457,0.000
1680451807.805,-37.598,-33.203,-33.203,-32.715,0.000
1680451807.809,-31.250,-33.203,-29.785,-27.344,0.000
1680451807.813,-32.715,-29.785,-36.133,-36.133,0.000
1680451807.817,-41.016,-29.297,-37.598,-46.387,0.000
1680451807.821,-50.293,-37.109,-31.738,-37.109,0.000
1680451807.824,-48.828,-34.180,-31.250,-32.715,0.000
1680451807.828,-45.898,-27.832,-32.227,-36.133,0.000
1680451807.832,-48.828,-34.180,-34.668,-37.598,0.000
1680451807.836,-36.621,-30.762,-34.668,-42.969,0.000
1680451807.840,-30.273,-26.855,-36.621,-39.062,0.000
1680451807.844,-31.250,-30.762,-39.062,-34.180,0.000
1680451807.848,-37.109,-28.809,-37.109,-37.598,0.000
1680451807.852,-40.527,-26.855,-37.109,-38.574,0.000
1680451807.856,-32.715,-29.297,-41.992,-39.062,0.000
1680451807.860,-43.457,-38.574,-45.898,-49.805,0.000
1680451807.864,-53.223,-43.457,-42.480,-45.410,0.000
1680451807.867,-44.434,-39.062,-36.133,-30.762,0.000
1680451807.871,-28.320,-32.227,-33.203,-30.762,0.000
1680451807.875,-34.180,-22.461,-42.969,-42.969,0.000
1680451807.879,-47.852,-29.297,-35.645,-48.828,0.000
1680451807.883,-37.598,-38.086,-20.020,-35.156,0.000
1680451807.887,-36.133,-28.809,-38.086,-32.227,0.000
1680451807.891,-32.227,-26.855,-41.992,-28.320,0.000
1680451807.895,-34.668,-30.762,-41.504,-34.180,0.000
1680451807.899,-57.129,-27.832,-49.805,-59.570,0.000
1680451807.903,-51.270,-30.273,-47.852,-49.805,0.000
1680451807.907,-29.297,-36.133,-39.062,-20.996,0.000
1680451807.910,-22.949,-35.156,-31.738,-18.066,0.000
1680451807.914,-30.273,-27.832,-31.250,-34.668,0.000
1680451807.918,-51.270,-29.297,-37.598,-56.152,0.000
1680451807.922,-49.805,-30.762,-34.668,-45.898,0.000
1680451807.926,-44.922,-29.297,-17.090,-33.203,0.000
1680451807.930,-32.227,-25.391,-19.043,-36.133,0.000
1680451807.934,-13.184,-24.902,-31.738,-29.785,0.000
1680451807.938,-27.832,-30.273,-31.250,-32.227,0.000
1680451807.942,-44.434,-28.320,-34.180,-36.621,0.000
1680451807.946,-41.504,-35.645,-41.992,-28.809,0.000
1680451807.949,-21.973,-40.039,-41.992,-17.090,0.000
1680451807.953,-10.254,-38.574,-38.086,-16.113,0.000
1680451807.957,-25.879,-42.480,-35.645,-28.809,0.000
1680451807.961,-34.180,-39.062,-32.715,-26.367,0.000
1680451807.965,-27.832,-35.645,-35.645,-21.484,0.000
1680451807.969,-22.949,-31.738,-31.738,-22.949,0.000
1680451807.973,-21.484,-32.715,-28.320,-22.949,0.000
1680451807.977,-28.320,-36.133,-31.250,-28.809,0.000
1680451807.981,-43.945,-39.062,-31.738,-29.297,0.000
1680451807.985,-48.828,-41.504,-23.926,-22.461,0.000
1680451807.989,-36.621,-38.574,-24.902,-23.438,0.000
1680451807.992,-40.039,-32.227,-34.180,-28.809,0.000
1680451807.996,-53.711,-34.180,-36.133,-39.551,0.000
1680451808.000,-52.246,-36.621,-35.156,-41.992,0.000
1680451808.004,-49.316,-34.180,-25.391,-26.855,0.000
1680451808.008,-39.551,-33.203,-28.320,-18.555,0.000
1680451808.012,-25.879,-34.180,-31.738,-19.531,0.000
1680451808.016,-26.367,-30.762,-26.367,-27.344,0.000
1680451808.020,-34.668,-37.598,-33.203,-28.809,0.000
1680451808.024,-34.668,-40.527,-40.527,-21.973,0.000
1680451808.028,-27.344,-41.016,-34.668,-21.484,0.000
1680451808.032,-14.648,-41.016,-18.066,-23.438,0.000
1680451808.035,-14.160,-31.738,-26.855,-22.949,0.000
1680451808.039,-25.879,-34.668,-39.062,-27.832,0.000
1680451808.043,-37.598,-40.527,-38.086,-31.738,0.000
1680451808.047,-36.133,-38.086,-34.668,-23.926,0.000
1680451808.051,-12.695,-31.738,-34.668,-19.531,0.000
1680451808.055,-15.137,-29.297,-34.668,-31.250,0.000
1680451808.059,-31.738,-32.227,-34.180,-37.109,0.000
1680451808.063,-31.250,-31.738,-35.645,-28.809,0.000
1680451808.067,-26.367,-25.879,-33.203,-19.531,0.000
1680451808.071,-20.020,-24.902,-30.762,-16.602,0.000
1680451808.074,-33.691,-31.738,-24.902,-35.156,0.000
1680451808.078,-50.293,-36.133,-25.391,-47.852,0.000
1680451808.082,-45.898,-38.574,-34.668,-40.527,0.000
1680451808.086,-35.156,-36.133,-33.691,-28.809,0.000
1680451808.090,-17.578,-29.785,-34.180,-16.113,0.000
1680451808.094,-15.137,-26.367,-33.691,-23.926,0.000
1680451808.098,-31.738,-32.227,-33.691,-36.133,0.000
1680451808.102,-38.574,-29.785,-33.203,-32.227,0.000
1680451808.106,-37.109,-30.273,-35.156,-38.574,0.000
1680451808.110,-28.809,-29.785,-35.645,-41.016,0.000
1680451808.114,-21.973,-28.809,-32.715,-31.250,0.000
1680451808.117,-22.949,-36.621,-31.250,-32.715,0.000
1680451808.121,-28.809,-33.203,-15.625,-35.645,0.000
1680451808.125,-37.109,-28.320,-21.484,-32.227,0.000
1680451808.129,-30.762,-29.297,-35.156,-30.273,0.000
1680451808.133,-29.297,-28.320,-35.645,-34.180,0.000
1680451808.137,-33.691,-24.902,-43.945,-37.109,0.000
1680451808.141,-21.973,-18.555,-41.504,-21.973,0.000
1680451808.145,-28.809,-26.855,-26.855,-16.602,0.000
1680451808.149,-43.945,-36.621,-26.367,-36.133,0.000
1680451808.153,-29.785,-27.832,-38.086,-45.410,0.000
1680451808.157,-38.086,-23.926,-38.086,-46.387,0.000
1680451808.160,-64.453,-34.668,-34.668,-48.828,0.000
1680451808.164,-57.129,-42.480,-30.273,-41.992,0.000
1680451808.168,-49.805,-38.086,-23.438,-41.504,0.000
1680451808.172,-64.453,-37.598,-24.414,-48.828,0.000
1680451808.176,-61.523,-40.039,-22.949,-41.992,0.000
1680451808.180,-53.223,-38.086,-23.438,-40.039,0.000
1680451808.184,-54.199,-31.250,-34.668,-42.969,0.000
1680451808.188,-54.688,-27.832,-36.621,-41.016,0.000
1680451808.192,-57.129,-33.203,-27.832,-49.316,0.000
1680451808.196,-41.504,-35.645,-27.344,-41.504,0.000
1680451808.199,-25.391,-35.645,-31.250,-38.086,0.000
1680451808.203,-33.691,-28.320,-27.832,-49.316,0.000
1680451808.207,-29.297,-25.391,-26.367,-42.480,0.000
1680451808.211,-29.785,-37.109,-38.574,-44.434,0.000
1680451808.215,-27.344,-39.551,-30.762,-38.574,0.000
1680451808.219,-27.344,-34.180,-18.066,-35.156,0.000
1680451808.223,-52.734,-29.785,-26.855,-50.781,0.000
1680451808.227,-53.223,-29.785,-33.691,-44.922,0.000
1680451808.231,-38.086,-28.320,-26.367,-37.109,0.000
1680451808.235,-42.969,-29.785,-24.902,-46.387,0.000
1680451808.239,-50.781,-36.133,-27.832,-49.805,0.000
1680451808.242,-62.012,-37.598,-28.809,-48.828,0.000
1680451808.246,-51.758,-40.039,-25.879,-35.156,0.000
1680451808.250,-31.738,-29.297,-27.344,-29.785,0.000
1680451808.254,-48.340,-28.320,-28.809,-50.293,0.000
1680451808.258,-54.199,-35.645,-25.879,-46.387,0.000
1680451808.262,-43.945,-38.574,-35.645,-32.715,0.000
1680451808.266,-39.062,-37.598,-34.180,-39.062,0.000
1680451808.270,-37.109,-35.156,-29.785,-44.434,0.000
1680451808.274,-27.344,-30.762,-33.691,-42.969,0.000
1680451808.278,-22.949,-23.438,-38.086,-35.156,0.000
1680451808.281,-33.203,-29.785,-37.109,-25.391,0.000
1680451808.285,-24.902,-34.180,-31.250,-15.625,0.000
1680451808.289,-17.090,-28.809,-23.926,-16.113,0.000
1680451808.293,-25.391,-28.809,-27.832,-25.879,0.000
1680451808.297,-26.855,-31.250,-29.297,-28.809,0.000
1680451808.301,-33.203,-33.691,-17.578,-30.273,0.000
1680451808.305,-28.809,-32.227,-21.484,-30.762,0.000
1680451808.309,-19.531,-32.227,-31.250,-24.414,0.000
1680451808.313,-27.344,-33.203,-31.738,-30.762,0.000
1680451808.317,-40.527,-31.250,-32.227,-39.551,0.000
1680451808.321,-43.945,-35.645,-33.691,-41.992,0.000
1680451808.324,-38.574,-37.109,-36.133,-41.992,0.000
1680451808.328,-22.949,-30.762,-38.574,-39.062,0.000
1680451808.332,-24.414,-29.297,-41.992,-47.852,0.000
1680451808.336,-38.086,-36.133,-41.016,-55.664,0.000
1680451808.340,-41.016,-41.016,-36.621,-51.758,0.000
1680451808.344,-38.086,-33.203,-32.227,-43.457,0.000
1680451808.348,-38.086,-29.297,-29.297,-38.086,0.000
1680451808.352,-31.738,-36.133,-33.691,-46.387,0.000
1680451808.356,-33.691,-41.992,-33.203,-53.711,0.000
1680451808.360,-47.852,-39.062,-22.461,-45.410,0.000
1680451808.364,-44.922,-34.180,-22.949,-36.133,0.000
1680451808.367,-27.832,-30.273,-27.832,-33.691,0.000
1680451808.371,-23.438,-29.297,-25.391,-35.645,0.000
1680451808.375,-25.391,-36.133,-29.297,-37.109,0.000
1680451808.379,-16.602,-32.227,-30.762,-30.762,0.000
1680451808.383,-21.484,-32.715,-30.273,-28.809,0.000
1680451808.387,-31.250,-35.645,-31.738,-29.297,0.000
1680451808.391,-20.996,-30.273,-30.273,-25.391,0.000
1680451808.395,-26.855,-29.785,-28.809,-31.738,0.000
1680451808.399,-39.062,-29.785,-29.297,-43.457,0.000
1680451808.403,-43.945,-33.691,-28.320,-48.828,0.000
1680451808.406,-38.086,-37.598,-19.531,-39.551,0.000
1680451808.410,-30.762,-32.715,-22.461,-32.715,0.000
1680451808.414,-43.457,-34.668,-27.832,-47.363,0.000
1680451808.418,-60.059,-34.668,-28.809,-64.941,0.000
1680451808.422,-55.176,-30.762,-29.785,-60.547,0.000
1680451808.426,-49.805,-38.574,-30.273,-57.129,0.000
1680451808.430,-48.828,-37.109,-26.855,-50.781,0.000
1680451808.434,-40.527,-31.250,-25.391,-45.898,0.000
1680451808.438,-41.504,-30.762,-25.879,-52.246,0.000
1680451808.442,-51.758,-30.273,-27.344,-46.875,0.000
1680451808.446,-45.898,-30.273,-31.738,-36.621,0.000
1680451808.449,-32.227,-34.668,-18.555,-29.785,0.000
1680451808.453,-28.809,-35.156,-11.230,-31.250,0.000
1680451808.457,-36.621,-31.250,-29.785,-30.762,0.000
1680451808.461,-48.340,-36.133,-35.645,-30.762,0.000
1680451808.465,-43.457,-37.109,-29.785,-28.809,0.000
1680451808.469,-30.762,-29.785,-27.832,-26.367,0.000
1680451808.473,-21.484,-28.809,-28.320,-21.484,0.000
1680451808.477,-26.855,-37.598,-29.297,-23.926,0.000
1680451808.481,-41.992,-38.086,-27.344,-25.391,0.000
1680451808.485,-44.922,-33.203,-27.344,-29.297,0.000
1680451808.489,-44.922,-28.320,-28.809,-26.855,0.000
1680451808.492,-41.504,-29.785,-27.344,-24.414,0.000
1680451808.496,-44.922,-41.992,-24.414,-44.434,0.000
1680451808.500,-51.270,-42.480,-26.855,-48.340,0.000
1680451808.504,-46.387,-40.039,-34.668,-42.480,0.000
1680451808.508,-41.504,-38.574,-31.738,-40.039,0.000
1680451808.512,-43.457,-26.855,-27.832,-42.969,0.000
1680451808.516,-41.016,-28.809,-32.715,-48.828,0.000
1680451808.520,-38.574,-38.574,-31.738,-41.016,0.000
1680451808.524,-41.016,-36.133,-27.832,-41.992,0.000
1680451808.528,-36.621,-35.156,-31.738,-44.434,0.000
1680451808.531,-29.297,-33.203,-29.785,-34.668,0.000
1680451808.535,-27.832,-29.297,-33.691,-34.668,0.000
1680451808.539,-43.945,-34.668,-16.113,-43.945,0.000
1680451808.543,-49.805,-37.109,-2.441,-36.133,0.000
1680451808.547,-34.180,-30.762,-28.809,-25.879,0.000
1680451808.551,-19.531,-30.762,-29.297,-25.879,0.000
1680451808.555,-17.090,-29.297,-23.438,-21.484,0.000
1680451808.559,-27.344,-27.344,-27.832,-20.996,0.000
1680451808.563,-34.668,-29.785,-29.785,-24.414,0.000
1680451808.567,-28.809,-24.414,-24.902,-20.020,0.000
1680451808.571,-26.367,-20.020,-26.855,-26.367,0.000
1680451808.574,-34.180,-31.250,-29.785,-36.621,0.000
1680451808.578,-46.387,-32.715,-28.320,-40.039,0.000
1680451808.582,-58.105,-31.250,-30.762,-39.062,0.000
1680451808.586,-52.734,-32.715,-8.301,-37.109,0.000
1680451808.590,-35.645,-27.344,-12.695,-39.062,0.000
1680451808.594,-42.480,-33.691,-38.574,-51.270,0.000
1680451808.598,-55.176,-36.621,-34.180,-60.547,0.000
1680451808.602,-57.129,-34.180,-26.367,-52.734,0.000
1680451808.606,-57.129,-37.109,-27.832,-47.363,0.000
1680451808.610,-45.898,-29.785,-33.203,-39.551,0.000
1680451808.613,-36.621,-28.809,-30.273,-32.715,0.000
1680451808.617,-53.223,-37.109,-34.180,-43.457,0.000
1680451808.621,-60.547,-40.039,-34.668,-41.992,0.000
1680451808.625,-50.293,-33.203,-33.203,-28.809,0.000
1680451808.629,-41.992,-31.250,-19.043,-26.367,0.000
1680451808.633,-38.574,-39.551,-6.836,-29.297,0.000
1680451808.637,-44.434,-38.574,-32.715,-29.785,0.000
1680451808.641,-50.781,-35.156,-39.062,-29.785,0.000
1680451808.645,-51.270,-33.203,-35.156,-27.344,0.000
1680451808.649,-42.969,-38.086,-36.133,-27.344,0.000
1680451808.653,-43.457,-35.156,-38.574,-33.691,0.000
1680451808.656,-54.688,-26.367,-39.551,-40.527,0.000
1680451808.660,-54.199,-25.879,-42.480,-41.992,0.000
1680451808.664,-46.875,-31.250,-29.785,-32.715,0.000
1680451808.668,-52.246,-34.180,-26.855,-39.062,0.000
1680451808.672,-53.223,-26.855,-33.203,-41.016,0.000
1680451808.676,-60.059,-29.297,-7.324,-45.898,0.000
1680451808.680,-75.195,-41.992,-14.160,-55.664,0.000
1680451808.684,-74.219,-47.852,-28.320,-45.410,0.000
1680451808.688,-70.312,-40.527,-20.020,-47.852,0.000
1680451808.692,-65.918,-32.715,-26.855,-60.547,0.000
1680451808.696,-59.570,-36.133,-32.715,-61.523,0.000
1680451808.699,-55.664,-44.434,-28.320,-50.293,0.000
1680451808.703,-42.480,-35.156,-25.879,-38.086,0.000
1680451808.707,-41.504,-21.484,-33.691,-44.922,0.000
1680451808.711,-32.715,-28.320,-27.344,-38.086,0.000
1680451808.715,-25.391,-37.109,-24.414,-28.809,0.000
1680451808.719,-41.016,-33.691,-20.996,-30.762,0.000
1680451808.723,-45.898,-22.949,-18.555,-25.391,0.000
1680451808.727,-32.227,-22.949,-27.832,-22.461,0.000
1680451808.731,-31.738,-29.297,-20.020,-20.508,0.000
1680451808.735,-44.922,-39.062,-13.184,-20.996,0.000
1680451808.738,-39.551,-44.434,-16.113,-11.230,0.000
1680451808.742,-28.809,-32.715,-28.809,-10.254,0.000
1680451808.746,-39.062,-31.250,-41.504,-30.273,0.000
1680451808.750,-29.297,-31.250,-43.457,-27.832,0.000
1680451808.754,-24.902,-31.738,-38.086,-23.438,0.000
1680451808.758,-33.691,-32.715,-36.621,-29.297,0.000
1680451808.762,-39.062,-32.227,-39.062,-32.715,0.000
1680451808.766,-40.039,-39.062,-36.133,-31.738,0.000
1680451808.770,-44.434,-39.062,-33.691,-33.203,0.000
1680451808.774,-42.480,-35.156,-33.203,-29.297,0.000
1680451808.778,-38.574,-41.992,-33.691,-31.738,0.000
1680451808.781,-44.922,-42.480,-25.391,-36.133,0.000
1680451808.785,-38.574,-41.016,-30.273,-23.438,0.000
1680451808.789,-24.414,-39.551,-35.156,-13.184,0.000
1680451808.793,-17.578,-26.367,-30.273,-10.254,0.000
1680451808.797,-25.879,-24.414,-30.273,-14.160,0.000
1680451808.801,-26.855,-30.273,-36.621,-23.926,0.000
1680451808.805,-23.438,-36.621,-37.109,-22.461,0.000
1680451808.809,-16.602,-37.598,-31.738,-5.859,0.000
1680451808.813,-9.277,-35.645,-33.691,-5.859,0.000
1680451808.817,-12.695,-39.551,-34.668,-17.090,0.000
1680451808.821,-23.438,-35.156,-31.250,-16.602,0.000
1680451808.824,-24.414,-36.621,-17.578,-17.090,0.000
1680451808.828,-16.113,-40.527,-19.531,-18.066,0.000
1680451808.832,-9.277,-34.668,-36.621,-15.625,0.000
1680451808.836,-11.230,-29.785,-35.645,-17.090,0.000
1680451808.840,-20.996,-27.344,-29.785,-19.531,0.000
1680451808.844,-22.949,-26.367,-26.367,-18.555,0.000
1680451808.848,-17.090,-26.855,-30.273,-18.066,0.000
1680451808.852,-13.184,-28.809,-32.227,-18.555,0.000
1680451808.856,-19.531,-34.668,-33.203,-29.297,0.000
1680451808.860,-27.344,-39.062,-33.203,-41.016,0.000
1680451808.863,-31.738,-37.109,-32.227,-31.250,0.000
1680451808.867,-33.203,-35.645,-38.086,-27.832,0.000
1680451808.871,-34.180,-37.109,-32.227,-39.551,0.000
1680451808.875,-29.785,-35.156,-29.785,-27.344,0.000
1680451808.879,-27.832,-31.250,-37.598,-16.602,0.000
1680451808.883,-24.902,-37.109,-34.668,-17.090,0.000
1680451808.887,-6.348,-34.668,-28.809,-13.672,0.000
1680451808.891,9.277,-26.855,-31.738,-6.348,0.000
1680451808.895,6.836,-28.809,-38.086,-8.301,0.000
1680451808.899,-10.742,-35.156,-32.715,-19.043,0.000
1680451808.903,-12.695,-32.715,-29.785,-17.090,0.000
1680451808.906,-7.324,-34.180,-29.785,-16.113,0.000
1680451808.910,-0.977,-38.574,-32.715,-12.207,0.000
1680451808.914,-3.418,-40.527,-23.438,-12.695,0.000
1680451808.918,-25.879,-46.875,-17.090,-28.320,0.000
1680451808.922,-31.250,-39.062,-34.180,-24.902,0.000
1680451808.926,-24.902,-37.109,-39.551,-17.090,0.000
1680451808.930,-22.949,-44.922,-38.574,-29.297,0.000
1680451808.934,-21.484,-44.922,-35.156,-26.855,0.000
1680451808.938,-35.645,-38.086,-39.062,-33.203,0.000
1680451808.942,-51.270,-38.086,-40.039,-47.363,0.000
1680451808.945,-53.223,-42.969,-42.480,-41.016,0.000
1680451808.949,-46.387,-39.062,-37.598,-36.621,0.000
1680451808.953,-40.527,-39.551,-29.785,-40.039,0.000
1680451808.957,-37.598,-40.527,-30.762,-40.039,0.000
1680451808.961,-47.852,-37.109,-34.180,-40.039,0.000
1680451808.965,-51.270,-31.738,-32.227,-34.668,0.000
1680451808.969,-40.527,-23.926,-28.809,-28.809,0.000
1680451808.973,-41.016,-22.461,-31.738,-32.227,0.000
1680451808.977,-40.039,-27.832,-33.691,-35.645,0.000
1680451808.981,-33.203,-28.809,-30.273,-27.832,0.000
1680451808.985,-32.715,-26.855,-24.902,-17.090,0.000
1680451808.988,-26.855,-27.344,-30.762,-13.672,0.000
1680451808.992,-12.207,-24.414,-33.691,-14.160,0.000
1680451808.996,-16.602,-27.344,-32.715,-20.508,0.000
1680451809.000,-33.203,-30.762,-37.598,-37.109,0.000
1680451809.004,-41.016,-25.879,-33.203,-37.598,0.000
1680451809.008,-38.086,-26.367,-33.203,-39.062,0.000
1680451809.012,-36.133,-39.551,-41.016,-40.527,0.000
1680451809.016,-40.527,-38.086,-37.109,-39.551,0.000
1680451809.020,-45.410,-36.133,-35.645,-45.410,0.000
1680451809.024,-46.387,-38.574,-37.598,-43.945,0.000
1680451809.028,-40.039,-39.551,-33.691,-41.504,0.000
1680451809.031,-38.086,-41.016,-33.691,-41.504,0.000
1680451809.035,-46.387,-39.551,-35.645,-49.805,0.000
1680451809.039,-62.012,-40.039,-37.598,-62.988,0.000
1680451809.043,-55.664,-38.574,-39.062,-50.781,0.000
1680451809.047,-30.762,-32.715,-37.109,-27.344,0.000
1680451809.051,-28.809,-38.086,-29.297,-32.227,0.000
1680451809.055,-32.227,-35.645,-27.344,-33.203,0.000
1680451809.059,-29.785,-34.180,-32.715,-28.809,0.000
1680451809.063,-31.738,-37.109,-32.227,-29.297,0.000
1680451809.067,-28.320,-36.133,-32.227,-24.414,0.000
1680451809.070,-15.625,-35.645,-32.227,-24.414,0.000
1680451809.074,-16.602,-34.668,-33.203,-32.715,0.000
1680451809.078,-33.203,-37.109,-36.133,-38.086,0.000
1680451809.082,-37.598,-38.574,-35.156,-32.227,0.000
1680451809.086,-28.809,-37.598,-33.203,-28.320,0.000
1680451809.090,-20.508,-38.086,-32.715,-28.320,0.000
1680451809.094,-29.785,-30.762,-30.273,-23.438,0.000
1680451809.098,-49.316,-27.344,-29.785,-24.902,0.000
1680451809.102,-51.758,-31.250,-33.691,-31.250,0.000
1680451809.106,-35.645,-29.785,-28.320,-23.438,0.000
1680451809.110,-29.785,-34.668,-26.367,-20.508,0.000
1680451809.113,-33.691,-37.109,-35.156,-29.785,0.000
1680451809.117,-48.828,-36.621,-36.621,-37.598,0.000
1680451809.121,-58.105,-36.621,-34.668,-38.574,0.000
1680451809.125,-44.922,-34.180,-24.902,-31.738,0.000
1680451809.129,-39.062,-37.109,-26.367,-36.133,0.000
1680451809.133,-25.879,-30.273,-30.762,-26.855,0.000
1680451809.137,-22.461,-27.344,-28.320,-21.973,0.000
1680451809.141,-39.062,-32.227,-31.738,-28.320,0.000
1680451809.145,-45.898,-32.715,-33.203,-32.227,0.000
1680451809.149,-22.949,-32.715,-29.297,-25.391,0.000
1680451809.153,-1.953,-26.367,-24.902,-8.301,0.000
1680451809.156,-13.184,-31.250,-22.949,-14.648,0.000
1680451809.160,-27.344,-36.621,-24.902,-24.902,0.000
1680451809.164,-28.320,-31.738,-27.832,-20.020,0.000
1680451809.168,-25.391,-24.902,-28.320,-20.020,0.000
1680451809.172,-33.691,-20.508,-30.762,-27.344,0.000
1680451809.176,-48.828,-25.879,-36.133,-34.668,0.000
1680451809.180,-48.340,-29.785,-34.180,-39.062,0.000
1680451809.184,-24.414,-29.297,-28.809,-31.250,0.000
1680451809.188,-9.766,-24.902,-22.949,-27.344,0.000
1680451809.192,-6.348,-23.926,-22.461,-38.086,0.000
1680451809.195,-17.578,-25.391,-28.809,-44.922,0.000
1680451809.199,-30.762,-32.227,-17.090,-48.340,0.000
1680451809.203,-29.785,-34.668,-16.602,-54.199,0.000
1680451809.207,-26.855,-31.738,-31.250,-47.852,0.000
1680451809.211,-20.020,-34.180,-26.367,-39.551,0.000
1680451809.215,-24.902,-29.297,-26.855,-45.898,0.000
1680451809.219,-41.016,-30.762,-33.203,-47.852,0.000
1680451809.223,-33.203,-38.574,-34.180,-42.969,0.000
1680451809.227,-27.344,-34.668,-26.367,-35.156,0.000
1680451809.231,-30.273,-33.203,-20.996,-28.320,0.000
1680451809.235,-21.973,-33.691,-24.902,-26.367,0.000
1680451809.238,-27.344,-34.180,-33.203,-32.227,0.000
1680451809.242,-28.809,-37.109,-33.203,-24.902,0.000
1680451809.246,-24.902,-36.621,-16.113,-12.695,0.000
1680451809.250,-29.785,-31.250,-19.531,-13.672,0.000
1680451809.254,-30.762,-28.320,-33.691,-20.996,0.000
1680451809.258,-39.551,-32.227,-31.250,-35.156,0.000
1680451809.262,-49.805,-32.715,-22.461,-36.133,0.000
1680451809.266,-41.992,-27.344,-27.344,-25.879,0.000
1680451809.270,-30.762,-21.484,-26.855,-26.367,0.000
1680451809.274,-33.203,-24.902,-24.414,-34.668,0.000
1680451809.278,-41.992,-28.809,-28.320,-39.062,0.000
1680451809.281,-45.898,-26.367,-31.250,-39.551,0.000
1680451809.285,-45.410,-28.320,-29.297,-38.086,0.000
1680451809.289,-39.551,-29.297,-23.438,-33.691,0.000
1680451809.293,-41.504,-34.180,-24.902,-40.527,0.000
1680451809.297,-50.293,-34.668,-32.227,-46.387,0.000
1680451809.301,-41.992,-31.738,-28.320,-34.180,0.000
1680451809.305,-40.527,-32.227,-27.344,-31.738,0.000
1680451809.309,-37.109,-27.832,-28.809,-30.762,0.000
1680451809.313,-24.414,-25.391,-27.344,-25.391,0.000
1680451809.317,-26.855,-30.762,-24.902,-24.902,0.000
1680451809.320,-34.668,-26.855,-22.949,-18.066,0.000
1680451809.324,-30.273,-27.344,-25.879,-16.113,0.000
1680451809.328,-11.719,-32.227,-27.344,-14.648,0.000
1680451809.332,-8.789,-29.297,-26.367,-16.602,0.000
1680451809.336,-21.973,-29.785,-28.809,-22.461,0.000
1680451809.340,-29.785,-34.668,-29.785,-23.438,0.000
1680451809.344,-30.762,-31.250,-28.320,-18.066,0.000
1680451809.348,-25.879,-31.250,-27.832,-18.555,0.000
1680451809.352,-28.809,-40.039,-21.973,-37.109,0.000
1680451809.356,-41.016,-37.109,-26.855,-44.922,0.000
1680451809.360,-43.945,-35.645,-36.621,-40.039,0.000
1680451809.363,-48.340,-37.598,-35.645,-41.016,0.000
1680451809.367,-38.574,-34.180,-33.203,-44.434,0.000
1680451809.371,-30.762,-32.715,-31.250,-50.293,0.000
1680451809.375,-42.480,-29.297,-35.156,-53.711,0.000
1680451809.379,-56.641,-31.738,-14.648,-61.035,0.000
1680451809.383,-62.988,-38.086,-8.301,-65.918,0.000
1680451809.387,-47.363,-29.785,-30.273,-53.223,0.000
1680451809.391,-37.109,-23.926,-29.785,-44.434,0.000
1680451809.395,-37.109,-20.020,-27.344,-44.922,0.000
1680451809.399,-33.691,-16.113,-27.832,-37.598,0.000
1680451809.402,-24.902,-21.973,-25.879,-25.391,0.000
1680451809.406,-15.625,-31.250,-22.461,-18.066,0.000
1680451809.410,-9.766,-31.738,-23.438,-15.625,0.000
1680451809.414,-14.648,-33.203,-28.320,-21.973,0.000
1680451809.418,-30.762,-40.527,-34.180,-25.391,0.000
1680451809.422,-33.691,-33.203,-32.227,-20.996,0.000
1680451809.426,-25.391,-32.227,-14.648,-17.090,0.000
1680451809.430,-19.043,-38.086,-20.020,-15.625,0.000
1680451809.434,-19.043,-32.715,-31.250,-22.461,0.000
1680451809.438,-40.039,-35.645,-27.832,-41.016,0.000
1680451809.442,-59.082,-41.016,-35.156,-43.457,0.000
1680451809.445,-54.688,-39.062,-41.504,-41.016,0.000
1680451809.449,-43.945,-32.227,-35.645,-41.016,0.000
1680451809.453,-36.621,-31.738,-32.715,-38.086,0.000
1680451809.457,-48.828,-40.039,-37.598,-49.316,0.000
1680451809.461,-65.430,-43.457,-37.109,-55.664,0.000
1680451809.465,-62.988,-40.039,-38.574,-46.875,0.000
1680451809.469,-54.199,-29.297,-19.531,-42.480,0.000
1680451809.473,-48.828,-31.738,-11.719,-44.922,0.000
1680451809.477,-48.340,-37.109,-33.203,-38.086,0.000
1680451809.481,-50.781,-39.551,-37.109,-32.715,0.000
1680451809.485,-47.852,-42.969,-33.691,-25.879,0.000
1680451809.488,-37.109,-35.645,-30.762,-16.602,0.000
1680451809.492,-29.785,-31.738,-32.227,-15.625,0.000
1680451809.496,-33.203,-29.785,-30.762,-19.531,0.000
1680451809.500,-36.133,-31.738,-29.785,-21.484,0.000
1680451809.504,-28.809,-28.809,-28.809,-17.578,0.000
1680451809.508,-21.484,-23.926,-33.203,-14.648,0.000
1680451809.512,-30.273,-25.391,-38.574,-22.949,0.000
1680451809.516,-37.598,-26.855,-34.180,-31.738,0.000
1680451809.520,-41.504,-37.109,-32.227,-39.062,0.000
1680451809.524,-50.781,-41.992,-41.992,-38.086,0.000
1680451809.527,-57.129,-40.039,-40.039,-41.016,0.000
1680451809.531,-37.109,-29.785,-19.531,-38.086,0.000
1680451809.535,-31.250,-23.438,-22.949,-27.832,0.000
1680451809.539,-55.176,-32.227,-36.621,-43.945,0.000
1680451809.543,-63.477,-33.203,-29.297,-49.805,0.000
1680451809.547,-59.570,-33.203,-31.250,-58.105,0.000
1680451809.551,-62.012,-38.574,-38.574,-62.500,0.000
1680451809.555,-54.688,-34.668,-37.109,-54.688,0.000
1680451809.559,-52.246,-31.738,-37.109,-58.105,0.000
1680451809.563,-56.641,-26.855,-33.691,-48.340,0.000
1680451809.567,-44.434,-23.926,-34.668,-32.715,0.000
1680451809.570,-27.344,-23.438,-35.645,-26.367,0.000
1680451809.574,-27.832,-26.367,-27.832,-37.109,0.000
1680451809.578,-37.598,-28.320,-25.879,-36.133,0.000
1680451809.582,-33.203,-27.344,-32.715,-26.855,0.000
1680451809.586,-20.996,-33.203,-31.738,-24.414,0.000
1680451809.590,-21.484,-35.156,-31.250,-17.578,0.000
1680451809.594,-29.785,-34.180,-34.180,-20.508,0.000
1680451809.598,-22.461,-41.016,-27.344,-11.230,0.000
1680451809.602,-34.180,-40.527,-31.250,-24.414,0.000
1680451809.606,-59.570,-30.762,-42.969,-57.129,0.000
1680451809.610,-32.227,-22.949,-39.062,-40.527,0.000
1680451809.613,-21.484,-21.973,-37.109,-36.133,0.000
1680451809.617,-55.664,-23.438,-37.598,-50.781,0.000
1680451809.621,-66.406,-29.297,-29.297,-48.340,0.000
1680451809.625,-58.105,-27.344,-35.645,-46.875,0.000
1680451809.629,-49.805,-16.602,-46.875,-46.875,0.000
1680451809.633,-41.992,-13.184,-41.992,-46.387,0.000
1680451809.637,-52.734,-23.438,-34.180,-49.316,0.000
1680451809.641,-68.848,-20.996,-36.621,-49.316,0.000
1680451809.645,-61.035,-15.137,-41.504,-43.945,0.000
1680451809.649,-43.945,-22.461,-45.410,-38.574,0.000
1680451809.652,-45.410,-23.926,-41.992,-43.457,0.000
1680451809.656,-47.363,-19.531,-39.551,-40.527,0.000
1680451809.660,-41.992,-10.254,-37.598,-32.227,0.000
1680451809.664,-26.367,-9.766,-38.086,-24.902,0.000
1680451809.668,-14.648,-22.461,-48.828,-23.926,0.000
1680451809.672,-18.555,-20.020,-50.293,-35.156,0.000
1680451809.676,-10.254,-11.719,-45.898,-26.367,0.000
1680451809.680,-11.719,-18.555,-43.945,-22.461,0.000
1680451809.684,-15.137,-24.902,-36.621,-23.926,0.000
1680451809.688,3.906,-18.555,-40.039,-22.949,0.000
1680451809.692,1.465,-21.973,-46.875,-42.969,0.000
1680451809.695,-12.207,-21.973,-50.781,-49.805,0.000
1680451809.699,4.395,-13.184,-46.387,-36.133,0.000
1680451809.703,-3.906,-19.043,-34.668,-29.297,0.000
1680451809.707,-31.250,-28.809,-34.668,-32.227,0.000
1680451809.711,-30.762,-34.180,-30.762,-36.133,0.000
1680451809.715,-38.574,-33.203,-30.273,-46.387,0.000
1680451809.719,-58.594,-30.762,-37.598,-50.781,0.000
1680451809.723,-69.336,-30.273,-39.062,-40.527,0.000
1680451809.727,-55.176,-26.855,-36.133,-32.715,0.000
1680451809.731,-41.504,-27.344,-34.180,-30.762,0.000
1680451809.735,-44.434,-29.785,-32.227,-26.367,0.000
1680451809.738,-53.711,-31.250,-31.738,-30.762,0.000
1680451809.742,-55.176,-31.250,-29.297,-30.762,0.000
1680451809.746,-34.180,-25.391,-26.855,-16.113,0.000
1680451809.750,-23.438,-22.461,-30.273,-12.207,0.000
1680451809.754,-26.855,-32.227,-32.227,-19.531,0.000
1680451809.758,-31.250,-36.133,-30.273,-21.484,0.000
1680451809.762,-32.227,-32.227,-27.832,-16.602,0.000
1680451809.766,-20.508,-31.250,-30.762,-17.090,0.000
1680451809.770,-18.555,-30.273,-32.227,-24.414,0.000
1680451809.774,-23.926,-27.344,-28.809,-29.297,0.000
1680451809.777,-25.391,-30.762,-33.691,-33.691,0.000
1680451809.781,-40.039,-30.762,-33.203,-35.156,0.000
1680451809.785,-44.434,-27.344,-22.949,-30.762,0.000
1680451809.789,-39.062,-27.344,-26.855,-31.250,0.000
1680451809.793,-33.691,-24.414,-31.250,-33.203,0.000
1680451809.797,-34.668,-23.438,-25.391,-30.273,0.000
1680451809.801,-41.992,-29.785,-22.949,-34.668,0.000
1680451809.805,-45.898,-28.809,-23.438,-41.992,0.000
1680451809.809,-33.691,-20.996,-25.879,-35.156,0.000
1680451809.813,-32.227,-27.344,-30.762,-34.668,0.000
1680451809.817,-45.898,-36.133,-34.668,-43.457,0.000
1680451809.820,-44.922,-31.250,-30.762,-43.945,0.000
1680451809.824,-35.645,-22.461,-25.391,-31.738,0.000
1680451809.828,-20.996,-22.949,-25.391,-18.066,0.000
1680451809.832,-12.207,-23.926,-27.344,-19.531,0.000
1680451809.836,-9.277,-20.508,-30.273,-16.602,0.000
1680451809.840,-14.160,-22.461,-31.250,-13.184,0.000
1680451809.844,-17.578,-26.367,-24.414,-17.578,0.000
1680451809.848,-6.836,-27.344,-16.602,-11.230,0.000
1680451809.852,-4.883,-26.367,-26.367,-14.648,0.000
1680451809.856,-5.859,-25.391,-29.785,-23.926,0.000
1680451809.859,-10.742,-27.344,-27.344,-28.320,0.000
1680451809.863,-18.066,-28.809,-28.809,-27.344,0.000
1680451809.867,-14.160,-31.738,-30.273,-26.367,0.000
1680451809.871,-10.742,-31.250,-34.180,-37.109,0.000
1680451809.875,-24.414,-23.926,-34.668,-41.992,0.000
1680451809.879,-41.992,-31.250,-38.086,-45.410,0.000
1680451809.883,-45.410,-37.109,-41.504,-44.922,0.000
1680451809.887,-29.785,-28.809,-36.621,-35.645,0.000
1680451809.891,-26.367,-32.715,-34.668,-36.621,0.000
1680451809.895,-36.621,-34.180,-34.668,-44.434,0.000
1680451809.899,-40.039,-34.180,-41.992,-44.434,0.000
1680451809.902,-45.410,-32.715,-41.504,-41.504,0.000
1680451809.906,-39.551,-32.715,-30.762,-40.527,0.000
1680451809.910,-27.832,-29.297,-33.691,-39.062,0.000
1680451809.914,-32.715,-24.414,-35.156,-29.785,0.000
1680451809.918,-38.574,-32.227,-29.297,-31.250,0.000
1680451809.922,-36.621,-31.738,-25.879,-24.414,0.000
1680451809.926,-20.996,-22.949,-22.461,-4.883,0.000
1680451809.930,-7.812,-22.461,-25.391,-5.859,0.000
1680451809.934,-13.184,-26.855,-29.297,-13.672,0.000
1680451809.938,-16.113,-22.949,-29.785,-14.160,0.000
1680451809.942,-22.461,-24.414,-33.691,-20.508,0.000
1680451809.945,-19.531,-28.809,-34.668,-17.578,0.000
1680451809.949,0.000,-26.855,-14.160,-7.812,0.000
1680451809.953,-11.230,-28.320,-10.254,-18.555,0.000
1680451809.957,-28.320,-33.203,-39.551,-33.203,0.000
1680451809.961,-31.738,-31.250,-39.551,-26.367,0.000
1680451809.965,-26.367,-23.438,-34.668,-20.020,0.000
1680451809.969,-31.250,-23.926,-39.062,-27.344,0.000
1680451809.973,-42.969,-31.738,-38.086,-39.062,0.000
1680451809.977,-40.527,-37.598,-34.668,-38.574,0.000
1680451809.981,-47.852,-35.156,-32.715,-31.738,0.000
1680451809.984,-49.316,-28.320,-32.715,-33.203,0.000
1680451809.988,-42.480,-29.297,-33.691,-29.297,0.000
1680451809.992,-40.527,-31.738,-28.809,-29.297,0.000
1680451809.996,-47.852,-34.668,-5.859,-33.691,0.000
1680451810.000,-51.270,-30.762,-10.742,-30.762,0.000
1680451810.004,-44.922,-31.738,-28.809,-27.344,0.000
1680451810.008,-31.738,-33.203,-24.902,-21.973,0.000
1680451810.012,-22.949,-28.809,-25.879,-19.043,0.000
1680451810.016,-36.621,-28.809,-24.902,-27.344,0.000
1680451810.020,-47.852,-28.809,-25.879,-24.902,0.000
1680451810.024,-32.715,-23.438,-26.855,-14.160,0.000
1680451810.027,-21.973,-26.855,-25.879,-19.531,0.000
1680451810.031,-24.414,-33.203,-25.879,-24.902,0.000
1680451810.035,-33.203,-32.715,-28.320,-35.156,0.000
1680451810.039,-48.340,-37.598,-26.855,-45.410,0.000
1680451810.043,-49.316,-43.945,-27.344,-36.621,0.000
1680451810.047,-29.785,-42.969,-34.668,-26.367,0.000
1680451810.051,-23.926,-32.715,-31.738,-27.832,0.000
1680451810.055,-52.734,-38.086,-26.367,-38.574,0.000
1680451810.059,-61.035,-41.016,-25.391,-35.645,0.000
1680451810.063,-53.711,-30.273,-25.391,-30.762,0.000
1680451810.067,-53.711,-31.738,-31.250,-41.992,0.000
1680451810.070,-54.688,-37.109,-37.109,-51.758,0.000
1680451810.074,-55.664,-33.691,-37.598,-56.641,0.000
1680451810.078,-58.594,-34.668,-34.668,-52.246,0.000
1680451810.082,-61.523,-37.598,-36.621,-43.945,0.000
1680451810.086,-52.246,-34.668,-49.316,-40.039,0.000
1680451810.090,-43.945,-33.691,-44.434,-41.016,0.000
1680451810.094,-40.527,-29.297,-30.762,-43.457,0.000
1680451810.098,-46.875,-27.832,-28.809,-43.945,0.000
1680451810.102,-50.781,-29.297,-26.855,-40.039,0.000
1680451810.106,-48.828,-28.320,-24.902,-38.574,0.000
1680451810.109,-41.016,-28.809,-28.809,-34.668,0.000
1680451810.113,-18.555,-33.691,-35.645,-16.602,0.000
1680451810.117,-13.184,-31.250,-33.203,-14.160,0.000
1680451810.121,-39.551,-18.066,-31.738,-37.598,0.000
1680451810.125,-41.016,-13.672,-32.715,-43.945,0.000
1680451810.129,-29.297,-28.320,-34.668,-34.668,0.000
1680451810.133,-41.992,-38.574,-33.203,-39.062,0.000
1680451810.137,-60.547,-29.785,-32.227,-54.199,0.000
1680451810.141,-64.453,-18.555,-38.574,-66.895,0.000
1680451810.145,-52.734,-28.809,-34.180,-53.223,0.000
1680451810.149,-48.340,-36.133,-32.227,-44.922,0.000
1680451810.152,-59.082,-27.832,-34.668,-66.406,0.000
1680451810.156,-67.871,-20.508,-36.621,-80.078,0.000
1680451810.160,-68.848,-23.926,-30.273,-72.266,0.000
1680451810.164,-57.617,-22.949,-23.438,-57.129,0.000
1680451810.168,-56.641,-26.367,-26.367,-54.688,0.000
1680451810.172,-57.129,-25.879,-27.832,-64.453,0.000
1680451810.176,-58.594,-26.367,-17.090,-70.312,0.000
1680451810.180,-54.199,-30.762,-14.648,-60.059,0.000
1680451810.184,-58.105,-36.133,-21.973,-54.199,0.000
1680451810.188,-52.246,-30.273,-28.809,-61.523,0.000
1680451810.191,-44.922,-13.672,-34.180,-66.406,0.000
1680451810.195,-61.523,-19.043,-27.832,-60.547,0.000
1680451810.199,-74.219,-27.832,-20.996,-56.641,0.000
1680451810.203,-72.266,-27.344,-14.160,-52.734,0.000
1680451810.207,-59.082,-19.043,-17.578,-41.992,0.000
1680451810.211,-54.199,-17.090,-26.367,-47.363,0.000
1680451810.215,-67.871,-22.461,-33.691,-68.848,0.000
1680451810.219,-74.707,-27.344,-13.672,-71.289,0.000
1680451810.223,-62.012,-27.344,6.836,-50.781,0.000
1680451810.227,-58.105,-21.973,-21.484,-50.293,0.000
1680451810.231,-62.988,-22.949,-36.133,-66.895,0.000
1680451810.234,-70.312,-30.762,-31.250,-62.012,0.000
1680451810.238,-77.148,-35.156,-35.645,-62.500,0.000
1680451810.242,-92.773,-31.738,-41.992,-77.148,0.000
1680451810.246,-86.426,-34.668,-37.598,-68.848,0.000
1680451810.250,-56.641,-35.156,-36.621,-55.664,0.000
1680451810.254,-50.293,-32.715,-42.480,-58.594,0.000
1680451810.258,-73.242,-38.086,-41.992,-69.824,0.000
1680451810.262,-93.262,-36.621,-41.504,-76.660,0.000
1680451810.266,-70.312,-30.273,-33.691,-53.223,0.000
1680451810.270,-34.668,-22.949,-34.668,-28.809,0.000
1680451810.274,-39.551,-25.879,-43.945,-40.039,0.000
1680451810.277,-66.895,-38.086,-39.551,-53.223,0.000
1680451810.281,-60.547,-41.504,-20.020,-41.504,0.000
1680451810.285,-40.527,-30.762,-29.297,-40.039,0.000
1680451810.289,-32.715,-19.043,-42.969,-41.504,0.000
1680451810.293,-21.484,-19.043,-35.645,-30.762,0.000
1680451810.297,-24.902,-25.391,-33.203,-29.297,0.000
1680451810.301,-46.875,-34.180,-29.785,-35.645,0.000
1680451810.305,-44.922,-35.156,-31.250,-41.992,0.000
1680451810.309,-25.879,-28.809,-33.203,-37.109,0.000
1680451810.313,-20.508,-21.484,-31.250,-36.133,0.000
1680451810.316,-39.551,-30.273,-32.715,-47.852,0.000
1680451810.320,-42.969,-36.133,-33.691,-36.621,0.000
1680451810.324,-40.039,-31.738,-22.461,-40.039,0.000
1680451810.328,-57.617,-25.391,-19.043,-62.988,0.000
1680451810.332,-55.176,-24.414,-41.016,-55.664,0.000
1680451810.336,-53.223,-32.715,-43.945,-46.875,0.000
1680451810.340,-55.176,-38.086,-37.598,-45.410,0.000
1680451810.344,-47.363,-34.668,-30.273,-41.504,0.000
1680451810.348,-36.133,-30.762,-32.227,-42.480,0.000
1680451810.352,-38.086,-35.156,-42.969,-45.898,0.000
1680451810.356,-45.898,-31.250,-43.945,-54.199,0.000
1680451810.359,-38.574,-30.762,-39.551,-44.922,0.000
1680451810.363,-30.762,-35.645,-38.574,-28.809,0.000
1680451810.367,-27.344,-30.273,-34.668,-29.297,0.000
1680451810.371,-34.668,-37.109,-24.902,-34.668,0.000
1680451810.375,-34.180,-41.504,-25.391,-29.297,0.000
1680451810.379,-23.926,-34.668,-28.809,-20.996,0.000
1680451810.383,-25.879,-34.180,-34.180,-27.832,0.000
1680451810.387,-22.461,-32.715,-38.574,-33.203,0.000
1680451810.391,-12.695,-28.320,-38.086,-29.297,0.000
1680451810.395,-18.066,-32.227,-40.039,-32.715,0.000
1680451810.399,-29.785,-37.598,-35.156,-31.250,0.000
1680451810.402,-41.504,-34.180,-37.109,-34.668,0.000
1680451810.406,-43.457,-23.926,-39.551,-45.898,0.000
1680451810.410,-39.062,-21.484,-42.969,-43.945,0.000
1680451810.414,-41.504,-35.156,-28.320,-40.527,0.000
1680451810.418,-54.688,-40.527,-11.719,-42.969,0.000
1680451810.422,-51.270,-33.691,-21.973,-35.156,0.000
1680451810.426,-39.062,-26.855,-32.227,-32.227,0.000
1680451810.430,-43.945,-21.973,-30.273,-41.504,0.000
1680451810.434,-43.457,-26.855,-26.855,-38.086,0.000
1680451810.438,-40.039,-25.391,-33.203,-35.156,0.000
1680451810.441,-42.480,-23.438,-34.668,-36.133,0.000
1680451810.445,-29.297,-24.414,-35.156,-33.203,0.000
1680451810.449,-22.949,-23.926,-33.203,-30.273,0.000
1680451810.453,-35.645,-27.344,-23.926,-30.273,0.000
1680451810.457,-37.598,-31.738,-21.484,-28.320,0.000
1680451810.461,-39.551,-29.785,-26.367,-29.297,0.000
1680451810.465,-38.086,-19.531,-22.949,-22.949,0.000
1680451810.469,-17.090,-15.625,-20.996,-7.812,0.000
1680451810.473,-10.254,-22.461,-20.508,-11.230,0.000
1680451810.477,-33.691,-27.832,-20.020,-32.227,0.000
1680451810.481,-46.387,-34.180,-23.438,-36.133,0.000
1680451810.484,-31.250,-34.668,-26.367,-30.762,0.000
1680451810.488,-28.320,-28.809,-27.344,-43.945,0.000
1680451810.492,-32.227,-29.297,-30.273,-49.316,0.000
1680451810.496,-28.809,-31.738,-37.109,-36.133,0.000
1680451810.500,-33.203,-30.273,-28.320,-34.668,0.000
1680451810.504,-47.852,-35.645,-34.180,-37.598,0.000
1680451810.508,-46.875,-37.109,-47.852,-37.598,0.000
1680451810.512,-39.551,-38.574,-40.039,-41.992,0.000
1680451810.516,-41.504,-38.574,-34.180,-40.527,0.000
1680451810.520,-50.293,-31.738,-28.320,-40.039,0.000
1680451810.523,-50.293,-29.297,-31.738,-45.410,0.000
1680451810.527,-37.598,-37.109,-33.691,-45.410,0.000
1680451810.531,-29.785,-42.480,-33.203,-39.551,0.000
1680451810.535,-31.250,-41.992,-29.785,-37.598,0.000
1680451810.539,-32.715,-41.504,-32.715,-36.133,0.000
1680451810.543,-28.320,-38.086,-36.133,-29.785,0.000
1680451810.547,-18.555,-41.016,-23.926,-14.160,0.000
1680451810.551,-14.160,-42.969,-18.066,-11.230,0.000
1680451810.555,-29.297,-33.691,-27.832,-40.527,0.000
1680451810.559,-50.293,-28.320,-36.133,-50.781,0.000
1680451810.563,-40.039,-33.203,-29.785,-37.109,0.000
1680451810.566,-26.367,-34.668,-3.906,-26.367,0.000
1680451810.570,-28.320,-32.715,-14.648,-21.973,0.000
1680451810.574,-29.297,-34.668,-33.203,-32.227,0.000
1680451810.578,-38.086,-32.227,-25.879,-36.133,0.000
1680451810.582,-40.039,-25.391,-30.273,-31.738,0.000
1680451810.586,-20.996,-31.738,-33.203,-17.578,0.000
1680451810.590,-28.320,-38.086,-29.297,-21.973,0.000
1680451810.594,-43.457,-31.250,-8.789,-35.156,0.000
1680451810.598,-39.551,-27.344,-7.324,-32.227,0.000
1680451810.602,-32.227,-30.762,-31.738,-28.809,0.000
1680451810.606,-33.691,-34.180,-27.344,-28.320,0.000
1680451810.609,-29.297,-33.691,-19.531,-26.855,0.000
1680451810.613,-16.113,-31.250,-20.508,-28.320,0.000
1680451810.617,-20.020,-33.203,-29.297,-28.320,0.000
1680451810.621,-35.645,-33.691,-33.203,-28.320,0.000
1680451810.625,-33.203,-32.715,-29.297,-23.926,0.000
1680451810.629,-17.578,-32.227,-28.320,-30.273,0.000
1680451810.633,-23.926,-36.133,-30.273,-32.227,0.000
1680451810.637,-39.551,-38.086,-28.320,-31.738,0.000
1680451810.641,-41.992,-33.691,-28.809,-31.250,0.000
1680451810.645,-32.227,-33.691,-27.344,-23.926,0.000
1680451810.648,-24.414,-32.715,-27.832,-30.273,0.000
1680451810.652,-32.715,-31.738,-29.785,-37.109,0.000
1680451810.656,-39.062,-32.715,-20.508,-36.621,0.000
1680451810.660,-37.109,-30.273,-25.391,-35.645,0.000
1680451810.664,-27.344,-30.273,-33.691,-38.086,0.000
1680451810.668,-12.207,-30.762,-31.738,-34.668,0.000
1680451810.672,-9.766,-34.180,-35.645,-29.297,0.000
1680451810.676,-25.879,-41.992,-42.969,-40.527,0.000
1680451810.680,-44.434,-49.805,-43.945,-48.340,0.000
1680451810.684,-55.176,-47.363,-38.574,-51.758,0.000
1680451810.688,-46.875,-39.062,-35.645,-49.316,0.000
1680451810.691,-42.480,-37.598,-36.133,-38.574,0.000
1680451810.695,-47.852,-37.109,-32.715,-29.785,0.000
1680451810.699,-52.246,-31.738,-24.414,-33.691,0.000
1680451810.703,-59.082,-35.645,-23.926,-34.180,0.000
1680451810.707,-49.805,-34.180,-30.762,-21.973,0.000
1680451810.711,-40.527,-25.879,-33.691,-23.926,0.000
1680451810.715,-48.828,-29.785,-36.621,-29.785,0.000
1680451810.719,-48.340,-34.180,-35.156,-26.855,0.000
1680451810.723,-40.527,-31.250,-29.297,-23.926,0.000
1680451810.727,-25.879,-23.926,-24.902,-15.625,0.000
1680451810.731,-20.020,-22.949,-27.344,-21.973,0.000
1680451810.734,-28.809,-23.438,-26.855,-26.855,0.000
1680451810.738,-32.715,-20.020,-28.320,-17.090,0.000
1680451810.742,-28.809,-19.531,-34.668,-14.160,0.000
1680451810.746,-24.414,-23.926,-13.672,-21.973,0.000
1680451810.750,-18.555,-34.668,-6.348,-18.066,0.000
1680451810.754,-23.926,-41.016,-20.996,-22.461,0.000
1680451810.758,-56.152,-25.879,-26.367,-57.617,0.000
1680451810.762,-66.406,-20.020,-32.227,-68.359,0.000
1680451810.766,-21.973,-20.020,-36.133,-29.297,0.000
1680451810.770,-20.996,-26.367,-38.086,-26.855,0.000
1680451810.773,-48.340,-35.156,-32.715,-40.527,0.000
1680451810.777,-43.945,-31.738,-31.738,-36.133,0.000
1680451810.781,-48.340,-23.438,-36.621,-42.969,0.000
1680451810.785,-44.434,-28.809,-41.992,-39.062,0.000
1680451810.789,-35.156,-41.016,-32.715,-36.133,0.000
1680451810.793,-43.457,-34.180,-21.484,-38.574,0.000
1680451810.797,-54.688,-24.902,-33.691,-42.969,0.000
1680451810.801,-50.293,-24.414,-36.133,-35.645,0.000
1680451810.805,-38.086,-30.273,-31.250,-24.414,0.000
1680451810.809,-25.391,-29.785,-31.738,-29.785,0.000
1680451810.813,-34.180,-29.297,-27.832,-37.109,0.000
1680451810.816,-41.504,-26.855,-33.691,-39.062,0.000
1680451810.820,-39.062,-29.785,-34.180,-40.039,0.000
1680451810.824,-41.016,-38.086,-21.484,-30.762,0.000
1680451810.828,-34.668,-35.156,-21.484,-26.367,0.000
1680451810.832,-37.109,-30.273,-29.785,-41.992,0.000
1680451810.836,-39.062,-29.297,-20.020,-50.293,0.000
1680451810.840,-37.109,-30.762,-20.996,-40.039,0.000
1680451810.844,-34.668,-32.715,-32.715,-32.227,0.000
1680451810.848,-37.109,-33.203,-26.855,-36.133,0.000
1680451810.852,-40.039,-25.391,-7.812,-41.016,0.000
1680451810.855,-43.457,-24.414,-20.020,-41.016,0.000
1680451810.859,-45.898,-31.250,-38.574,-38.086,0.000
1680451810.863,-46.875,-33.691,-34.668,-36.621,0.000
1680451810.867,-41.016,-36.621,-30.273,-40.527,0.000
1680451810.871,-41.992,-33.203,-28.320,-41.504,0.000
1680451810.875,-43.457,-36.133,-32.227,-40.039,0.000
1680451810.879,-44.922,-48.340,-31.738,-41.504,0.000
1680451810.883,-38.086,-45.898,-22.461,-34.668,0.000
1680451810.887,-31.738,-31.738,-24.902,-25.391,0.000
1680451810.891,-28.320,-34.180,-29.297,-29.785,0.000
1680451810.895,-29.785,-44.922,-36.133,-45.898,0.000
1680451810.898,-43.457,-42.969,-35.645,-50.293,0.000
1680451810.902,-41.504,-35.156,-31.250,-35.645,0.000
1680451810.906,-28.320,-27.832,-31.250,-23.926,0.000
1680451810.910,-14.160,-29.785,-32.227,-24.414,0.000
1680451810.914,-18.555,-36.133,-32.715,-23.438,0.000
1680451810.918,-31.738,-36.133,-32.715,-17.578,0.000
1680451810.922,-36.133,-33.203,-27.832,-23.926,0.000
1680451810.926,-29.785,-33.203,-34.668,-39.551,0.000
1680451810.930,-26.855,-32.715,-34.180,-45.898,0.000
1680451810.934,-38.086,-31.738,-23.926,-51.270,0.000
1680451810.938,-52.246,-31.250,-22.461,-58.105,0.000
1680451810.941,-47.852,-29.297,-22.949,-46.387,0.000
1680451810.945,-33.203,-35.156,-27.344,-30.273,0.000
1680451810.949,-29.785,-34.180,-34.668,-38.574,0.000
1680451810.953,-29.785,-30.273,-33.203,-40.527,0.000
1680451810.957,-44.922,-44.434,-30.273,-41.992,0.000
1680451810.961,-47.363,-43.945,-25.391,-36.621,0.000
1680451810.965,-20.020,-32.227,-16.113,-15.625,0.000
1680451810.969,-5.859,-20.508,-17.578,-8.301,0.000
1680451810.973,-23.926,-18.066,-28.809,-21.973,0.000
1680451810.977,-40.039,-26.855,-30.273,-26.855,0.000
1680451810.980,-34.668,-31.250,-20.020,-18.066,0.000
1680451810.984,-25.879,-31.250,-40.039,-8.301,0.000
1680451810.988,-19.043,-31.250,-53.223,-7.324,0.000
1680451810.992,-17.578,-27.344,-26.367,-16.602,0.000
1680451810.996,-23.438,-28.320,-20.508,-25.879,0.000
1680451811.000,-34.180,-32.715,-26.367,-30.762,0.000
1680451811.004,-30.273,-33.203,-30.273,-23.926,0.000
1680451811.008,-16.113,-28.320,-34.180,-20.020,0.000
1680451811.012,-22.949,-27.344,-32.227,-27.832,0.000
1680451811.016,-39.551,-26.367,-25.391,-32.715,0.000
1680451811.020,-44.434,-30.273,-28.320,-32.227,0.000
1680451811.023,-42.480,-38.086,-32.715,-36.133,0.000
1680451811.027,-32.227,-28.320,-28.809,-34.668,0.000
1680451811.031,-28.320,-28.809,-32.715,-43.945,0.000
1680451811.035,-44.434,-31.250,-30.273,-51.758,0.000
1680451811.039,-56.152,-25.879,-23.926,-43.457,0.000
1680451811.043,-50.293,-28.320,-23.926,-40.527,0.000
1680451811.047,-40.039,-35.156,-26.367,-40.039,0.000
1680451811.051,-35.645,-35.645,-26.855,-36.621,0.000
1680451811.055,-42.969,-32.227,-24.902,-37.109,0.000
1680451811.059,-49.316,-36.621,-24.902,-40.039,0.000
1680451811.063,-41.016,-37.109,-27.832,-29.297,0.000
1680451811.066,-14.160,-27.344,-28.809,-20.020,0.000
1680451811.070,-8.789,-24.414,-31.738,-21.973,0.000
1680451811.074,-35.156,-32.227,-17.090,-28.809,0.000
1680451811.078,-47.363,-39.551,-10.742,-36.133,0.000
1680451811.082,-47.363,-34.180,-29.297,-33.691,0.000
1680451811.086,-37.598,-26.367,-31.250,-29.297,0.000
1680451811.090,-32.227,-25.391,-30.762,-30.273,0.000
1680451811.094,-43.457,-26.367,-32.715,-38.574,0.000
1680451811.098,-55.176,-29.297,-34.668,-53.711,0.000
1680451811.102,-55.664,-30.273,-31.250,-51.270,0.000
1680451811.105,-53.711,-26.855,-27.344,-44.922,0.000
1680451811.109,-51.758,-26.855,-26.367,-54.199,0.000
1680451811.113,-54.199,-33.203,-27.344,-55.664,0.000
1680451811.117,-65.430,-36.133,-29.785,-54.199,0.000
1680451811.121,-70.312,-33.691,-20.020,-52.246,0.000
1680451811.125,-59.570,-28.320,-24.902,-43.457,0.000
1680451811.129,-41.992,-26.367,-36.133,-38.574,0.000
1680451811.133,-34.180,-29.785,-37.598,-42.480,0.000
1680451811.137,-44.922,-33.203,-36.621,-39.551,0.000
1680451811.141,-51.758,-29.785,-30.762,-25.391,0.000
1680451811.145,-36.621,-20.996,-26.855,-25.879,0.000
1680451811.148,-20.020,-23.438,-34.668,-35.645,0.000
1680451811.152,-11.230,-29.297,-34.180,-20.020,0.000
1680451811.156,-16.602,-20.996,-28.809,-22.461,0.000
1680451811.160,-31.250,-26.367,-34.668,-45.410,0.000
1680451811.164,-24.414,-31.250,-36.621,-38.574,0.000
1680451811.168,-4.395,-30.273,-31.250,-22.949,0.000
1680451811.172,-10.742,-31.738,-27.832,-34.668,0.000
1680451811.176,-36.133,-31.738,-30.273,-47.852,0.000
1680451811.180,-46.875,-32.227,-28.809,-45.898,0.000
1680451811.184,-39.551,-30.762,-27.832,-35.645,0.000
1680451811.188,-46.387,-32.715,-34.668,-30.762,0.000
1680451811.191,-56.152,-32.227,-38.086,-38.086,0.000
1680451811.195,-59.570,-25.879,-38.086,-41.992,0.000
1680451811.199,-64.453,-34.668,-35.645,-41.992,0.000
1680451811.203,-54.688,-35.645,-32.715,-36.621,0.000
1680451811.207,-41.504,-29.297,-36.133,-38.574,0.000
1680451811.211,-42.969,-29.297,-31.250,-43.457,0.000
1680451811.215,-48.340,-28.809,-26.367,-42.969,0.000
1680451811.219,-45.410,-31.738,-27.344,-44.922,0.000
1680451811.223,-53.223,-31.738,-30.762,-41.016,0.000
1680451811.227,-50.781,-29.297,-41.016,-41.504,0.000
1680451811.230,-40.527,-29.785,-36.133,-41.992,0.000
1680451811.234,-34.668,-25.391,-27.344,-32.227,0.000
1680451811.238,-38.086,-23.926,-30.762,-30.762,0.000
1680451811.242,-40.527,-24.902,-29.297,-29.297,0.000
1680451811.246,-24.902,-17.090,-24.414,-19.043,0.000
1680451811.250,-12.695,-20.020,-30.273,-15.625,0.000
1680451811.254,-30.273,-34.668,-19.531,-28.320,0.000
1680451811.258,-47.852,-38.086,-11.719,-32.715,0.000
1680451811.262,-40.039,-38.086,-30.762,-17.090,0.000
1680451811.266,-29.785,-35.156,-34.668,-6.836,0.000
1680451811.270,-31.250,-31.738,-31.250,-15.137,0.000
1680451811.273,-35.645,-35.156,-31.738,-29.297,0.000
1680451811.277,-44.922,-40.039,-26.367,-36.621,0.000
1680451811.281,-41.504,-41.992,-28.320,-35.156,0.000
1680451811.285,-28.809,-31.250,-32.715,-26.855,0.000
1680451811.289,-26.367,-33.691,-30.762,-22.949,0.000
1680451811.293,-32.227,-44.434,-36.621,-34.180,0.000
1680451811.297,-49.805,-37.109,-40.527,-49.805,0.000
1680451811.301,-48.340,-33.691,-16.602,-46.387,0.000
1680451811.305,-22.949,-34.668,-17.578,-29.297,0.000
1680451811.309,-19.043,-33.203,-38.574,-29.297,0.000
1680451811.312,-29.785,-37.109,-34.668,-33.691,0.000
1680451811.316,-33.203,-37.109,-33.203,-34.180,0.000
1680451811.320,-31.250,-34.668,-32.227,-24.414,0.000
1680451811.324,-30.273,-30.762,-34.180,-15.625,0.000
1680451811.328,-28.320,-26.855,-35.645,-16.602,0.000
1680451811.332,-20.996,-25.391,-31.250,-22.949,0.000
1680451811.336,-33.203,-26.367,-31.250,-33.691,0.000
1680451811.340,-45.410,-38.574,-39.551,-32.715,0.000
1680451811.344,-42.969,-40.527,-35.156,-25.391,0.000
1680451811.348,-33.203,-37.109,-31.250,-25.391,0.000
1680451811.352,-19.531,-39.551,-37.109,-26.367,0.000
1680451811.355,-29.297,-34.180,-30.273,-28.809,0.000
1680451811.359,-47.852,-30.273,-30.273,-36.621,0.000
1680451811.363,-43.945,-36.621,-32.227,-35.156,0.000
1680451811.367,-37.598,-40.039,-28.809,-25.879,0.000
1680451811.371,-32.227,-34.668,-29.297,-27.344,0.000
1680451811.375,-41.992,-38.574,-32.715,-41.992,0.000
1680451811.379,-50.781,-35.645,-30.762,-39.062,0.000
1680451811.383,-46.387,-33.691,-29.785,-28.809,0.000
1680451811.387,-36.621,-40.039,-33.691,-29.297,0.000
1680451811.391,-30.273,-39.551,-34.180,-25.879,0.000
1680451811.395,-42.480,-39.551,-35.156,-30.762,0.000
1680451811.398,-42.969,-38.086,-33.203,-32.715,0.000
1680451811.402,-32.227,-34.668,-27.344,-23.926,0.000
1680451811.406,-29.297,-35.645,-15.137,-24.414,0.000
1680451811.410,-19.043,-39.551,-20.508,-22.461,0.000
1680451811.414,-29.297,-40.527,-33.691,-19.531,0.000
1680451811.418,-48.828,-34.180,-31.250,-25.879,0.000
1680451811.422,-40.527,-35.156,-29.785,-23.438,0.000
1680451811.426,-38.086,-40.527,-35.156,-17.578,0.000
1680451811.430,-39.062,-35.156,-34.180,-17.090,0.000
1680451811.434,-43.945,-30.762,-30.762,-21.973,0.000
1680451811.437,-50.781,-35.645,-33.203,-30.762,0.000
1680451811.441,-47.363,-38.086,-31.738,-28.809,0.000
1680451811.445,-39.551,-33.691,-33.203,-27.832,0.000
1680451811.449,-34.180,-33.203,-24.902,-35.645,0.000
1680451811.453,-44.922,-36.621,-26.855,-45.898,0.000
1680451811.457,-63.477,-40.527,-45.410,-54.688,0.000
1680451811.461,-62.500,-43.457,-44.434,-51.758,0.000
1680451811.465,-47.852,-36.133,-41.016,-47.852,0.000
1680451811.469,-43.945,-28.320,-36.133,-45.898,0.000
1680451811.473,-47.852,-21.973,-31.250,-46.875,0.000
1680451811.477,-45.410,-25.391,-31.250,-44.434,0.000
1680451811.480,-40.039,-30.273,-28.320,-37.109,0.000
1680451811.484,-41.992,-29.785,-29.785,-40.039,0.000
1680451811.488,-43.457,-28.809,-31.738,-41.992,0.000
1680451811.492,-27.832,-27.344,-31.738,-33.691,0.000
1680451811.496,-30.762,-26.855,-33.203,-30.273,0.000
1680451811.500,-40.527,-20.996,-28.809,-24.902,0.000
1680451811.504,-28.320,-23.926,-24.902,-16.602,0.000
1680451811.508,-19.531,-27.344,-27.832,-23.438,0.000
1680451811.512,-22.949,-26.367,-23.926,-21.973,0.000
1680451811.516,-33.691,-34.180,-21.973,-25.391,0.000
1680451811.520,-43.457,-38.086,-30.273,-34.180,0.000
1680451811.523,-37.109,-33.203,-28.809,-27.832,0.000
1680451811.527,-25.391,-27.832,-23.926,-27.344,0.000
1680451811.531,-32.715,-23.926,-26.367,-30.762,0.000
1680451811.535,-51.270,-28.320,-32.715,-44.922,0.000
1680451811.539,-51.270,-30.762,-13.672,-52.734,0.000
1680451811.543,-49.316,-30.273,-6.836,-41.504,0.000
1680451811.547,-41.504,-30.762,-26.855,-36.621,0.000
1680451811.551,-34.180,-29.297,-32.227,-41.992,0.000
1680451811.555,-50.293,-33.691,-19.531,-50.293,0.000
1680451811.559,-56.152,-33.203,-15.625,-47.852,0.000
1680451811.562,-38.574,-30.762,-28.320,-29.785,0.000
1680451811.566,-25.879,-34.180,-33.203,-20.996,0.000
1680451811.570,-28.809,-36.621,-31.738,-27.832,0.000
1680451811.574,-38.574,-41.992,-34.668,-40.527,0.000
1680451811.578,-41.992,-38.086,-35.645,-35.156,0.000
1680451811.582,-36.133,-31.738,-26.855,-20.508,0.000
1680451811.586,-31.250,-35.645,-42.480,-20.020,0.000
1680451811.590,-25.879,-35.156,-42.969,-22.461,0.000
1680451811.594,-25.391,-30.762,-30.762,-24.414,0.000
1680451811.598,-31.738,-30.762,-31.250,-20.508,0.000
1680451811.602,-33.691,-31.738,-28.809,-14.160,0.000
1680451811.605,-28.320,-32.227,-33.691,-22.949,0.000
1680451811.609,-24.414,-28.809,-34.180,-30.762,0.000
1680451811.613,-31.738,-31.250,-32.227,-36.621,0.000
1680451811.617,-41.992,-41.016,-35.156,-38.574,0.000
1680451811.621,-48.828,-38.574,-34.668,-36.621,0.000
1680451811.625,-49.316,-27.832,-33.203,-44.922,0.000
1680451811.629,-46.387,-30.273,-28.320,-44.434,0.000
1680451811.633,-53.711,-39.551,-25.879,-50.781,0.000
1680451811.637,-66.406,-40.527,-33.691,-63.965,0.000
1680451811.641,-64.453,-37.598,-34.180,-55.664,0.000
1680451811.644,-60.547,-34.180,-28.809,-52.246,0.000
1680451811.648,-55.176,-21.484,-25.879,-54.688,0.000
1680451811.652,-59.570,-23.926,-29.785,-54.199,0.000
1680451811.656,-68.848,-37.109,-33.203,-51.270,0.000
1680451811.660,-72.754,-33.203,-29.297,-42.969,0.000
1680451811.664,-53.223,-27.344,-20.996,-22.461,0.000
1680451811.668,-19.043,-28.809,-25.879,-10.254,0.000
1680451811.672,-14.160,-16.113,-39.062,-26.367,0.000
1680451811.676,-22.461,-12.695,-22.949,-34.180,0.000
1680451811.680,-24.414,-24.902,-13.184,-26.367,0.000
1680451811.684,-13.184,-24.902,-23.926,-20.020,0.000
1680451811.687,-13.672,-24.414,-27.344,-29.785,0.000
1680451811.691,-19.043,-16.113,-34.180,-42.969,0.000
1680451811.695,-25.879,-8.789,-39.062,-45.410,0.000
1680451811.699,-41.992,-17.090,-33.203,-38.574,0.000
1680451811.703,-50.781,-23.438,-23.926,-31.250,0.000
1680451811.707,-42.480,-25.879,-20.996,-20.996,0.000
1680451811.711,-40.039,-27.344,-24.414,-27.344,0.000
1680451811.715,-62.500,-30.273,-32.715,-53.711,0.000
1680451811.719,-57.617,-26.855,-36.133,-46.387,0.000
1680451811.723,-36.621,-23.926,-31.250,-27.344,0.000
1680451811.727,-41.992,-33.203,-21.973,-30.762,0.000
1680451811.730,-52.246,-29.785,-28.809,-49.805,0.000
1680451811.734,-72.266,-25.879,-45.898,-78.125,0.000
1680451811.738,-71.777,-38.086,-46.387,-63.965,0.000
1680451811.742,-52.246,-40.527,-35.156,-28.320,0.000
1680451811.746,-57.617,-26.855,-37.598,-49.316,0.000
1680451811.750,-53.223,-17.578,-43.457,-62.012,0.000
1680451811.754,-29.297,-17.578,-40.527,-41.016,0.000
1680451811.758,-38.086,-20.996,-42.480,-34.180,0.000
1680451811.762,-51.758,-27.832,-38.574,-37.109,0.000
1680451811.766,-33.691,-29.785,-35.156,-31.250,0.000
1680451811.769,-20.508,-27.832,-35.156,-24.902,0.000
1680451811.773,-25.879,-29.297,-33.691,-24.414,0.000
1680451811.777,-30.273,-32.227,-33.691,-23.438,0.000
1680451811.781,-36.621,-29.785,-23.926,-32.715,0.000
1680451811.785,-35.156,-21.973,-34.668,-41.992,0.000
1680451811.789,-29.297,-24.902,-47.363,-40.039,0.000
1680451811.793,-28.809,-37.109,-41.992,-28.320,0.000
1680451811.797,-36.133,-38.086,-42.480,-37.598,0.000
1680451811.801,-42.480,-21.484,-48.828,-56.641,0.000
1680451811.805,-33.691,-25.879,-46.875,-61.523,0.000
1680451811.809,-25.879,-36.621,-44.922,-57.617,0.000
1680451811.812,-34.668,-32.715,-45.898,-55.176,0.000
1680451811.816,-39.062,-36.133,-46.875,-56.152,0.000
1680451811.820,-47.852,-40.527,-47.852,-54.688,0.000
1680451811.824,-60.547,-47.363,-34.180,-62.012,0.000
1680451811.828,-48.828,-42.969,-27.344,-55.664,0.000
1680451811.832,-34.668,-37.109,-34.668,-36.133,0.000
1680451811.836,-34.668,-39.062,-39.062,-36.621,0.000
1680451811.840,-41.992,-37.109,-43.457,-36.133,0.000
1680451811.844,-35.156,-33.203,-40.039,-22.461,0.000
1680451811.848,-18.555,-32.227,-33.203,-18.555,0.000
1680451811.852,-16.602,-29.297,-34.668,-20.020,0.000
1680451811.855,-28.320,-31.250,-42.480,-26.855,0.000
1680451811.859,-26.367,-31.250,-36.621,-28.809,0.000
1680451811.863,-18.555,-28.320,-36.621,-23.926,0.000
1680451811.867,-10.254,-31.738,-40.527,-18.555,0.000
1680451811.871,-4.395,-39.062,-39.551,-13.184,0.000
1680451811.875,-12.695,-39.062,-36.621,-18.066,0.000
1680451811.879,-24.902,-30.762,-40.039,-36.133,0.000
1680451811.883,-25.879,-29.785,-39.062,-42.969,0.000
1680451811.887,-14.648,-27.344,-28.320,-25.879,0.000
1680451811.891,-14.160,-27.832,-27.344,-23.438,0.000
1680451811.894,-29.297,-30.273,-34.668,-41.504,0.000
1680451811.898,-42.969,-40.039,-33.203,-46.875,0.000
1680451811.902,-46.875,-46.387,-25.391,-43.945,0.000
1680451811.906,-34.180,-31.250,-22.949,-39.551,0.000
1680451811.910,-18.555,-22.461,-20.020,-28.809,0.000
1680451811.914,-33.203,-33.203,-19.531,-39.062,0.000
1680451811.918,-54.199,-38.086,-22.461,-51.270,0.000
1680451811.922,-50.781,-32.227,-27.832,-40.527,0.000
1680451811.926,-34.668,-31.250,-30.273,-24.414,0.000
1680451811.930,-24.902,-28.809,-26.367,-14.648,0.000
1680451811.934,-27.832,-24.414,-27.832,-16.113,0.000
1680451811.937,-37.598,-26.855,-27.832,-20.508,0.000
1680451811.941,-37.598,-29.785,-22.461,-12.207,0.000
1680451811.945,-29.297,-29.785,-22.461,-12.695,0.000
1680451811.949,-17.578,-30.273,-24.414,-12.207,0.000
1680451811.953,-24.414,-24.902,-23.926,-13.672,0.000
1680451811.957,-37.598,-29.297,-28.809,-26.855,0.000
1680451811.961,-28.809,-32.715,-10.742,-19.531,0.000
1680451811.965,-1.953,-27.344,-18.066,-1.465,0.000
1680451811.969,-0.977,-26.367,-36.621,-2.441,0.000
1680451811.973,-35.156,-31.738,-28.809,-23.926,0.000
1680451811.976,-45.898,-33.203,-27.344,-31.738,0.000
1680451811.980,-42.480,-30.762,-24.902,-24.414,0.000
1680451811.984,-37.109,-23.926,-26.367,-20.996,0.000
1680451811.988,-24.902,-21.973,-29.297,-25.391,0.000
1680451811.992,-23.926,-29.297,-35.645,-35.156,0.000
1680451811.996,-42.480,-35.645,-38.086,-41.016,0.000
1680451812.000,-48.828,-26.855,-27.832,-40.527,0.000
1680451812.004,-37.598,-28.320,-31.250,-34.180,0.000
1680451812.008,-26.367,-40.527,-39.551,-26.855,0.000
1680451812.012,-23.438,-33.691,-27.344,-22.461,0.000
1680451812.016,-35.645,-28.809,-21.973,-26.367,0.000
1680451812.019,-49.316,-27.832,-25.879,-34.180,0.000
1680451812.023,-37.109,-27.344,-25.391,-24.902,0.000
1680451812.027,-11.719,-20.508,-21.484,-5.371,0.000
1680451812.031,-13.672,-16.602,-20.508,-6.348,0.000
1680451812.035,-33.203,-29.785,-20.508,-18.066,0.000
1680451812.039,-41.504,-26.855,-22.461,-22.461,0.000
1680451812.043,-36.621,-19.043,-27.344,-19.531,0.000
1680451812.047,-32.715,-18.555,-33.691,-14.160,0.000
1680451812.051,-34.668,-24.414,-19.531,-25.391,0.000
1680451812.055,-44.434,-33.691,-18.555,-42.480,0.000
1680451812.059,-43.457,-28.809,-31.738,-42.969,0.000
1680451812.062,-41.992,-27.344,-32.715,-36.621,0.000
1680451812.066,-48.340,-30.762,-35.645,-40.527,0.000
1680451812.070,-41.992,-32.227,-39.551,-44.922,0.000
1680451812.074,-36.133,-37.109,-45.898,-50.293,0.000
1680451812.078,-33.691,-35.156,-36.133,-40.039,0.000
1680451812.082,-51.758,-31.738,-35.645,-51.758,0.000
1680451812.086,-48.340,-30.762,-46.875,-62.988,0.000
1680451812.090,-23.926,-26.367,-49.316,-43.457,0.000
1680451812.094,-41.016,-34.180,-20.508,-49.316,0.000
1680451812.098,-54.688,-43.945,3.418,-55.664,0.000
1680451812.101,-48.828,-41.504,-26.855,-46.387,0.000
1680451812.105,-48.340,-34.668,-40.527,-41.992,0.000
1680451812.109,-36.621,-36.133,-37.109,-31.250,0.000
1680451812.113,-29.785,-46.387,-36.621,-24.414,0.000
1680451812.117,-30.762,-43.945,-37.109,-24.902,0.000
1680451812.121,-30.273,-39.062,-33.203,-18.555,0.000
1680451812.125,-18.066,-37.109,-35.156,-7.812,0.000
1680451812.129,-20.020,-33.691,-37.109,-15.137,0.000
1680451812.133,-31.250,-31.250,-34.180,-30.273,0.000
1680451812.137,-30.273,-34.180,-35.645,-25.391,0.000
1680451812.141,-29.297,-30.273,-37.109,-18.555,0.000
1680451812.144,-26.855,-30.762,-31.738,-14.648,0.000
1680451812.148,-26.855,-27.832,-28.809,-19.531,0.000
1680451812.152,-23.438,-23.926,-34.180,-34.668,0.000
1680451812.156,-29.297,-33.691,-40.527,-39.551,0.000
1680451812.160,-36.621,-29.785,-33.691,-34.668,0.000
1680451812.164,-34.180,-19.043,-28.320,-34.180,0.000
1680451812.168,-36.621,-30.273,-40.527,-40.527,0.000
1680451812.172,-45.410,-40.527,-53.223,-42.969,0.000
1680451812.176,-37.109,-34.668,-41.016,-31.738,0.000
1680451812.180,-41.992,-37.109,-32.715,-30.273,0.000
1680451812.184,-46.387,-40.527,-33.203,-30.273,0.000
1680451812.187,-32.715,-27.832,-31.250,-31.738,0.000
1680451812.191,-29.785,-27.832,-32.227,-34.668,0.000
1680451812.195,-29.297,-33.691,-35.156,-26.367,0.000
1680451812.199,-33.691,-35.645,-11.230,-37.109,0.000
1680451812.203,-36.133,-35.156,0.488,-41.992,0.000
1680451812.207,-15.137,-21.973,-27.344,-23.926,0.000
1680451812.211,-28.809,-31.738,-37.109,-35.645,0.000
1680451812.215,-47.852,-46.387,-37.598,-40.039,0.000
1680451812.219,-36.621,-43.945,-30.762,-31.738,0.000
1680451812.223,-32.715,-38.086,-29.785,-32.227,0.000
1680451812.226,-27.832,-30.273,-31.250,-29.297,0.000
1680451812.230,-32.715,-22.949,-31.250,-40.527,0.000
1680451812.234,-47.363,-25.391,-33.203,-53.711,0.000
1680451812.238,-60.059,-35.156,-39.551,-55.176,0.000
1680451812.242,-64.941,-36.133,-39.551,-48.340,0.000
1680451812.246,-56.641,-30.762,-13.672,-40.527,0.000
1680451812.250,-52.246,-27.832,-16.602,-35.156,0.000
1680451812.254,-65.918,-32.227,-36.621,-48.828,0.000
1680451812.258,-61.035,-30.762,-34.668,-41.016,0.000
1680451812.262,-50.781,-22.949,-32.715,-26.367,0.000
1680451812.266,-47.852,-27.344,-35.156,-43.945,0.000
1680451812.269,-33.691,-29.785,-38.574,-46.387,0.000
1680451812.273,-25.391,-28.320,-31.250,-31.250,0.000
1680451812.277,-40.527,-31.250,-29.297,-39.551,0.000
1680451812.281,-40.527,-22.461,-27.832,-21.484,0.000
1680451812.285,-28.809,-24.414,-31.738,-10.254,0.000
1680451812.289,-35.645,-36.133,-23.438,-25.879,0.000
1680451812.293,-27.344,-34.180,-9.277,-18.555,0.000
1680451812.297,-27.344,-31.250,-32.227,-23.926,0.000
1680451812.301,-45.410,-32.715,-39.062,-40.039,0.000
1680451812.305,-28.320,-36.133,-30.762,-33.691,0.000
1680451812.309,-10.254,-34.668,-27.832,-8.301,0.000
1680451812.312,-14.160,-27.832,-27.344,-16.113,0.000
1680451812.316,-28.809,-27.344,-27.344,-40.527,0.000
1680451812.320,-28.809,-39.062,-25.879,-25.391,0.000
1680451812.324,-23.926,-39.551,-30.273,-28.809,0.000
1680451812.328,-17.578,-25.879,-37.598,-45.898,0.000
1680451812.332,-20.996,-29.297,-32.715,-45.410,0.000
1680451812.336,-35.645,-39.551,-20.508,-52.734,0.000
1680451812.340,-45.410,-41.504,-23.438,-48.828,0.000
1680451812.344,-43.457,-33.203,-37.598,-46.875,0.000
1680451812.348,-39.062,-26.367,-44.434,-63.965,0.000
1680451812.351,-55.664,-38.086,-37.598,-68.359,0.000
1680451812.355,-62.988,-41.992,-30.273,-69.336,0.000
1680451812.359,-24.902,-32.715,-30.273,-40.527,0.000
1680451812.363,-9.277,-30.762,-34.668,-19.043,0.000
1680451812.367,-24.902,-33.203,-33.203,-20.996,0.000
1680451812.371,-17.090,-38.574,-22.949,-13.672,0.000
1680451812.375,-40.527,-42.480,-28.809,-36.133,0.000
1680451812.379,-63.477,-37.109,-22.949,-55.176,0.000
1680451812.383,-51.758,-21.484,-17.090,-48.340,0.000
1680451812.387,-38.574,-16.113,-37.109,-36.133,0.000
1680451812.391,-38.574,-31.738,-32.227,-31.738,0.000
1680451812.394,-46.875,-38.086,-32.715,-36.133,0.000
1680451812.398,-78.613,-51.758,-28.320,-43.457,0.000
1680451812.402,-78.613,-47.852,-28.809,-48.828,0.000
1680451812.406,-50.293,-22.461,-31.250,-51.758,0.000
1680451812.410,-45.410,-17.090,-32.715,-53.711,0.000
1680451812.414,-40.527,-15.625,-39.551,-61.523,0.000
1680451812.418,-29.785,-23.926,-38.086,-63.965,0.000
1680451812.422,-31.738,-28.809,-36.133,-47.852,0.000
1680451812.426,-49.316,-29.785,-29.785,-44.922,0.000
1680451812.430,-47.852,-34.668,-34.180,-56.152,0.000
1680451812.433,-39.551,-32.227,-41.016,-64.941,0.000
1680451812.437,-38.574,-35.645,-31.250,-41.992,0.000
1680451812.441,-27.832,-36.133,-26.367,-13.184,0.000
1680451812.445,-16.602,-28.809,-32.227,-27.832,0.000
1680451812.449,-18.066,-24.902,-31.738,-38.086,0.000
1680451812.453,-58.105,-35.156,-26.855,-52.246,0.000
1680451812.457,-44.434,-38.574,-35.156,-27.344,0.000
1680451812.461,-18.066,-35.156,-34.180,-6.348,0.000
1680451812.465,-25.879,-33.691,-30.273,-16.602,0.000
1680451812.469,-25.879,-29.297,-22.949,-12.695,0.000
1680451812.473,-28.809,-35.645,-16.113,-27.832,0.000
1680451812.476,-45.410,-41.016,-26.855,-43.945,0.000
1680451812.480,-32.715,-34.180,-39.551,-25.879,0.000
1680451812.484,-15.625,-22.461,-39.551,-20.508,0.000
1680451812.488,-39.551,-20.996,-26.367,-27.832,0.000
1680451812.492,-60.547,-35.156,-20.020,-35.156,0.000
1680451812.496,-52.734,-30.762,-29.785,-51.758,0.000
1680451812.500,-49.805,-18.066,-33.691,-41.504,0.000
1680451812.504,-39.062,-20.508,-30.762,-35.645,0.000
1680451812.508,-23.926,-36.621,-31.738,-41.992,0.000
1680451812.512,-27.344,-38.574,-29.785,-39.551,0.000
1680451812.516,-34.180,-35.156,-23.926,-43.457,0.000
1680451812.519,-53.223,-30.273,-27.832,-60.059,0.000
1680451812.523,-67.383,-17.090,-34.180,-57.129,0.000
1680451812.527,-18.066,-38.574,-27.832,-31.250,0.000
1680451812.531,-8.301,-44.434,-27.832,-39.062,0.000
1680451812.535,-54.688,-35.645,-30.273,-64.453,0.000
1680451812.539,-67.383,-35.156,-33.691,-50.293,0.000
1680451812.543,-33.691,-33.203,-24.414,-29.297,0.000
1680451812.547,-15.625,-12.207,-30.762,-29.297,0.000
1680451812.551,-31.738,-17.578,-30.762,-14.160,0.000
1680451812.555,-50.781,-20.996,-25.391,-16.113,0.000
1680451812.558,-24.414,-22.949,-30.762,-3.906,0.000
1680451812.562,-7.324,-38.574,-24.902,15.137,0.000
1680451812.566,-12.207,-32.227,-20.508,6.348,0.000
1680451812.570,33.203,-29.297,-29.785,11.230,0.000
1680451812.574,29.297,-42.480,-9.277,27.832,0.000
1680451812.578,-9.766,-44.434,12.695,0.000,0.000
1680451812.582,-23.926,-29.785,-23.926,-26.367,0.000
1680451812.586,-9.766,-33.691,-34.668,-14.160,0.000
1680451812.590,-16.602,-38.574,-18.066,-17.090,0.000
1680451812.594,-41.992,-38.574,-20.508,-20.020,0.000
1680451812.598,-55.664,-39.551,-24.902,-33.691,0.000
1680451812.601,-39.551,-30.273,-26.855,-41.016,0.000
1680451812.605,-19.043,-23.926,-31.250,-25.391,0.000
1680451812.609,-17.578,-26.855,-20.996,-43.945,0.000
1680451812.613,-31.738,-39.062,-19.043,-62.012,0.000
1680451812.617,-33.203,-44.922,-27.344,-42.969,0.000
1680451812.621,-25.391,-36.621,-9.277,-32.715,0.000
1680451812.625,-24.902,-32.715,-11.230,-31.738,0.000
1680451812.629,-15.137,-32.227,-33.203,-28.320,0.000
1680451812.633,-13.184,-35.645,-24.902,-15.137,0.000
1680451812.637,-4.883,-30.762,-21.973,-13.184,0.000
1680451812.641,-0.488,-27.344,-22.461,-11.719,0.000
1680451812.644,-4.395,-22.461,-24.414,-6.348,0.000
1680451812.648,5.371,-19.043,-26.855,-2.930,0.000
1680451812.652,-6.836,-27.832,-19.043,-5.371,0.000
1680451812.656,-5.371,-31.250,-23.926,-26.367,0.000
1680451812.660,-22.461,-33.203,-36.621,-25.879,0.000
1680451812.664,-38.086,-39.551,-33.203,-8.789,0.000
1680451812.668,-32.715,-44.434,-27.832,-18.066,0.000
1680451812.672,-37.598,-34.180,-31.738,-28.809,0.000
1680451812.676,-55.664,-36.621,-31.738,-26.367,0.000
1680451812.680,-55.176,-39.062,-37.109,-31.250,0.000
1680451812.683,-17.578,-29.785,-38.086,-49.316,0.000
1680451812.687,-7.812,-24.902,-32.715,-40.039,0.000
1680451812.691,-27.344,-32.227,-29.297,-32.715,0.000
1680451812.695,-27.832,-37.109,-26.855,-25.879,0.000
1680451812.699,-43.945,-32.715,-31.250,-35.156,0.000
1680451812.703,-65.918,-25.391,-34.180,-46.875,0.000
1680451812.707,-39.062,-23.926,-36.133,-27.832,0.000
1680451812.711,-27.344,-31.250,-26.855,-28.809,0.000
1680451812.715,-22.461,-26.855,-26.855,-24.902,0.000
1680451812.719,-18.555,-28.320,-31.738,-1.953,0.000
1680451812.723,-38.086,-44.434,-20.996,-7.324,0.000
1680451812.726,-30.762,-49.805,-13.672,-15.625,0.000
1680451812.730,-6.836,-31.738,-23.438,-7.324,0.000
1680451812.734,-22.949,-13.184,-39.551,-31.738,0.000
1680451812.738,-27.344,-18.066,-42.480,-49.805,0.000
1680451812.742,1.953,-22.461,-40.039,-29.785,0.000
1680451812.746,-2.930,-20.996,-33.691,-30.762,0.000
1680451812.750,-10.254,-24.902,-30.273,-39.062,0.000
1680451812.754,-6.836,-20.020,-32.227,-36.133,0.000
1680451812.758,-10.254,-23.926,-35.645,-42.969,0.000
1680451812.762,-40.039,-33.203,-38.086,-44.922,0.000
1680451812.765,-50.293,-37.598,-33.203,-18.555,0.000
1680451812.769,-32.715,-31.250,-37.598,-38.086,0.000
1680451812.773,-31.250,-20.508,-48.340,-83.496,0.000
1680451812.777,-40.039,-31.250,-44.434,-56.641,0.000
1680451812.781,-56.152,-43.457,-31.250,-40.039,0.000
1680451812.785,-41.016,-38.574,-30.273,-47.852,0.000
1680451812.789,-49.316,-33.691,-39.551,-49.316,0.000
1680451812.793,-60.059,-31.250,-40.527,-56.641,0.000
1680451812.797,-46.387,-22.949,-39.062,-75.684,0.000
1680451812.801,-32.715,-20.996,-36.621,-61.035,0.000
1680451812.805,-41.992,-29.785,-30.273,-38.086,0.000
1680451812.808,-27.344,-30.762,-32.715,-27.832,0.000
1680451812.812,-8.301,-28.809,-31.738,-37.109,0.000
1680451812.816,-36.621,-30.273,-30.273,-50.293,0.000
1680451812.820,-34.668,-27.832,-31.738,-28.809,0.000
1680451812.824,-15.137,-20.508,-36.621,-25.391,0.000
1680451812.828,15.625,-17.090,-31.738,3.418,0.000
1680451812.832,2.441,-25.879,-29.785,-6.348,0.000
1680451812.836,-34.668,-37.109,-39.062,-60.059,0.000
1680451812.840,-24.902,-25.391,-38.574,-46.875,0.000
1680451812.844,-21.484,-15.625,-35.156,-27.344,0.000
1680451812.848,-29.785,-29.785,-42.480,-25.879,0.000
1680451812.851,-17.090,-34.668,-41.504,-20.508,0.000
1680451812.855,-32.227,-36.621,-37.109,-46.875,0.000
1680451812.859,-57.129,-37.598,-35.156,-57.617,0.000
1680451812.863,-41.504,-27.344,-37.109,-38.574,0.000
1680451812.867,-23.438,-22.461,-45.898,-42.480,0.000
1680451812.871,-21.973,-24.902,-41.504,-55.664,0.000
1680451812.875,-31.738,-36.133,-32.227,-42.480,0.000
1680451812.879,-48.340,-42.969,-37.598,-41.016,0.000
1680451812.883,-44.434,-30.273,-47.852,-65.430,0.000
1680451812.887,-41.016,-25.391,-41.504,-68.359,0.000
1680451812.890,-20.508,-22.949,-35.645,-27.832,0.000
1680451812.894,-17.578,-20.996,-36.133,-9.766,0.000
1680451812.898,-47.363,-34.668,-33.691,-34.668,0.000
1680451812.902,-31.738,-33.691,-27.344,-18.066,0.000
1680451812.906,-8.789,-21.973,-12.695,-10.742,0.000
1680451812.910,-16.602,-26.367,-26.367,-28.809,0.000
1680451812.914,-26.855,-35.645,-41.016,-13.672,0.000
1680451812.918,-27.344,-32.227,-34.180,-9.277,0.000
1680451812.922,-33.203,-32.227,-35.156,-11.719,0.000
1680451812.926,-21.484,-31.250,-40.527,-15.625,0.000
1680451812.930,-0.977,-23.926,-38.574,-31.738,0.000
1680451812.933,-13.672,-24.902,-31.250,-10.254,0.000
1680451812.937,-29.785,-34.668,-33.691,-8.301,0.000
1680451812.941,-30.762,-37.598,-36.133,-25.879,0.000
1680451812.945,-27.344,-33.691,-36.621,-26.855,0.000
1680451812.949,-25.391,-33.203,-24.414,-20.996,0.000
1680451812.953,-33.691,-30.273,-14.648,-28.320,0.000
1680451812.957,-40.527,-26.855,-35.156,-36.133,0.000
1680451812.961,-47.852,-34.180,-37.598,-37.109,0.000
1680451812.965,-54.688,-41.992,-27.344,-32.715,0.000
1680451812.969,-51.758,-38.574,-30.273,-27.344,0.000
1680451812.973,-44.434,-35.645,-40.039,-43.457,0.000
1680451812.976,-41.992,-36.621,-38.086,-46.875,0.000
1680451812.980,-46.387,-38.086,-32.227,-26.855,0.000
1680451812.984,-37.109,-29.785,-30.762,-16.602,0.000
1680451812.988,-34.668,-23.438,-36.133,-20.020,0.000
1680451812.992,-43.457,-31.250,-41.016,-22.461,0.000
1680451812.996,-44.434,-37.109,-21.484,-19.531,0.000
1680451813.000,-51.758,-38.086,-18.066,-16.113,0.000
1680451813.004,-49.316,-36.621,-38.574,-22.949,0.000
1680451813.008,-40.527,-36.621,-34.180,-17.578,0.000
1680451813.012,-31.738,-35.645,-29.785,-20.020,0.000
1680451813.015,-31.250,-31.738,-38.086,-30.762,0.000
1680451813.019,-40.039,-35.156,-36.133,-26.367,0.000
1680451813.023,-33.203,-40.039,-30.273,-19.531,0.000
1680451813.027,-29.785,-34.180,-29.297,-18.555,0.000
1680451813.031,-30.762,-27.832,-33.691,-27.344,0.000
1680451813.035,-42.480,-28.320,-40.039,-34.180,0.000
1680451813.039,-53.711,-33.691,-19.531,-39.062,0.000
1680451813.043,-39.551,-30.273,-1.465,-39.551,0.000
1680451813.047,-31.738,-21.973,-26.855,-42.969,0.000
1680451813.051,-40.039,-33.203,-35.156,-32.227,0.000
1680451813.055,-47.852,-34.180,-32.227,-30.762,0.000
1680451813.058,-61.523,-34.668,-31.738,-41.992,0.000
1680451813.062,-47.852,-30.762,-22.949,-38.086,0.000
1680451813.066,-31.250,-25.879,-21.484,-32.715,0.000
1680451813.070,-47.363,-40.039,-32.715,-46.387,0.000
1680451813.074,-49.805,-49.316,-32.715,-59.082,0.000
1680451813.078,-56.152,-46.387,-30.762,-47.852,0.000
1680451813.082,-56.152,-41.504,-32.227,-34.180,0.000
1680451813.086,-38.086,-37.598,-37.598,-31.250,0.000
1680451813.090,-31.738,-34.668,-42.969,-47.852,0.000
1680451813.094,-39.062,-30.762,-38.086,-52.734,0.000
1680451813.097,-46.387,-33.691,-32.715,-39.551,0.000
