timestamps,TP9,AF7,AF8,TP10,Right AUX
1680448956.185,-28.809,-32.227,-37.109,-33.691,0.000
1680448956.189,-43.457,-30.762,-36.621,-24.414,0.000
1680448956.193,-26.367,-29.297,-33.691,-21.973,0.000
1680448956.196,-19.043,-26.367,-26.367,-20.020,0.000
1680448956.200,10.742,-22.949,-24.902,-24.414,0.000
1680448956.204,-14.648,-26.367,-19.531,-37.109,0.000
1680448956.208,-75.684,-33.203,-11.719,-37.109,0.000
1680448956.212,-49.316,-31.250,-28.320,-24.414,0.000
1680448956.216,-13.184,-26.855,-33.691,-12.695,0.000
1680448956.220,-11.719,-24.414,-25.879,-12.695,0.000
1680448956.224,-24.902,-24.902,-26.367,-24.902,0.000
1680448956.228,-51.758,-28.809,-38.086,-44.434,0.000
1680448956.232,-56.641,-30.273,-36.133,-39.062,0.000
1680448956.236,-44.434,-30.762,-33.203,-22.949,0.000
1680448956.239,-42.969,-26.855,-31.738,-5.859,0.000
1680448956.243,-21.484,-23.926,-25.391,16.113,0.000
1680448956.247,-11.230,-24.902,-28.809,-18.066,0.000
1680448956.251,-23.926,-27.344,-27.832,-60.547,0.000
1680448956.255,-14.648,-32.715,-29.785,-36.133,0.000
1680448956.259,-6.348,-28.809,-33.691,-12.695,0.000
1680448956.263,-21.484,-22.461,-26.367,-8.301,0.000
1680448956.267,-22.461,-25.391,-20.996,-17.090,0.000
1680448956.271,-27.344,-26.367,-30.273,-47.852,0.000
1680448956.275,-41.016,-28.320,-39.062,-50.781,0.000
1680448956.278,-40.527,-29.785,-36.133,-32.227,0.000
1680448956.282,-26.367,-30.273,-32.715,-28.809,0.000
1680448956.286,-21.484,-31.250,-38.574,-33.691,0.000
1680448956.290,-22.949,-30.273,-43.457,-36.133,0.000
1680448956.294,-27.344,-34.668,-35.156,-28.320,0.000
1680448956.298,-33.203,-30.273,-27.832,-11.719,0.000
1680448956.302,-28.320,-24.414,-28.320,-1.465,0.000
1680448956.306,-13.672,-25.391,-33.203,-13.672,0.000
1680448956.310,-16.113,-32.227,-21.484,-41.016,0.000
1680448956.314,-32.715,-40.527,-15.625,-50.293,0.000
1680448956.318,-36.133,-37.598,-30.762,-39.551,0.000
1680448956.321,-19.043,-29.297,-27.344,-28.809,0.000
1680448956.325,2.441,-30.273,-25.391,-25.879,0.000
1680448956.329,-18.555,-36.621,-32.715,-39.551,0.000
1680448956.333,-59.570,-36.621,-32.715,-45.898,0.000
1680448956.337,-60.059,-28.320,-28.320,-10.742,0.000
1680448956.341,-42.969,-22.949,-31.250,-16.113,0.000
1680448956.345,-34.668,-19.531,-32.227,-29.297,0.000
1680448956.349,-33.691,-26.367,-41.504,-29.785,0.000
1680448956.353,-17.578,-27.832,-43.945,-30.273,0.000
1680448956.357,-2.930,-23.926,-20.020,-3.906,0.000
1680448956.360,-1.953,-25.879,-20.508,-11.719,0.000
1680448956.364,-25.879,-20.508,-40.527,-37.598,0.000
1680448956.368,-28.320,-16.602,-37.598,-32.715,0.000
1680448956.372,-14.648,-27.344,-37.598,-33.691,0.000
1680448956.376,-28.320,-26.855,-39.551,-30.273,0.000
1680448956.380,-29.785,-18.555,-32.227,-7.324,0.000
1680448956.384,-22.461,-23.926,-30.273,14.648,0.000
1680448956.388,-16.113,-26.855,-30.762,-20.508,0.000
1680448956.392,-8.301,-23.926,-30.273,-55.176,0.000
1680448956.396,-23.926,-32.715,-32.715,-39.551,0.000
1680448956.400,-32.715,-36.621,-18.555,-20.508,0.000
1680448956.403,-14.648,-31.250,-8.789,-11.719,0.000
1680448956.407,-23.926,-34.668,-39.062,-24.414,0.000
1680448956.411,-24.902,-35.645,-49.805,-34.668,0.000
1680448956.415,-10.254,-33.203,-41.504,-24.902,0.000
1680448956.419,-21.973,-37.598,-42.969,-15.625,0.000
1680448956.423,-27.832,-33.691,-43.945,-21.484,0.000
1680448956.427,-40.039,-39.062,-40.527,-29.785,0.000
1680448956.431,-54.688,-46.875,-40.527,-56.641,0.000
1680448956.435,-55.176,-36.133,-36.133,-60.059,0.000
1680448956.439,-42.480,-28.809,-28.320,-28.809,0.000
1680448956.443,-24.414,-31.250,-26.855,-21.484,0.000
1680448956.446,-18.555,-37.598,-13.672,-44.922,0.000
1680448956.450,-20.020,-43.457,-25.879,-33.203,0.000
1680448956.454,-26.367,-42.480,-45.410,-6.836,0.000
1680448956.458,-4.395,-31.738,-30.762,-20.508,0.000
1680448956.462,-5.859,-28.320,-25.879,-29.297,0.000
1680448956.466,-8.789,-28.809,-30.273,-27.832,0.000
1680448956.470,-28.320,-28.320,-35.156,-56.641,0.000
1680448956.474,-55.664,-30.273,-34.668,-51.758,0.000
1680448956.478,-39.062,-24.414,-27.832,-16.602,0.000
1680448956.482,-33.691,-28.320,-26.855,-19.043,0.000
1680448956.485,-30.762,-28.320,-33.691,-23.438,0.000
1680448956.489,-18.066,-29.785,-28.320,-25.391,0.000
1680448956.493,25.879,-37.109,-15.625,-34.668,0.000
1680448956.497,-2.930,-32.227,-28.809,-33.203,0.000
1680448956.501,-54.688,-32.227,-35.645,-27.344,0.000
1680448956.505,-38.574,-36.621,-37.109,-30.762,0.000
1680448956.509,-39.551,-36.621,-42.480,-45.410,0.000
1680448956.513,-36.133,-30.273,-42.969,-44.434,0.000
1680448956.517,-18.555,-24.902,-34.180,-6.836,0.000
1680448956.521,-6.836,-23.438,-25.879,-8.789,0.000
1680448956.525,-24.902,-21.973,-29.297,-12.695,0.000
1680448956.528,-4.883,-25.391,-29.297,-24.902,0.000
1680448956.532,19.043,-27.832,-35.156,-55.176,0.000
1680448956.536,-9.277,-29.297,-19.043,-35.645,0.000
1680448956.540,-16.113,-27.344,-9.766,-16.602,0.000
1680448956.544,-45.410,-24.902,-25.391,-24.414,0.000
1680448956.548,-55.664,-26.855,-27.832,-44.922,0.000
1680448956.552,-29.785,-25.879,-32.227,-26.855,0.000
1680448956.556,-36.621,-27.344,-30.762,-22.949,0.000
1680448956.560,-36.133,-22.461,-28.320,-17.578,0.000
1680448956.564,-39.551,-21.484,-33.691,-18.555,0.000
1680448956.568,-11.230,-30.273,-37.598,-50.293,0.000
1680448956.571,13.184,-33.691,-39.062,-51.758,0.000
1680448956.575,4.395,-32.715,-39.551,-25.391,0.000
1680448956.579,-15.625,-33.691,-26.855,0.977,0.000
1680448956.583,-24.414,-37.598,-17.578,-18.066,0.000
1680448956.587,-27.832,-33.203,-34.180,-32.227,0.000
1680448956.591,-35.156,-26.367,-36.621,-18.066,0.000
1680448956.595,-15.137,-26.855,-32.715,-21.484,0.000
1680448956.599,-18.066,-25.391,-32.227,-11.230,0.000
1680448956.603,-2.930,-22.949,-31.738,1.953,0.000
1680448956.607,7.324,-23.438,-36.133,-41.016,0.000
1680448956.610,-23.438,-28.320,-44.922,-57.617,0.000
1680448956.614,-40.527,-30.762,-40.039,-45.898,0.000
1680448956.618,-23.438,-26.367,-33.691,-21.484,0.000
1680448956.622,-14.160,-30.273,-34.668,3.906,0.000
1680448956.626,-21.973,-31.250,-30.762,-14.648,0.000
1680448956.630,9.766,-33.203,-35.156,-39.062,0.000
1680448956.634,0.000,-36.621,-37.598,-23.926,0.000
1680448956.638,-21.484,-32.715,-30.762,2.441,0.000
1680448956.642,-9.766,-33.691,-19.043,0.977,0.000
1680448956.646,-16.113,-32.227,-25.391,-16.113,0.000
1680448956.650,-24.414,-21.484,-39.062,-20.996,0.000
1680448956.653,-10.742,-25.879,-38.574,-7.812,0.000
1680448956.657,4.883,-31.250,-38.574,11.719,0.000
1680448956.661,-9.277,-25.879,-37.109,-3.906,0.000
1680448956.665,16.113,-22.461,-33.691,-31.250,0.000
1680448956.669,29.785,-25.879,-41.992,-41.992,0.000
1680448956.673,-15.625,-21.484,-41.504,-38.574,0.000
1680448956.677,-42.480,-22.461,-37.109,-30.762,0.000
1680448956.681,-40.039,-31.250,-38.574,-23.438,0.000
1680448956.685,-34.180,-33.691,-25.391,-22.949,0.000
1680448956.689,-25.391,-38.574,-19.531,-23.926,0.000
1680448956.692,-9.766,-35.156,-35.156,-8.789,0.000
1680448956.696,0.000,-28.809,-32.227,-5.371,0.000
1680448956.700,-12.207,-29.297,-28.320,7.812,0.000
1680448956.704,-8.301,-29.297,-29.785,18.555,0.000
1680448956.708,2.441,-33.203,-30.762,-19.043,0.000
1680448956.712,-20.020,-37.109,-34.180,-30.762,0.000
1680448956.716,-45.410,-30.762,-30.273,-28.320,0.000
1680448956.720,-24.902,-26.367,-19.043,-25.879,0.000
1680448956.724,-5.859,-32.227,-24.902,-29.297,0.000
1680448956.728,-41.992,-36.621,-36.621,-41.992,0.000
1680448956.732,-29.785,-39.062,-19.531,-32.227,0.000
1680448956.735,13.672,-34.180,-21.973,-26.367,0.000
1680448956.739,-17.578,-27.344,-33.691,-28.809,0.000
1680448956.743,-41.016,-29.297,-30.762,-35.645,0.000
1680448956.747,-25.391,-38.086,-37.598,-41.504,0.000
1680448956.751,-14.648,-36.133,-41.504,-38.086,0.000
1680448956.755,-13.184,-26.367,-36.621,-21.973,0.000
1680448956.759,-26.855,-32.715,-34.180,-30.762,0.000
1680448956.763,-39.062,-38.086,-37.598,-34.668,0.000
1680448956.767,-12.207,-33.203,-37.109,-20.020,0.000
1680448956.771,6.348,-33.203,-41.992,-21.484,0.000
1680448956.775,-35.645,-34.668,-22.949,-48.340,0.000
1680448956.778,-41.504,-33.203,0.000,-21.484,0.000
1680448956.782,-29.785,-29.297,-20.020,-10.742,0.000
1680448956.786,-37.109,-29.297,-36.621,-42.480,0.000
1680448956.790,-44.922,-34.180,-37.109,-38.086,0.000
1680448956.794,-32.227,-30.273,-32.715,-26.855,0.000
1680448956.798,-16.602,-28.320,-33.691,-25.391,0.000
1680448956.802,-27.344,-32.715,-35.156,-29.297,0.000
1680448956.806,-29.297,-35.156,-35.156,-34.180,0.000
1680448956.810,-36.133,-36.133,-36.621,-51.270,0.000
1680448956.814,-55.176,-29.785,-36.133,-36.133,0.000
1680448956.817,-47.852,-20.020,-34.668,-16.113,0.000
1680448956.821,-25.391,-26.367,-15.137,-29.297,0.000
1680448956.825,-35.645,-28.809,-17.090,-30.762,0.000
1680448956.829,-39.062,-24.902,-38.086,-37.109,0.000
1680448956.833,-32.227,-30.273,-32.227,-52.734,0.000
1680448956.837,-41.016,-31.738,-27.344,-41.992,0.000
1680448956.841,-46.875,-29.785,-27.344,-29.785,0.000
1680448956.845,-35.156,-33.203,-23.926,-32.715,0.000
1680448956.849,-4.883,-33.691,-26.855,-26.367,0.000
1680448956.853,-14.160,-32.715,-34.180,-32.715,0.000
1680448956.857,-11.230,-32.715,-31.250,-42.480,0.000
1680448956.860,-4.883,-26.855,-30.273,-23.438,0.000
1680448956.864,-44.922,-32.227,-18.555,-47.363,0.000
1680448956.868,-43.457,-37.598,-8.301,-59.082,0.000
1680448956.872,-39.062,-31.250,-27.832,-30.762,0.000
1680448956.876,-29.785,-32.227,-34.180,-28.320,0.000
1680448956.880,-56.152,-35.645,-31.250,-39.062,0.000
1680448956.884,-59.570,-32.227,-29.785,-44.434,0.000
1680448956.888,-30.273,-33.691,-34.180,-59.570,0.000
1680448956.892,-29.297,-39.551,-39.062,-63.477,0.000
1680448956.896,-19.043,-35.156,-35.156,-41.504,0.000
1680448956.900,-12.207,-29.297,-30.762,-27.344,0.000
1680448956.903,-46.875,-33.203,-30.273,-37.598,0.000
1680448956.907,-45.898,-33.691,-40.039,-35.156,0.000
1680448956.911,-27.344,-41.016,-29.297,-33.691,0.000
1680448956.915,-34.668,-46.387,-25.879,-40.039,0.000
1680448956.919,-38.574,-37.109,-35.645,-32.227,0.000
1680448956.923,-60.059,-34.668,-27.832,-23.438,0.000
1680448956.927,-53.711,-30.273,-30.273,-36.621,0.000
1680448956.931,-42.969,-26.367,-38.086,-59.082,0.000
1680448956.935,-32.715,-29.785,-37.109,-39.551,0.000
1680448956.939,-9.277,-33.691,-29.297,-22.949,0.000
1680448956.942,-11.230,-28.809,-26.367,-29.297,0.000
1680448956.946,-14.160,-18.066,-24.414,-31.738,0.000
1680448956.950,12.695,-19.043,-27.832,-35.156,0.000
1680448956.954,-20.508,-17.090,-21.973,-45.898,0.000
1680448956.958,-76.660,-20.508,-13.184,-30.273,0.000
1680448956.962,-66.895,-26.855,-30.273,-25.391,0.000
1680448956.966,-47.852,-21.973,-37.598,-45.410,0.000
1680448956.970,-51.270,-27.344,-37.598,-51.758,0.000
1680448956.974,-34.180,-33.691,-39.062,-44.922,0.000
1680448956.978,1.465,-23.926,-34.668,-19.531,0.000
1680448956.982,27.344,-18.555,-36.133,-10.742,0.000
1680448956.985,3.906,-21.484,-43.945,-20.020,0.000
1680448956.989,-51.758,-31.250,-44.922,-20.996,0.000
1680448956.993,-31.250,-41.992,-38.086,-49.316,0.000
1680448956.997,1.465,-38.086,-31.738,-61.035,0.000
1680448957.001,-37.109,-31.738,-25.391,-27.344,0.000
1680448957.005,-62.500,-36.133,-26.367,-27.832,0.000
1680448957.009,-18.066,-42.480,-28.809,-28.809,0.000
1680448957.013,-39.062,-41.992,-28.320,-20.996,0.000
1680448957.017,-57.617,-42.969,-15.137,-35.156,0.000
1680448957.021,-20.508,-41.016,-10.742,-39.062,0.000
1680448957.025,-14.160,-39.062,-21.973,-17.090,0.000
1680448957.028,-24.414,-40.527,-26.367,-16.113,0.000
1680448957.032,-36.621,-41.992,-25.879,-28.320,0.000
1680448957.036,-20.508,-41.504,-23.438,-32.227,0.000
1680448957.040,13.184,-34.668,-21.484,-34.180,0.000
1680448957.044,0.977,-29.297,-16.602,-19.531,0.000
1680448957.048,-38.574,-33.691,-19.043,-21.484,0.000
1680448957.052,-26.855,-39.062,-26.855,-42.969,0.000
1680448957.056,-5.371,-37.109,-29.297,-35.156,0.000
1680448957.060,-8.301,-33.203,-13.672,-21.973,0.000
1680448957.064,-16.602,-33.203,-4.395,-23.926,0.000
1680448957.067,-28.809,-31.738,-22.461,-34.180,0.000
1680448957.071,-33.203,-29.297,-26.367,-39.062,0.000
1680448957.075,-12.695,-27.832,-25.879,-24.414,0.000
1680448957.079,8.301,-23.926,-24.414,-21.973,0.000
1680448957.083,15.625,-20.508,-25.879,-27.344,0.000
1680448957.087,-5.371,-29.297,-32.715,-23.926,0.000
1680448957.091,-25.879,-32.715,-34.180,-31.250,0.000
1680448957.095,-30.762,-26.367,-33.203,-28.809,0.000
1680448957.099,-39.062,-31.738,-30.273,-10.254,0.000
1680448957.103,-40.039,-35.645,-31.250,0.977,0.000
1680448957.107,-6.836,-41.016,-24.414,-10.742,0.000
1680448957.110,0.977,-46.387,-28.809,-26.367,0.000
1680448957.114,-26.367,-39.551,-37.598,-31.738,0.000
1680448957.118,-3.906,-33.203,-33.203,-26.855,0.000
1680448957.122,-10.254,-34.180,-34.668,-30.273,0.000
1680448957.126,-26.367,-37.109,-39.062,-39.551,0.000
1680448957.130,-20.020,-37.109,-38.574,-41.504,0.000
1680448957.134,-37.598,-33.691,-32.715,-36.133,0.000
1680448957.138,-29.297,-33.691,-24.414,-24.414,0.000
1680448957.142,0.000,-29.785,-19.531,-16.113,0.000
1680448957.146,-27.832,-36.133,-32.227,-26.855,0.000
1680448957.150,-65.430,-40.039,-28.320,-42.480,0.000
1680448957.153,-21.973,-34.180,-14.648,-46.387,0.000
1680448957.157,6.836,-29.297,-29.785,-32.715,0.000
1680448957.161,-20.508,-23.438,-36.621,-11.719,0.000
1680448957.165,-21.973,-23.926,-36.621,-14.160,0.000
1680448957.169,-8.789,-25.391,-35.645,-27.344,0.000
1680448957.173,-6.836,-24.414,-35.645,-15.137,0.000
1680448957.177,10.742,-20.996,-38.086,-5.859,0.000
1680448957.181,12.695,-19.043,-35.156,-3.906,0.000
1680448957.185,-28.809,-22.461,-34.180,-11.230,0.000
1680448957.189,-41.504,-22.461,-39.062,-5.859,0.000
1680448957.192,-12.207,-21.484,-38.086,-2.441,0.000
1680448957.196,10.742,-21.973,-19.531,-21.973,0.000
1680448957.200,4.395,-23.926,-20.508,-11.719,0.000
1680448957.204,-8.301,-23.926,-36.621,-26.367,0.000
1680448957.208,-31.738,-20.020,-41.504,-44.922,0.000
1680448957.212,-57.129,-19.531,-41.992,-44.922,0.000
1680448957.216,-27.832,-24.414,-35.156,-41.504,0.000
1680448957.220,-26.855,-29.297,-30.762,-19.043,0.000
1680448957.224,-34.180,-33.203,-33.203,-17.090,0.000
1680448957.228,-13.184,-27.832,-37.598,-46.875,0.000
1680448957.232,-35.645,-32.715,-39.062,-61.523,0.000
1680448957.235,-27.344,-35.645,-40.039,-38.086,0.000
1680448957.239,-9.766,-36.621,-22.949,-25.879,0.000
1680448957.243,-55.664,-41.016,-13.184,-37.598,0.000
1680448957.247,-66.406,-34.180,-28.809,-28.320,0.000
1680448957.251,-33.203,-37.109,-36.621,-18.555,0.000
1680448957.255,-26.367,-38.086,-36.133,-23.438,0.000
1680448957.259,-31.250,-32.227,-30.273,-16.602,0.000
1680448957.263,-21.484,-29.785,-31.250,-6.836,0.000
1680448957.267,-8.789,-25.879,-33.691,-6.836,0.000
1680448957.271,0.488,-23.926,-31.738,-27.344,0.000
1680448957.274,10.742,-25.391,-32.715,-28.809,0.000
1680448957.278,41.992,-26.855,-32.715,-13.184,0.000
1680448957.282,-2.441,-26.855,-32.715,-13.672,0.000
1680448957.286,-71.289,-31.250,-15.137,-33.691,0.000
1680448957.290,-38.574,-31.250,-18.555,-51.758,0.000
1680448957.294,-41.504,-35.156,-41.016,-43.457,0.000
1680448957.298,-50.293,-37.109,-33.691,-26.855,0.000
1680448957.302,-36.621,-30.762,-31.250,-23.926,0.000
1680448957.306,-36.621,-31.738,-37.598,-31.250,0.000
1680448957.310,-10.254,-34.180,-44.434,-55.664,0.000
1680448957.314,-10.254,-27.832,-43.457,-58.105,0.000
1680448957.317,-50.293,-23.438,-33.691,-37.598,0.000
1680448957.321,-43.457,-19.531,-27.832,-19.531,0.000
1680448957.325,-25.391,-20.996,-29.785,-17.090,0.000
1680448957.329,-11.719,-22.461,-20.020,-17.090,0.000
1680448957.333,-22.949,-19.043,-8.301,-0.488,0.000
1680448957.337,-21.973,-12.207,-23.438,-14.160,0.000
1680448957.341,-41.992,-9.277,-27.832,-28.809,0.000
1680448957.345,-58.105,-16.602,-29.785,-25.879,0.000
1680448957.349,-17.090,-16.602,-36.133,-32.715,0.000
1680448957.353,-32.715,-9.766,-35.156,-41.016,0.000
1680448957.357,-41.992,-10.254,-40.039,-38.086,0.000
1680448957.360,-22.461,-12.207,-40.039,-26.855,0.000
1680448957.364,-37.598,-16.602,-35.645,-30.762,0.000
1680448957.368,-54.199,-20.996,-43.457,-51.270,0.000
1680448957.372,-26.855,-20.020,-47.852,-55.176,0.000
1680448957.376,-28.320,-16.113,-39.062,-45.410,0.000
1680448957.380,-35.156,-18.066,-35.156,-29.297,0.000
1680448957.384,-20.996,-19.531,-37.598,-14.160,0.000
1680448957.388,-35.645,-20.508,-38.574,-40.039,0.000
1680448957.392,-36.621,-31.250,-37.598,-48.340,0.000
1680448957.396,-36.621,-31.250,-41.992,-33.203,0.000
1680448957.399,-40.039,-24.902,-40.039,-42.480,0.000
1680448957.403,-37.598,-22.461,-36.621,-57.617,0.000
1680448957.407,-26.855,-23.926,-42.480,-51.270,0.000
1680448957.411,-24.414,-27.832,-44.434,-46.387,0.000
1680448957.415,-18.066,-25.879,-39.062,-39.551,0.000
1680448957.419,14.648,-27.832,-38.086,-21.484,0.000
1680448957.423,-25.879,-29.297,-38.086,-15.137,0.000
1680448957.427,-62.988,-36.621,-36.621,-42.969,0.000
1680448957.431,-47.852,-37.109,-43.945,-51.270,0.000
1680448957.435,-43.457,-32.715,-33.203,-41.992,0.000
1680448957.439,-41.504,-33.203,-20.020,-33.203,0.000
1680448957.442,-36.133,-33.691,-34.180,-30.762,0.000
1680448957.446,-2.441,-34.180,-40.039,-28.320,0.000
1680448957.450,-5.371,-33.691,-43.457,-35.645,0.000
1680448957.454,-17.090,-36.133,-40.039,-23.438,0.000
1680448957.458,-3.906,-34.180,-38.574,-10.742,0.000
1680448957.462,-21.484,-30.273,-35.645,-16.113,0.000
1680448957.466,-28.809,-29.297,-37.598,-15.625,0.000
1680448957.470,-10.254,-25.391,-41.992,-21.973,0.000
1680448957.474,2.441,-28.320,-37.109,-31.250,0.000
1680448957.478,-9.277,-31.250,-31.738,-21.484,0.000
1680448957.482,-12.695,-32.227,-15.625,-1.953,0.000
1680448957.485,-22.461,-37.109,-17.090,-23.926,0.000
1680448957.489,-42.480,-36.133,-36.621,-43.457,0.000
1680448957.493,-36.133,-35.645,-35.156,-33.203,0.000
1680448957.497,-17.090,-43.457,-31.738,-30.762,0.000
1680448957.501,-18.555,-47.363,-34.668,-39.551,0.000
1680448957.505,-11.230,-41.016,-39.062,-38.086,0.000
1680448957.509,-29.785,-35.156,-39.551,-41.016,0.000
1680448957.513,-59.082,-31.738,-38.574,-45.410,0.000
1680448957.517,-50.293,-26.855,-36.621,-47.852,0.000
1680448957.521,-42.969,-32.715,-41.504,-57.617,0.000
1680448957.524,-27.344,-41.992,-34.668,-58.594,0.000
1680448957.528,-20.996,-39.551,-25.391,-53.711,0.000
1680448957.532,-12.695,-41.016,-42.969,-34.180,0.000
1680448957.536,-21.484,-37.598,-41.504,-41.504,0.000
1680448957.540,-17.090,-31.250,-33.203,-43.457,0.000
1680448957.544,-14.160,-31.738,-33.203,-29.297,0.000
1680448957.548,-40.527,-30.273,-36.133,-35.645,0.000
1680448957.552,-22.461,-35.156,-41.016,-53.711,0.000
1680448957.556,0.977,-37.598,-38.086,-47.852,0.000
1680448957.560,-5.371,-34.180,-36.621,-35.156,0.000
1680448957.564,-47.852,-29.297,-38.574,-29.785,0.000
1680448957.567,-55.176,-29.297,-44.434,-37.598,0.000
1680448957.571,-32.227,-36.133,-34.668,-55.664,0.000
1680448957.575,-18.066,-33.691,-29.297,-36.133,0.000
1680448957.579,-11.719,-32.715,-36.621,-14.160,0.000
1680448957.583,-8.301,-33.203,-33.691,-26.367,0.000
1680448957.587,-12.695,-31.250,-34.668,-26.855,0.000
1680448957.591,-9.277,-32.715,-36.133,-19.531,0.000
1680448957.595,-11.230,-32.715,-36.621,-42.969,0.000
1680448957.599,-34.180,-32.715,-31.738,-43.945,0.000
1680448957.603,-41.992,-32.227,-27.832,-21.484,0.000
1680448957.606,-11.719,-33.203,-33.691,-42.969,0.000
1680448957.610,-15.137,-28.320,-38.574,-47.852,0.000
1680448957.614,-52.734,-28.809,-30.273,-31.738,0.000
1680448957.618,-41.504,-33.203,-20.508,-27.344,0.000
1680448957.622,-7.812,-30.273,-33.203,-34.668,0.000
1680448957.626,12.207,-29.785,-44.434,-47.363,0.000
1680448957.630,-9.277,-25.879,-40.527,-28.320,0.000
1680448957.634,-39.062,-24.414,-40.039,-41.504,0.000
1680448957.638,-16.602,-27.344,-38.086,-55.664,0.000
1680448957.642,-13.184,-22.461,-31.738,-36.621,0.000
1680448957.646,-15.625,-20.508,-31.738,-35.645,0.000
1680448957.649,-27.832,-23.438,-33.203,-25.879,0.000
1680448957.653,-24.902,-21.973,-32.715,-15.625,0.000
1680448957.657,7.812,-17.090,-30.273,-26.367,0.000
1680448957.661,2.441,-23.438,-17.578,-35.645,0.000
1680448957.665,-28.809,-33.203,-21.973,-43.945,0.000
1680448957.669,-49.805,-34.180,-42.969,-40.527,0.000
1680448957.673,-59.570,-32.715,-42.480,-44.922,0.000
1680448957.677,-68.848,-29.785,-35.156,-46.875,0.000
1680448957.681,-37.598,-23.926,-29.785,-24.414,0.000
1680448957.685,-10.742,-22.461,-30.273,-5.859,0.000
1680448957.689,-21.484,-26.855,-33.691,-38.086,0.000
1680448957.692,-38.574,-32.715,-35.156,-62.500,0.000
1680448957.696,-6.348,-25.391,-30.273,-37.598,0.000
1680448957.700,14.160,-13.672,-30.762,-18.555,0.000
1680448957.704,-33.691,-21.484,-20.508,-23.926,0.000
1680448957.708,-41.016,-33.203,-14.648,-36.621,0.000
1680448957.712,-33.691,-31.250,-35.156,-42.969,0.000
1680448957.716,-41.504,-24.414,-34.668,-37.598,0.000
1680448957.720,-44.434,-24.414,-28.809,-26.367,0.000
1680448957.724,-40.527,-31.738,-32.227,-36.621,0.000
1680448957.728,-31.738,-33.203,-34.180,-48.828,0.000
1680448957.731,-29.297,-33.203,-36.621,-36.133,0.000
1680448957.735,-26.367,-32.715,-32.715,-14.160,0.000
1680448957.739,-7.812,-27.832,-30.273,-3.906,0.000
1680448957.743,-20.508,-24.902,-32.227,-12.207,0.000
1680448957.747,-36.133,-26.855,-30.762,-44.434,0.000
1680448957.751,-29.297,-27.832,-29.785,-57.617,0.000
1680448957.755,-25.391,-30.273,-29.297,-24.414,0.000
1680448957.759,-10.742,-31.738,-31.250,-8.301,0.000
1680448957.763,-9.277,-29.785,-28.809,-28.809,0.000
1680448957.767,-33.203,-30.762,-24.902,-44.922,0.000
1680448957.771,-58.105,-33.691,-34.180,-41.504,0.000
1680448957.774,-42.969,-28.320,-41.016,-31.250,0.000
1680448957.778,-31.250,-32.715,-41.016,-20.996,0.000
1680448957.782,15.625,-35.645,-41.992,-15.137,0.000
1680448957.786,14.648,-30.273,-44.434,-28.809,0.000
1680448957.790,-34.668,-37.598,-40.039,-42.480,0.000
1680448957.794,-36.621,-39.551,-35.156,-36.133,0.000
1680448957.798,-35.645,-30.762,-34.668,-24.414,0.000
1680448957.802,-24.414,-30.762,-33.691,-12.695,0.000
1680448957.806,-24.902,-37.109,-34.180,-6.348,0.000
1680448957.810,-24.902,-35.645,-34.180,-17.578,0.000
1680448957.814,-18.066,-39.062,-33.203,-23.926,0.000
1680448957.817,-16.113,-38.574,-30.762,-18.066,0.000
1680448957.821,-4.883,-33.203,-32.715,-16.113,0.000
1680448957.825,-17.578,-39.062,-22.949,-27.344,0.000
1680448957.829,-23.926,-36.621,-18.066,-34.668,0.000
1680448957.833,-14.648,-34.668,-33.203,-30.273,0.000
1680448957.837,-16.113,-31.738,-33.203,-22.949,0.000
1680448957.841,-27.344,-27.344,-27.832,-13.672,0.000
1680448957.845,-36.621,-28.809,-31.738,-18.555,0.000
1680448957.849,-19.043,-27.832,-35.156,-36.621,0.000
1680448957.853,-5.371,-32.715,-36.133,-41.992,0.000
1680448957.856,-5.371,-34.180,-20.020,-22.461,0.000
1680448957.860,-20.996,-33.203,-18.066,-17.090,0.000
1680448957.864,-18.555,-27.344,-30.273,-35.645,0.000
1680448957.868,-15.137,-30.762,-35.156,-30.273,0.000
1680448957.872,-33.203,-39.551,-40.039,-45.410,0.000
1680448957.876,-45.898,-37.109,-34.668,-68.848,0.000
1680448957.880,-51.270,-35.645,-29.785,-38.086,0.000
1680448957.884,-51.758,-32.227,-29.297,-17.578,0.000
1680448957.888,-26.855,-28.320,-36.621,-48.340,0.000
1680448957.892,-3.418,-26.855,-41.016,-43.457,0.000
1680448957.896,-27.344,-28.320,-41.504,-24.414,0.000
1680448957.899,-45.898,-31.738,-26.855,-31.250,0.000
1680448957.903,-31.250,-33.203,-19.531,-42.969,0.000
1680448957.907,-16.113,-39.551,-42.480,-55.664,0.000
1680448957.911,-35.156,-42.969,-53.223,-53.223,0.000
1680448957.915,-31.738,-35.156,-48.340,-39.551,0.000
1680448957.919,-26.367,-30.273,-42.969,-22.461,0.000
1680448957.923,-37.598,-38.086,-47.363,-26.367,0.000
1680448957.927,-20.996,-39.551,-49.805,-48.828,0.000
1680448957.931,-23.926,-40.527,-51.758,-56.152,0.000
1680448957.935,-49.805,-42.969,-50.781,-37.109,0.000
1680448957.939,-50.781,-37.109,-44.434,-31.738,0.000
1680448957.942,-24.414,-34.180,-46.387,-37.109,0.000
1680448957.946,-13.672,-38.574,-30.273,-32.715,0.000
1680448957.950,-19.043,-39.062,-31.250,-48.828,0.000
1680448957.954,-20.996,-35.156,-48.340,-59.570,0.000
1680448957.958,-17.578,-33.203,-37.109,-52.246,0.000
1680448957.962,-30.762,-29.297,-31.738,-43.945,0.000
1680448957.966,-41.504,-30.273,-37.598,-46.387,0.000
1680448957.970,-15.625,-30.273,-42.480,-41.992,0.000
1680448957.974,-17.578,-27.832,-37.598,-20.508,0.000
1680448957.978,-41.504,-26.367,-27.832,-6.836,0.000
1680448957.981,-13.184,-24.902,-30.273,-25.879,0.000
1680448957.985,-14.160,-22.949,-33.203,-39.062,0.000
1680448957.989,-53.223,-29.297,-30.273,-43.945,0.000
1680448957.993,-40.527,-35.156,-34.180,-44.434,0.000
1680448957.997,-30.762,-27.832,-35.156,-45.410,0.000
1680448958.001,-28.809,-27.832,-36.133,-35.645,0.000
1680448958.005,-8.301,-34.180,-30.273,-11.230,0.000
1680448958.009,-13.184,-30.273,-26.367,-41.016,0.000
1680448958.013,-29.785,-30.273,-40.039,-63.477,0.000
1680448958.017,-33.691,-34.180,-40.039,-35.645,0.000
1680448958.021,-28.320,-27.344,-32.227,-7.324,0.000
1680448958.024,0.488,-21.484,-32.715,-12.695,0.000
1680448958.028,14.648,-30.273,-42.480,-45.898,0.000
1680448958.032,-17.090,-36.133,-43.945,-33.691,0.000
1680448958.036,-16.113,-31.738,-21.973,-7.812,0.000
1680448958.040,-8.301,-25.391,-16.602,-13.184,0.000
1680448958.044,-28.809,-32.227,-36.621,-29.297,0.000
1680448958.048,-26.367,-33.691,-46.875,-31.738,0.000
1680448958.052,-6.348,-25.391,-45.898,-9.277,0.000
1680448958.056,-25.879,-30.762,-28.320,-20.020,0.000
1680448958.060,-62.988,-42.480,-23.926,-36.133,0.000
1680448958.064,-51.758,-43.457,-28.320,-20.508,0.000
1680448958.067,-31.738,-41.504,-27.344,-23.926,0.000
1680448958.071,-26.367,-39.551,-25.879,-50.293,0.000
1680448958.075,-25.879,-36.621,-26.855,-53.711,0.000
1680448958.079,-45.898,-33.691,-16.602,-34.668,0.000
1680448958.083,-61.035,-35.645,-4.883,-24.902,0.000
1680448958.087,-30.762,-33.203,-20.996,-20.996,0.000
1680448958.091,-14.648,-29.785,-29.785,-39.551,0.000
1680448958.095,-32.715,-33.203,-25.879,-41.504,0.000
1680448958.099,-31.738,-29.785,-22.949,-16.602,0.000
1680448958.103,-13.184,-21.973,-24.414,-10.254,0.000
1680448958.106,-27.344,-27.344,-28.320,-21.484,0.000
1680448958.110,-34.668,-31.250,-26.367,-19.043,0.000
1680448958.114,-20.020,-29.785,-21.973,-8.301,0.000
1680448958.118,11.230,-31.250,-21.484,-8.301,0.000
1680448958.122,5.371,-31.250,-19.043,-4.395,0.000
1680448958.126,-53.223,-29.297,-20.508,-18.066,0.000
1680448958.130,-51.758,-34.180,-27.832,-42.969,0.000
1680448958.134,-15.625,-37.109,-28.809,-32.715,0.000
1680448958.138,-24.902,-36.133,-28.320,-8.789,0.000
1680448958.142,-36.133,-41.504,-23.438,-26.855,0.000
1680448958.146,-24.902,-34.180,-26.367,-32.715,0.000
1680448958.149,-25.391,-27.832,-38.086,-29.297,0.000
1680448958.153,-15.625,-31.250,-37.598,-26.855,0.000
1680448958.157,5.859,-30.273,-33.691,-7.324,0.000
1680448958.161,10.742,-30.273,-32.227,-8.789,0.000
1680448958.165,-10.742,-27.344,-27.832,-17.090,0.000
1680448958.169,-43.945,-24.414,-27.832,-25.879,0.000
1680448958.173,-49.316,-29.785,-32.227,-33.691,0.000
1680448958.177,-22.461,-38.574,-34.180,-20.996,0.000
1680448958.181,-29.785,-35.156,-34.180,-0.977,0.000
1680448958.185,-29.785,-30.273,-18.066,-9.766,0.000
1680448958.188,-11.230,-41.016,-11.719,-32.227,0.000
1680448958.192,-19.043,-39.551,-32.715,-20.996,0.000
1680448958.196,-17.090,-32.715,-29.297,-14.648,0.000
1680448958.200,-17.578,-31.250,-23.438,-18.555,0.000
1680448958.204,-34.668,-35.156,-32.715,-36.621,0.000
1680448958.208,-38.086,-37.109,-40.039,-49.805,0.000
1680448958.212,-41.992,-30.273,-39.062,-34.668,0.000
1680448958.216,-12.695,-26.367,-36.621,-13.184,0.000
1680448958.220,9.277,-26.855,-32.715,-11.719,0.000
1680448958.224,-46.875,-27.344,-27.832,-1.465,0.000
1680448958.228,-55.664,-32.227,-35.156,-16.113,0.000
1680448958.231,-22.949,-40.039,-29.785,-42.480,0.000
1680448958.235,-26.855,-35.645,-25.391,-27.832,0.000
1680448958.239,-14.160,-25.879,-26.855,-8.301,0.000
1680448958.243,10.742,-18.555,-18.555,0.977,0.000
1680448958.247,12.695,-19.043,-23.438,-10.742,0.000
1680448958.251,-20.508,-23.926,-22.461,-2.930,0.000
1680448958.255,-32.715,-30.273,-19.043,-11.230,0.000
1680448958.259,-1.465,-23.926,-10.742,-7.812,0.000
1680448958.263,2.441,-14.160,-11.230,6.348,0.000
1680448958.267,8.789,-19.043,-20.508,-20.508,0.000
1680448958.271,18.555,-28.809,-32.715,-25.879,0.000
1680448958.274,2.930,-29.297,-22.949,-17.578,0.000
1680448958.278,-7.812,-27.832,-3.906,-12.695,0.000
1680448958.282,-36.621,-32.227,-21.973,-16.113,0.000
1680448958.286,-36.621,-39.551,-34.668,-23.926,0.000
1680448958.290,-4.883,-45.898,-32.227,-9.277,0.000
1680448958.294,4.883,-35.645,-33.203,-18.066,0.000
1680448958.298,-18.066,-23.438,-37.598,-41.992,0.000
1680448958.302,-9.766,-27.344,-35.645,-30.762,0.000
1680448958.306,-30.273,-28.320,-34.668,-46.875,0.000
1680448958.310,-78.125,-24.414,-35.645,-82.031,0.000
1680448958.313,-62.012,-20.996,-30.273,-87.402,0.000
1680448958.317,-37.109,-23.438,-30.762,-62.012,0.000
1680448958.321,-27.832,-23.926,-14.160,-58.594,0.000
1680448958.325,-37.109,-20.020,-16.113,-75.195,0.000
1680448958.329,-61.035,-25.879,-38.574,-71.777,0.000
1680448958.333,-55.664,-26.855,-33.203,-58.105,0.000
1680448958.337,-40.039,-17.090,-30.762,-44.434,0.000
1680448958.341,-46.387,-24.902,-36.621,-46.387,0.000
1680448958.345,-36.133,-33.203,-38.574,-52.734,0.000
1680448958.349,-31.250,-29.297,-40.527,-59.082,0.000
1680448958.353,-25.879,-27.344,-41.504,-41.992,0.000
1680448958.356,-23.438,-23.926,-33.203,-18.555,0.000
1680448958.360,-19.043,-16.113,-26.855,-11.230,0.000
1680448958.364,-2.930,-18.066,-15.625,-6.836,0.000
1680448958.368,-16.113,-28.320,-10.742,-45.410,0.000
1680448958.372,-27.344,-30.762,-31.738,-57.617,0.000
1680448958.376,-38.086,-29.785,-39.551,-26.855,0.000
1680448958.380,-8.301,-28.809,-33.203,-20.996,0.000
1680448958.384,-1.465,-28.320,-34.668,-26.855,0.000
1680448958.388,-41.992,-31.250,-38.574,-36.133,0.000
1680448958.392,-50.293,-34.180,-38.574,-41.504,0.000
1680448958.396,-59.082,-32.227,-37.598,-39.062,0.000
1680448958.399,-42.480,-33.203,-32.715,-34.668,0.000
1680448958.403,-22.949,-33.203,-31.738,-23.926,0.000
1680448958.407,-21.973,-31.250,-36.621,-27.832,0.000
1680448958.411,-30.762,-38.086,-26.367,-36.133,0.000
1680448958.415,-30.762,-40.039,-16.602,-21.484,0.000
1680448958.419,-11.719,-34.180,-24.902,4.395,0.000
1680448958.423,-9.766,-32.715,-28.320,0.488,0.000
1680448958.427,-17.578,-24.414,-22.949,-48.828,0.000
1680448958.431,-8.789,-24.902,-25.391,-72.754,0.000
1680448958.435,-17.090,-29.297,-28.320,-32.715,0.000
1680448958.438,-22.949,-26.367,-18.555,-11.719,0.000
1680448958.442,-8.789,-24.414,-20.996,-23.438,0.000
1680448958.446,-11.719,-23.926,-34.180,-35.156,0.000
1680448958.450,-21.973,-23.926,-37.598,-45.410,0.000
1680448958.454,-40.527,-25.879,-24.414,-22.461,0.000
1680448958.458,-20.996,-31.738,-10.742,5.371,0.000
1680448958.462,1.953,-34.180,-18.555,-2.441,0.000
1680448958.466,-19.043,-29.297,-23.926,-21.484,0.000
1680448958.470,-29.297,-29.297,-24.902,-40.039,0.000
1680448958.474,-22.461,-30.762,-26.367,-37.109,0.000
1680448958.478,-13.672,-24.902,-23.926,-27.832,0.000
1680448958.481,-14.648,-25.391,-25.879,-6.836,0.000
1680448958.485,16.602,-30.273,-27.832,3.418,0.000
1680448958.489,12.695,-35.156,-32.715,-34.668,0.000
1680448958.493,-47.363,-30.273,-39.551,-45.898,0.000
1680448958.497,-47.852,-22.461,-34.180,-31.738,0.000
1680448958.501,-30.273,-18.066,-20.996,-15.137,0.000
1680448958.505,-38.574,-23.438,-25.391,-6.348,0.000
1680448958.509,-26.367,-33.691,-36.621,-8.789,0.000
1680448958.513,12.695,-37.598,-35.156,-25.879,0.000
1680448958.517,-15.625,-39.551,-22.461,-32.227,0.000
1680448958.521,-65.430,-29.297,-17.578,-19.531,0.000
1680448958.524,-43.945,-28.320,-24.414,-28.809,0.000
1680448958.528,-35.156,-32.715,-33.203,-53.223,0.000
1680448958.532,-7.812,-31.738,-38.086,-49.805,0.000
1680448958.536,20.996,-34.668,-37.109,-35.156,0.000
1680448958.540,-7.324,-36.133,-38.574,-34.668,0.000
1680448958.544,-31.250,-27.832,-32.227,-20.996,0.000
1680448958.548,-42.969,-20.996,-31.738,4.883,0.000
1680448958.552,-33.691,-29.297,-41.016,-17.090,0.000
1680448958.556,-4.395,-29.297,-41.992,-21.973,0.000
1680448958.560,-10.742,-20.996,-26.367,-11.719,0.000
1680448958.563,-43.945,-29.297,-17.578,-44.922,0.000
1680448958.567,-35.156,-32.715,-36.621,-49.316,0.000
1680448958.571,-31.250,-28.320,-42.969,-31.250,0.000
1680448958.575,-25.391,-30.273,-39.062,-27.344,0.000
1680448958.579,-27.832,-28.809,-36.621,-27.832,0.000
1680448958.583,-38.086,-26.855,-36.133,-10.254,0.000
1680448958.587,-25.391,-27.344,-34.180,-6.836,0.000
1680448958.591,-26.367,-28.809,-37.598,-32.227,0.000
1680448958.595,-7.324,-29.297,-36.621,-31.250,0.000
1680448958.599,-0.977,-30.273,-35.645,-16.602,0.000
1680448958.603,-47.852,-23.926,-35.645,-34.180,0.000
1680448958.606,-62.500,-25.879,-25.879,-49.316,0.000
1680448958.610,-31.250,-35.645,-34.668,-46.875,0.000
1680448958.614,-14.160,-37.598,-50.293,-40.527,0.000
1680448958.618,-9.277,-30.273,-43.945,-25.879,0.000
1680448958.622,-23.926,-29.297,-39.062,-27.832,0.000
1680448958.626,-43.457,-37.109,-43.945,-51.270,0.000
1680448958.630,-28.809,-38.086,-47.363,-55.664,0.000
1680448958.634,-33.203,-34.180,-40.527,-47.363,0.000
1680448958.638,-39.551,-31.738,-35.645,-27.344,0.000
1680448958.642,-29.297,-32.715,-35.156,-23.438,0.000
1680448958.645,-44.434,-35.645,-38.574,-37.598,0.000
1680448958.649,-63.477,-38.086,-29.785,-47.363,0.000
1680448958.653,-58.105,-37.109,-16.602,-52.246,0.000
1680448958.657,-45.898,-30.273,-31.250,-33.691,0.000
1680448958.661,-25.391,-35.156,-37.109,11.230,0.000
1680448958.665,7.324,-33.691,-36.133,1.465,0.000
1680448958.669,5.859,-21.973,-37.109,-33.691,0.000
1680448958.673,-51.270,-23.926,-40.039,-41.016,0.000
1680448958.677,-47.852,-24.902,-40.039,-39.551,0.000
1680448958.681,-14.648,-23.926,-34.180,-2.441,0.000
1680448958.685,-20.508,-19.531,-29.297,-15.137,0.000
1680448958.688,-20.508,-18.066,-35.156,-39.062,0.000
1680448958.692,-34.668,-31.250,-41.016,-37.109,0.000
1680448958.696,-45.410,-36.621,-20.508,-39.551,0.000
1680448958.700,-57.617,-32.227,-20.508,-36.133,0.000
1680448958.704,-54.199,-28.320,-33.691,-27.344,0.000
1680448958.708,-9.766,-26.367,-33.203,-35.156,0.000
1680448958.712,-10.742,-29.297,-37.598,-37.598,0.000
1680448958.716,-31.250,-30.273,-34.668,-10.742,0.000
1680448958.720,-23.926,-29.785,-31.250,-14.160,0.000
1680448958.724,-23.926,-30.762,-30.273,-46.387,0.000
1680448958.728,-24.902,-31.250,-31.250,-50.293,0.000
1680448958.731,-17.090,-33.691,-35.156,-53.711,0.000
1680448958.735,-14.648,-31.738,-39.062,-40.039,0.000
1680448958.739,2.930,-29.297,-26.367,-20.020,0.000
1680448958.743,-3.906,-30.273,-13.184,-34.668,0.000
1680448958.747,-58.105,-32.715,-35.645,-41.016,0.000
1680448958.751,-60.547,-35.645,-41.016,-27.832,0.000
1680448958.755,-27.832,-32.715,-33.691,-25.879,0.000
1680448958.759,-8.301,-23.438,-33.203,-25.391,0.000
1680448958.763,-6.836,-18.555,-27.832,-20.996,0.000
1680448958.767,-20.996,-22.949,-31.250,-25.391,0.000
1680448958.770,0.977,-28.320,-36.621,-27.344,0.000
1680448958.774,1.465,-27.344,-32.227,-21.973,0.000
1680448958.778,-17.578,-24.902,-29.785,-26.367,0.000
1680448958.782,2.441,-18.066,-33.691,-18.066,0.000
1680448958.786,-3.906,-23.438,-23.926,-38.086,0.000
1680448958.790,-36.133,-31.250,-27.832,-44.434,0.000
1680448958.794,-34.668,-30.273,-41.016,-32.227,0.000
1680448958.798,-17.090,-32.715,-37.109,-36.621,0.000
1680448958.802,-9.766,-32.227,-33.691,-29.297,0.000
1680448958.806,-17.578,-32.715,-34.668,-21.973,0.000
1680448958.810,-14.160,-33.203,-36.133,-28.809,0.000
1680448958.813,2.441,-30.273,-32.715,-28.320,0.000
1680448958.817,3.418,-28.809,-28.320,-12.207,0.000
1680448958.821,-3.418,-27.832,-25.879,-3.418,0.000
1680448958.825,-27.344,-31.738,-36.133,-3.418,0.000
1680448958.829,-29.297,-36.133,-37.109,-21.973,0.000
1680448958.833,-0.977,-40.039,-27.832,-40.527,0.000
1680448958.837,3.906,-41.504,-37.598,-27.344,0.000
1680448958.841,-7.812,-37.109,-42.480,-28.320,0.000
1680448958.845,-19.531,-35.645,-41.504,-31.250,0.000
1680448958.849,-45.898,-40.527,-42.969,-38.574,0.000
1680448958.853,-54.688,-40.039,-42.480,-45.410,0.000
1680448958.856,-15.137,-34.668,-41.504,-37.598,0.000
1680448958.860,-0.977,-32.227,-41.992,-15.625,0.000
1680448958.864,-31.738,-31.738,-47.852,-13.672,0.000
1680448958.868,-30.273,-37.109,-48.340,-25.391,0.000
1680448958.872,-27.344,-36.621,-42.969,-25.391,0.000
1680448958.876,-30.762,-29.297,-37.598,-35.156,0.000
1680448958.880,-36.133,-31.738,-35.645,-26.855,0.000
1680448958.884,-47.363,-32.227,-36.621,-25.879,0.000
1680448958.888,-24.414,-31.738,-39.551,-33.691,0.000
1680448958.892,8.789,-34.180,-34.668,-36.133,0.000
1680448958.895,-21.973,-32.715,-32.227,-12.207,0.000
1680448958.899,-30.273,-26.855,-36.133,-6.836,0.000
1680448958.903,-19.043,-31.250,-40.527,-34.668,0.000
1680448958.907,-24.902,-39.062,-46.387,-27.832,0.000
1680448958.911,-10.742,-39.062,-45.410,-20.996,0.000
1680448958.915,-17.090,-38.086,-43.457,-25.879,0.000
1680448958.919,-44.922,-37.109,-40.039,-40.039,0.000
1680448958.923,-45.898,-32.715,-35.156,-42.480,0.000
1680448958.927,1.465,-29.297,-37.598,-27.344,0.000
1680448958.931,3.906,-33.203,-45.898,-21.973,0.000
1680448958.935,-40.039,-37.109,-26.855,-16.113,0.000
1680448958.938,-25.391,-34.180,-13.184,4.883,0.000
1680448958.942,-8.301,-30.762,-27.832,0.977,0.000
1680448958.946,-20.508,-26.855,-27.344,-19.043,0.000
1680448958.950,-28.320,-30.762,-33.203,-29.785,0.000
1680448958.954,-30.762,-31.738,-36.133,-32.227,0.000
1680448958.958,-15.137,-25.391,-28.320,-23.438,0.000
1680448958.962,-6.348,-19.043,-25.879,5.859,0.000
1680448958.966,-26.855,-20.508,-26.367,1.953,0.000
1680448958.970,-20.996,-20.508,-28.809,-35.156,0.000
1680448958.974,3.418,-20.020,-33.203,-34.668,0.000
1680448958.978,-16.602,-19.043,-27.832,-19.043,0.000
1680448958.981,-23.438,-22.461,-9.766,-0.488,0.000
1680448958.985,-11.719,-28.809,-13.672,-6.836,0.000
1680448958.989,-13.672,-29.297,-29.785,-18.555,0.000
1680448958.993,-9.766,-33.691,-30.762,-17.578,0.000
1680448958.997,0.000,-35.156,-31.250,-31.738,0.000
1680448959.001,-13.672,-33.691,-30.762,-26.855,0.000
1680448959.005,-41.992,-35.156,-34.180,-15.625,0.000
1680448959.009,-52.734,-38.086,-35.645,-33.203,0.000
1680448959.013,-53.711,-36.133,-35.645,-32.227,0.000
1680448959.017,-47.363,-30.273,-32.227,-5.371,0.000
1680448959.020,-11.230,-34.180,-28.809,15.137,0.000
1680448959.024,6.836,-38.086,-17.578,14.160,0.000
1680448959.028,-20.020,-38.086,-12.695,-14.648,0.000
1680448959.032,-51.270,-38.086,-33.203,-51.270,0.000
1680448959.036,-40.527,-32.227,-37.598,-46.875,0.000
1680448959.040,-12.695,-27.344,-34.668,-37.109,0.000
1680448959.044,-16.113,-26.367,-31.738,-42.480,0.000
1680448959.048,-7.812,-27.832,-34.668,-39.551,0.000
1680448959.052,-27.344,-26.855,-38.086,-31.250,0.000
1680448959.056,-56.641,-26.367,-33.203,-30.762,0.000
1680448959.060,-33.691,-31.738,-29.785,-30.273,0.000
1680448959.063,-15.137,-24.902,-29.785,-21.973,0.000
1680448959.067,-15.137,-19.043,-33.203,-3.906,0.000
1680448959.071,-13.672,-28.320,-19.531,-20.996,0.000
1680448959.075,-34.668,-30.762,-19.043,-56.641,0.000
1680448959.079,-19.043,-26.367,-35.156,-36.621,0.000
1680448959.083,-6.836,-21.484,-40.527,-27.344,0.000
1680448959.087,-42.480,-18.066,-39.062,-51.758,0.000
1680448959.091,-40.527,-21.484,-36.133,-40.039,0.000
1680448959.095,-24.902,-31.738,-42.480,-18.555,0.000
1680448959.099,-26.367,-35.645,-39.062,-25.879,0.000
1680448959.102,-27.832,-23.926,-34.180,-38.086,0.000
1680448959.106,-10.254,-21.973,-43.457,-47.852,0.000
1680448959.110,1.953,-22.461,-54.688,-42.480,0.000
1680448959.114,-7.812,-24.902,-44.434,-36.133,0.000
1680448959.118,-28.809,-26.367,-23.438,-23.926,0.000
1680448959.122,-25.879,-22.949,-31.250,-19.531,0.000
1680448959.126,-25.879,-29.785,-41.992,-50.781,0.000
1680448959.130,-17.090,-40.039,-47.852,-54.688,0.000
1680448959.134,-20.996,-41.504,-49.805,-36.133,0.000
1680448959.138,-33.203,-36.133,-43.945,-28.320,0.000
1680448959.142,-28.809,-33.691,-35.645,-22.949,0.000
1680448959.145,-31.738,-35.645,-36.621,-31.738,0.000
1680448959.149,-31.738,-36.133,-39.551,-49.316,0.000
1680448959.153,-31.250,-29.785,-34.668,-46.387,0.000
1680448959.157,-17.090,-27.344,-32.227,-28.809,0.000
1680448959.161,1.465,-38.086,-15.137,-29.297,0.000
1680448959.165,16.602,-39.062,-9.766,-35.645,0.000
1680448959.169,-1.465,-29.297,-26.855,-38.086,0.000
1680448959.173,-25.391,-27.832,-25.391,-27.344,0.000
1680448959.177,-36.133,-29.785,-19.531,-25.879,0.000
1680448959.181,-30.273,-24.902,-16.602,-22.461,0.000
1680448959.185,-6.836,-29.785,-21.973,-6.836,0.000
1680448959.188,14.648,-39.551,-31.738,-24.414,0.000
1680448959.192,3.418,-41.504,-32.715,-39.551,0.000
1680448959.196,-28.320,-39.062,-29.785,-36.133,0.000
1680448959.200,-26.855,-31.738,-26.855,-23.926,0.000
1680448959.204,12.207,-23.926,-18.555,-20.996,0.000
1680448959.208,11.230,-27.832,-18.555,-29.297,0.000
1680448959.212,-19.043,-32.227,-36.133,-40.527,0.000
1680448959.216,-29.785,-28.320,-37.598,-29.297,0.000
1680448959.220,-44.922,-26.367,-33.203,-20.996,0.000
1680448959.224,-35.156,-27.832,-35.156,-30.762,0.000
1680448959.227,-24.414,-28.320,-40.527,-28.320,0.000
1680448959.231,-23.438,-30.273,-40.039,-20.020,0.000
1680448959.235,-27.344,-25.879,-35.156,-25.391,0.000
1680448959.239,-11.719,-27.344,-32.227,-32.227,0.000
1680448959.243,-7.324,-34.180,-34.668,-34.180,0.000
1680448959.247,-1.953,-34.668,-39.062,-37.598,0.000
1680448959.251,-14.648,-29.297,-31.738,-37.598,0.000
1680448959.255,-44.922,-27.344,-27.832,-19.043,0.000
1680448959.259,-41.504,-27.832,-32.715,-6.836,0.000
1680448959.263,-20.996,-27.344,-33.691,-20.996,0.000
1680448959.267,-11.230,-30.273,-28.809,-23.926,0.000
1680448959.270,-15.625,-25.391,-30.762,-12.695,0.000
1680448959.274,-20.020,-20.996,-35.156,-29.297,0.000
1680448959.278,-2.441,-24.902,-30.762,-35.645,0.000
1680448959.282,-22.461,-24.414,-29.785,-29.785,0.000
1680448959.286,-60.547,-25.879,-36.621,-31.250,0.000
1680448959.290,-48.340,-32.227,-43.457,-32.715,0.000
1680448959.294,-34.668,-40.527,-42.480,-49.805,0.000
1680448959.298,-20.996,-37.598,-37.109,-45.410,0.000
1680448959.302,-37.598,-37.598,-38.574,-36.621,0.000
1680448959.306,-34.180,-39.551,-43.457,-28.809,0.000
1680448959.310,-19.043,-37.109,-30.273,-31.738,0.000
1680448959.313,-27.344,-44.922,-16.113,-31.250,0.000
1680448959.317,-38.574,-47.363,-31.250,-20.508,0.000
1680448959.321,-55.664,-33.203,-32.227,-12.207,0.000
1680448959.325,-44.434,-26.367,-31.738,-9.277,0.000
1680448959.329,-24.902,-27.832,-37.598,-14.160,0.000
1680448959.333,-39.062,-22.461,-37.109,-21.973,0.000
1680448959.337,-48.828,-22.461,-33.691,-39.062,0.000
1680448959.341,-42.480,-26.367,-29.297,-19.043,0.000
1680448959.345,-29.785,-28.320,-29.785,-12.207,0.000
1680448959.349,-18.555,-28.320,-38.086,-42.480,0.000
1680448959.352,-26.367,-30.762,-43.457,-56.152,0.000
1680448959.356,-25.391,-37.598,-21.973,-46.387,0.000
1680448959.360,-32.227,-35.645,-18.066,-21.973,0.000
1680448959.364,-47.852,-26.367,-35.645,-18.066,0.000
1680448959.368,-49.316,-25.879,-38.574,-50.781,0.000
1680448959.372,-27.344,-34.180,-39.551,-62.012,0.000
1680448959.376,-19.531,-30.762,-40.527,-45.898,0.000
1680448959.380,-31.250,-22.949,-33.691,-36.621,0.000
1680448959.384,-28.320,-20.020,-29.785,-33.691,0.000
1680448959.388,-15.625,-25.879,-32.715,-36.621,0.000
1680448959.392,-21.484,-26.855,-32.715,-30.273,0.000
1680448959.395,-18.066,-25.391,-34.668,-21.973,0.000
1680448959.399,-17.090,-35.645,-25.391,-20.508,0.000
1680448959.403,-40.527,-36.133,-14.160,-25.391,0.000
1680448959.407,-40.527,-33.203,-31.738,-45.410,0.000
1680448959.411,-45.410,-38.086,-37.598,-44.922,0.000
1680448959.415,-55.176,-36.133,-30.762,-38.574,0.000
1680448959.419,-54.688,-39.551,-32.715,-25.391,0.000
1680448959.423,-41.504,-44.434,-36.621,-19.043,0.000
1680448959.427,-48.828,-41.016,-37.598,-53.223,0.000
1680448959.431,-40.039,-38.574,-33.691,-60.547,0.000
1680448959.435,-34.668,-39.551,-33.691,-45.410,0.000
1680448959.438,-68.848,-37.109,-34.668,-48.828,0.000
1680448959.442,-54.199,-34.668,-34.180,-45.898,0.000
1680448959.446,-5.859,-34.668,-21.973,-51.758,0.000
1680448959.450,-14.160,-33.203,-21.484,-53.711,0.000
1680448959.454,-57.617,-36.133,-39.551,-33.691,0.000
1680448959.458,-47.363,-34.180,-31.738,-19.531,0.000
1680448959.462,-24.414,-30.273,-27.344,-21.973,0.000
1680448959.466,-41.504,-36.621,-32.715,-42.480,0.000
1680448959.470,-47.852,-40.039,-37.598,-28.320,0.000
1680448959.474,-47.363,-40.527,-40.527,-15.625,0.000
1680448959.477,-44.434,-36.133,-33.691,-31.250,0.000
1680448959.481,-8.789,-33.691,-28.320,-42.480,0.000
1680448959.485,-6.836,-28.809,-34.180,-41.016,0.000
1680448959.489,-30.273,-31.250,-27.832,-40.527,0.000
1680448959.493,-22.461,-38.574,-17.578,-37.109,0.000
1680448959.497,-22.461,-34.668,-28.320,-26.855,0.000
1680448959.501,-21.973,-30.762,-32.227,-22.461,0.000
1680448959.505,-29.297,-31.738,-31.738,-37.598,0.000
1680448959.509,-53.711,-33.691,-38.574,-37.109,0.000
1680448959.513,-52.246,-33.203,-42.480,-30.273,0.000
1680448959.517,-20.508,-31.738,-32.227,-29.785,0.000
1680448959.520,-1.953,-30.273,-24.414,-17.090,0.000
1680448959.524,-23.926,-27.344,-27.344,-25.879,0.000
1680448959.528,-38.086,-28.809,-32.227,-47.852,0.000
1680448959.532,-21.484,-30.762,-41.016,-41.504,0.000
1680448959.536,-7.324,-36.133,-22.949,-44.922,0.000
1680448959.540,-24.902,-33.203,-15.137,-36.133,0.000
1680448959.544,-46.875,-24.414,-38.086,-22.949,0.000
1680448959.548,-44.434,-31.738,-43.457,-36.133,0.000
1680448959.552,-31.738,-29.785,-38.574,-42.969,0.000
1680448959.556,-30.273,-25.879,-37.598,-38.086,0.000
1680448959.559,-18.555,-28.320,-33.691,-19.043,0.000
1680448959.563,-16.113,-30.762,-34.180,-23.438,0.000
1680448959.567,-41.992,-34.180,-42.480,-42.969,0.000
1680448959.571,-43.945,-33.203,-42.969,-41.016,0.000
1680448959.575,-19.531,-27.832,-38.086,-33.691,0.000
1680448959.579,-7.324,-20.996,-19.043,-24.414,0.000
1680448959.583,-36.133,-27.344,-6.836,-25.391,0.000
1680448959.587,-57.129,-28.809,-25.391,-53.711,0.000
1680448959.591,-47.852,-29.297,-33.691,-74.219,0.000
1680448959.595,-32.715,-31.250,-28.320,-54.199,0.000
1680448959.599,-36.621,-32.715,-28.809,-25.391,0.000
1680448959.602,-34.180,-34.668,-28.809,-22.461,0.000
1680448959.606,-39.551,-32.715,-29.785,-45.410,0.000
1680448959.610,-39.551,-35.645,-33.203,-60.547,0.000
1680448959.614,-21.973,-37.598,-28.320,-48.828,0.000
1680448959.618,-39.062,-32.227,-20.996,-29.297,0.000
1680448959.622,-59.570,-29.785,-20.508,-32.227,0.000
1680448959.626,-42.480,-32.715,-20.996,-42.480,0.000
1680448959.630,-28.320,-26.855,-22.461,-43.457,0.000
1680448959.634,-35.645,-25.879,-23.438,-40.527,0.000
1680448959.638,-30.762,-29.785,-21.484,-27.832,0.000
1680448959.642,-31.738,-26.367,-10.254,-25.879,0.000
1680448959.645,-38.086,-20.508,-12.695,-19.043,0.000
1680448959.649,-21.973,-22.949,-28.320,-24.902,0.000
1680448959.653,-8.789,-31.738,-34.668,-36.621,0.000
1680448959.657,-21.973,-27.832,-28.809,-14.648,0.000
1680448959.661,-48.828,-26.367,-30.273,-19.043,0.000
1680448959.665,-43.945,-28.320,-36.621,-33.203,0.000
1680448959.669,-33.691,-29.785,-34.668,-45.410,0.000
1680448959.673,-30.273,-28.809,-29.785,-42.480,0.000
1680448959.677,-11.719,-27.832,-30.762,-12.695,0.000
1680448959.681,-17.578,-24.414,-32.715,-5.371,0.000
1680448959.684,-18.555,-24.414,-14.160,-38.574,0.000
1680448959.688,5.371,-28.320,-4.883,-41.016,0.000
1680448959.692,-13.672,-29.785,-28.320,-30.273,0.000
1680448959.696,-46.875,-30.762,-33.203,-34.180,0.000
1680448959.700,-42.480,-28.320,-28.809,-25.391,0.000
1680448959.704,-21.973,-33.203,-31.250,-10.254,0.000
1680448959.708,-24.414,-35.645,-35.156,-17.578,0.000
1680448959.712,-33.691,-34.180,-37.109,-37.109,0.000
1680448959.716,-23.926,-38.574,-37.109,-2.441,0.000
1680448959.720,-16.113,-29.785,-30.273,21.973,0.000
1680448959.724,16.113,-28.320,-30.762,-33.691,0.000
1680448959.727,2.441,-35.156,-39.062,-67.871,0.000
1680448959.731,-62.012,-36.621,-26.855,-46.875,0.000
1680448959.735,-60.547,-37.109,-22.949,-27.832,0.000
1680448959.739,-33.203,-30.762,-32.227,-27.832,0.000
1680448959.743,-19.531,-28.809,-30.762,-18.555,0.000
1680448959.747,-22.461,-32.227,-33.691,-25.391,0.000
1680448959.751,-9.766,-33.691,-37.598,-32.715,0.000
1680448959.755,-8.789,-30.273,-32.715,-16.113,0.000
1680448959.759,-16.113,-28.809,-26.367,7.324,0.000
1680448959.763,6.836,-28.320,-24.414,-0.977,0.000
1680448959.767,-27.832,-21.484,-25.879,-32.227,0.000
1680448959.770,-33.203,-23.926,-33.203,-34.668,0.000
1680448959.774,-30.273,-27.344,-24.902,-22.949,0.000
1680448959.778,-44.434,-27.832,-7.812,-19.043,0.000
1680448959.782,-30.273,-25.879,-19.531,-13.672,0.000
1680448959.786,-7.812,-22.949,-31.738,-13.672,0.000
1680448959.790,24.902,-27.344,-34.180,0.000,0.000
1680448959.794,21.973,-27.344,-34.668,6.348,0.000
1680448959.798,-5.859,-24.414,-27.832,-14.648,0.000
1680448959.802,-10.742,-24.414,-25.879,-7.812,0.000
1680448959.806,-13.672,-27.344,-29.785,-12.207,0.000
1680448959.809,-22.461,-33.691,-35.156,-33.691,0.000
1680448959.813,-22.949,-33.203,-34.668,-17.090,0.000
1680448959.817,-2.441,-29.297,-31.738,-2.930,0.000
1680448959.821,-5.371,-27.832,-16.113,-13.184,0.000
1680448959.825,-32.715,-29.297,-17.090,-17.578,0.000
1680448959.829,7.324,-33.203,-37.598,-15.137,0.000
1680448959.833,10.254,-23.926,-38.086,-29.297,0.000
1680448959.837,-51.758,-22.461,-36.133,-41.992,0.000
1680448959.841,-47.363,-34.668,-33.203,-32.715,0.000
1680448959.845,-26.367,-29.297,-33.691,-28.809,0.000
1680448959.849,-42.969,-27.344,-35.156,-35.156,0.000
1680448959.852,-53.223,-34.180,-37.598,-41.016,0.000
1680448959.856,-41.016,-30.273,-32.715,-36.621,0.000
1680448959.860,-20.996,-27.344,-32.715,-12.695,0.000
1680448959.864,-23.438,-36.133,-30.273,0.488,0.000
1680448959.868,-37.109,-34.668,-20.508,-36.133,0.000
1680448959.872,-27.344,-32.715,-36.621,-62.988,0.000
1680448959.876,-40.527,-33.203,-41.504,-41.992,0.000
1680448959.880,-29.785,-30.273,-30.762,-27.832,0.000
1680448959.884,-6.348,-28.320,-28.320,-17.578,0.000
1680448959.888,-33.203,-29.785,-32.227,-20.020,0.000
1680448959.891,-33.691,-33.691,-35.645,-45.410,0.000
1680448959.895,-28.809,-33.203,-31.250,-35.645,0.000
1680448959.899,-27.344,-36.133,-30.273,-27.832,0.000
1680448959.903,-21.973,-41.016,-34.668,-29.297,0.000
1680448959.907,0.488,-33.203,-41.504,-18.066,0.000
1680448959.911,3.418,-31.738,-31.738,-34.668,0.000
1680448959.915,-24.902,-35.156,-28.809,-49.805,0.000
1680448959.919,-47.363,-32.227,-38.086,-46.875,0.000
1680448959.923,-59.570,-27.344,-29.297,-41.992,0.000
1680448959.927,-42.969,-21.973,-31.250,-35.645,0.000
1680448959.931,-32.715,-25.391,-37.598,-44.434,0.000
1680448959.934,-25.879,-30.762,-33.691,-22.461,0.000
1680448959.938,-11.230,-28.809,-33.203,-21.484,0.000
1680448959.942,-19.043,-30.762,-35.156,-45.898,0.000
1680448959.946,-42.969,-37.598,-34.668,-43.457,0.000
1680448959.950,-36.133,-37.109,-41.992,-49.316,0.000
1680448959.954,-26.367,-33.691,-31.250,-48.828,0.000
1680448959.958,-18.066,-37.109,-16.602,-23.438,0.000
1680448959.962,-11.230,-36.621,-33.203,-7.812,0.000
1680448959.966,0.000,-31.250,-41.992,-38.574,0.000
1680448959.970,-15.625,-29.297,-39.062,-39.551,0.000
1680448959.974,-35.156,-31.738,-37.598,-30.762,0.000
1680448959.977,-32.715,-33.691,-32.227,-28.809,0.000
1680448959.981,-33.691,-25.391,-25.879,-11.719,0.000
1680448959.985,-29.785,-22.461,-26.367,-13.672,0.000
1680448959.989,-20.996,-31.250,-35.156,-44.922,0.000
1680448959.993,-10.742,-31.250,-39.062,-58.105,0.000
1680448959.997,-27.832,-20.996,-26.855,-37.598,0.000
1680448960.001,-36.133,-22.949,-20.508,-16.602,0.000
1680448960.005,-25.879,-34.180,-23.926,-4.883,0.000
1680448960.009,-8.301,-31.738,-26.855,-18.066,0.000
1680448960.013,-7.324,-31.250,-26.367,-2.930,0.000
1680448960.016,-19.531,-39.062,-18.066,-0.488,0.000
1680448960.020,-1.465,-33.691,-14.160,-29.785,0.000
1680448960.024,-1.953,-27.344,-22.949,-31.250,0.000
1680448960.028,-22.461,-33.691,-28.809,-42.969,0.000
1680448960.032,5.371,-42.480,-35.156,-37.109,0.000
1680448960.036,10.254,-39.062,-34.668,-15.137,0.000
1680448960.040,-33.691,-30.273,-23.926,2.930,0.000
1680448960.044,-48.828,-31.250,-22.461,-10.742,0.000
1680448960.048,-37.598,-36.133,-35.156,-33.203,0.000
1680448960.052,0.000,-36.133,-41.992,-14.160,0.000
1680448960.056,10.742,-27.832,-34.668,-9.277,0.000
1680448960.059,-14.160,-25.879,-14.648,-12.695,0.000
1680448960.063,4.395,-34.180,-5.371,-14.160,0.000
1680448960.067,9.766,-32.227,-27.832,-26.855,0.000
1680448960.071,-23.438,-31.250,-37.109,-25.879,0.000
1680448960.075,-42.969,-34.180,-36.621,-19.043,0.000
1680448960.079,-39.062,-32.715,-30.273,-20.508,0.000
1680448960.083,-25.879,-29.297,-25.391,-21.973,0.000
1680448960.087,-13.184,-25.879,-26.367,-14.648,0.000
1680448960.091,-6.348,-25.391,-28.320,-26.367,0.000
1680448960.095,-0.977,-24.902,-31.738,-19.531,0.000
1680448960.099,5.859,-30.273,-31.250,-2.930,0.000
1680448960.102,4.395,-28.809,-28.809,-23.438,0.000
1680448960.106,-21.973,-29.297,-20.020,-29.785,0.000
1680448960.110,-34.668,-40.527,-30.273,-40.527,0.000
1680448960.114,-19.043,-35.645,-42.969,-35.645,0.000
1680448960.118,-10.254,-30.273,-30.762,-14.648,0.000
1680448960.122,-20.508,-40.039,-31.250,-9.277,0.000
1680448960.126,-24.902,-40.039,-34.180,-21.973,0.000
1680448960.130,-14.160,-31.738,-35.645,-43.945,0.000
1680448960.134,-13.672,-30.762,-37.109,-34.180,0.000
1680448960.138,-14.160,-25.879,-25.879,-8.789,0.000
1680448960.141,-14.160,-24.902,-20.996,-20.508,0.000
1680448960.145,-30.273,-33.691,-34.180,-21.484,0.000
1680448960.149,-21.973,-40.039,-30.273,-14.160,0.000
1680448960.153,-9.277,-42.969,-27.832,-32.715,0.000
1680448960.157,-20.020,-42.480,-38.574,-21.973,0.000
1680448960.161,-35.156,-32.715,-33.203,-5.371,0.000
1680448960.165,-58.594,-31.738,-22.461,-30.273,0.000
1680448960.169,-51.758,-36.133,-28.809,-34.180,0.000
1680448960.173,-25.391,-28.809,-41.992,-23.926,0.000
1680448960.177,-23.438,-30.762,-33.691,-28.809,0.000
1680448960.181,-5.859,-31.738,-28.320,-20.996,0.000
1680448960.184,9.277,-27.344,-28.809,-18.555,0.000
1680448960.188,-22.461,-34.180,-37.109,-25.879,0.000
1680448960.192,-9.277,-36.621,-45.898,-36.133,0.000
1680448960.196,-2.441,-34.180,-24.414,-39.551,0.000
1680448960.200,-46.387,-34.180,-18.555,-30.762,0.000
1680448960.204,-51.270,-32.227,-41.992,-31.250,0.000
1680448960.208,-30.762,-26.367,-43.457,-43.457,0.000
1680448960.212,-20.996,-27.344,-46.875,-39.062,0.000
1680448960.216,-28.320,-35.645,-50.293,-35.156,0.000
1680448960.220,-41.016,-34.180,-39.551,-32.227,0.000
1680448960.224,-23.438,-36.133,-38.574,-25.391,0.000
1680448960.227,-18.555,-39.551,-44.922,-47.852,0.000
1680448960.231,-44.922,-33.691,-44.434,-37.109,0.000
1680448960.235,-36.621,-25.879,-39.551,-16.602,0.000
1680448960.239,-24.414,-29.297,-29.785,-18.066,0.000
1680448960.243,-27.832,-34.668,-22.461,-14.648,0.000
1680448960.247,-30.762,-32.227,-40.527,-20.020,0.000
1680448960.251,-28.320,-29.297,-49.316,-17.578,0.000
1680448960.255,-27.832,-36.133,-43.457,-20.508,0.000
1680448960.259,-16.602,-30.762,-36.133,-21.484,0.000
1680448960.263,-0.488,-20.020,-31.250,-24.414,0.000
1680448960.266,-10.742,-26.367,-35.156,-35.645,0.000
1680448960.270,-31.738,-30.273,-39.062,-50.293,0.000
1680448960.274,-35.645,-28.320,-36.621,-50.781,0.000
1680448960.278,-37.598,-28.809,-33.203,-30.762,0.000
1680448960.282,-28.809,-23.926,-37.598,-13.184,0.000
1680448960.286,-16.113,-25.879,-28.809,-20.996,0.000
1680448960.290,-28.320,-34.668,-29.785,-49.805,0.000
1680448960.294,-2.441,-29.297,-46.875,-40.039,0.000
1680448960.298,-5.859,-26.367,-44.922,-27.344,0.000
1680448960.302,-48.828,-26.855,-39.551,-16.602,0.000
1680448960.306,-50.781,-25.879,-42.969,-22.949,0.000
1680448960.309,-55.664,-29.297,-49.805,-64.941,0.000
1680448960.313,-46.875,-32.715,-48.340,-55.176,0.000
1680448960.317,-36.621,-36.133,-41.016,-30.762,0.000
1680448960.321,-39.551,-36.621,-34.668,-12.695,0.000
1680448960.325,-27.832,-33.203,-34.668,-16.602,0.000
1680448960.329,-26.367,-32.715,-33.203,-34.180,0.000
1680448960.333,-22.949,-32.227,-27.344,-36.621,0.000
1680448960.337,11.230,-26.367,-32.715,-24.414,0.000
1680448960.341,-10.254,-23.438,-35.645,-11.230,0.000
1680448960.345,-64.941,-30.273,-37.109,-26.367,0.000
1680448960.348,-54.688,-35.156,-41.992,-40.039,0.000
1680448960.352,-31.250,-29.297,-44.434,-37.598,0.000
1680448960.356,-25.879,-26.367,-41.992,-26.855,0.000
1680448960.360,-24.414,-21.484,-31.738,1.465,0.000
1680448960.364,-23.926,-21.973,-25.879,1.465,0.000
1680448960.368,-15.137,-24.902,-33.691,-15.137,0.000
1680448960.372,-1.465,-22.949,-32.227,-15.137,0.000
1680448960.376,-6.348,-21.973,-21.973,-30.762,0.000
1680448960.380,9.277,-23.926,-21.484,-21.973,0.000
1680448960.384,-2.930,-20.020,-27.832,-4.883,0.000
1680448960.388,-29.785,-19.531,-32.715,-26.367,0.000
1680448960.391,-26.855,-26.367,-33.203,-43.945,0.000
1680448960.395,-34.180,-26.855,-33.691,-33.203,0.000
1680448960.399,-27.344,-26.367,-32.227,-20.508,0.000
1680448960.403,-8.301,-29.785,-27.832,-18.555,0.000
1680448960.407,4.395,-26.855,-32.227,-22.949,0.000
1680448960.411,-11.719,-26.367,-37.109,-26.367,0.000
1680448960.415,-17.578,-26.855,-24.414,-19.043,0.000
1680448960.419,-13.672,-19.043,-18.066,-0.488,0.000
1680448960.423,-14.648,-16.113,-20.508,11.719,0.000
1680448960.427,-21.484,-22.461,-23.926,-13.184,0.000
1680448960.431,-31.250,-25.879,-32.715,-31.250,0.000
1680448960.434,-17.578,-20.996,-23.926,-38.574,0.000
1680448960.438,-9.277,-17.578,-8.789,-39.551,0.000
1680448960.442,-28.809,-14.648,-22.461,-32.715,0.000
1680448960.446,-19.043,-15.137,-31.250,-52.246,0.000
1680448960.450,-21.973,-17.578,-35.645,-60.547,0.000
1680448960.454,-49.316,-18.555,-38.086,-56.641,0.000
1680448960.458,-47.852,-14.648,-35.156,-69.336,0.000
1680448960.462,-35.156,-13.672,-33.691,-67.383,0.000
1680448960.466,-43.945,-11.719,-25.391,-63.477,0.000
1680448960.470,-46.875,-11.719,-22.461,-64.453,0.000
1680448960.473,-28.809,-8.789,-25.391,-55.664,0.000
1680448960.477,-45.410,-5.859,-22.949,-32.715,0.000
1680448960.481,-40.039,-15.625,-10.254,-17.578,0.000
1680448960.485,-32.715,-19.531,-11.719,-37.598,0.000
1680448960.489,-53.711,-20.020,-32.715,-67.871,0.000
1680448960.493,-55.176,-19.043,-39.551,-65.430,0.000
1680448960.497,-28.809,-22.949,-36.133,-38.574,0.000
1680448960.501,-5.859,-17.578,-28.809,-22.949,0.000
1680448960.505,-22.949,-19.043,-32.715,-13.672,0.000
1680448960.509,-27.832,-25.391,-40.039,-30.273,0.000
1680448960.513,-18.066,-20.508,-34.668,-57.129,0.000
1680448960.516,1.953,-18.066,-25.879,-35.645,0.000
1680448960.520,-0.977,-21.973,-27.832,-20.020,0.000
1680448960.524,-40.527,-30.273,-27.832,-29.785,0.000
1680448960.528,-39.062,-34.180,-26.367,-33.691,0.000
1680448960.532,-35.156,-30.273,-37.598,-10.254,0.000
1680448960.536,-39.551,-31.738,-39.551,-0.488,0.000
1680448960.540,-21.973,-34.180,-34.180,-4.395,0.000
1680448960.544,-10.254,-33.203,-36.621,-25.879,0.000
1680448960.548,-5.859,-32.715,-45.898,-49.805,0.000
1680448960.552,-0.977,-31.738,-44.922,-39.062,0.000
1680448960.556,18.555,-28.320,-40.039,-31.250,0.000
1680448960.559,15.625,-24.414,-36.133,-13.184,0.000
1680448960.563,-19.043,-24.414,-35.645,-19.531,0.000
1680448960.567,-41.504,-34.668,-45.898,-47.852,0.000
1680448960.571,-42.480,-38.086,-36.621,-34.180,0.000
1680448960.575,-24.414,-27.832,-27.344,-4.395,0.000
1680448960.579,-21.484,-21.973,-29.297,-5.371,0.000
1680448960.583,-25.879,-28.809,-31.250,-20.508,0.000
1680448960.587,-21.484,-33.203,-34.180,-39.551,0.000
1680448960.591,-7.324,-26.855,-36.621,-42.480,0.000
1680448960.595,-7.324,-27.344,-36.133,-34.668,0.000
1680448960.598,-26.367,-37.109,-31.250,-32.715,0.000
1680448960.602,-34.668,-36.621,-31.738,-31.250,0.000
1680448960.606,-35.645,-35.645,-39.062,-38.086,0.000
1680448960.610,-39.551,-33.691,-41.504,-47.852,0.000
1680448960.614,-23.926,-36.133,-30.273,-43.457,0.000
1680448960.618,-19.531,-40.039,-19.531,-23.926,0.000
1680448960.622,-30.273,-35.156,-34.668,-14.648,0.000
1680448960.626,-20.508,-38.086,-43.945,-26.855,0.000
1680448960.630,-13.672,-39.062,-39.551,-35.156,0.000
1680448960.634,-12.695,-32.715,-38.086,-22.461,0.000
1680448960.638,-8.301,-30.273,-33.691,-5.371,0.000
1680448960.641,-34.668,-27.832,-30.273,-11.719,0.000
1680448960.645,-38.086,-33.691,-34.668,-17.090,0.000
1680448960.649,-22.461,-36.621,-38.574,-24.902,0.000
1680448960.653,-4.883,-28.809,-35.156,-32.227,0.000
1680448960.657,11.719,-21.484,-29.297,-6.348,0.000
1680448960.661,1.465,-20.508,-13.184,-12.207,0.000
1680448960.665,-27.344,-32.227,-12.207,-35.645,0.000
1680448960.669,-43.457,-37.109,-29.785,-31.250,0.000
1680448960.673,-15.137,-32.227,-36.621,-19.043,0.000
1680448960.677,-6.836,-23.926,-32.227,-1.953,0.000
1680448960.680,-40.527,-20.996,-23.926,-10.254,0.000
1680448960.684,-27.832,-27.832,-27.344,-27.344,0.000
1680448960.688,-30.762,-32.715,-34.668,-35.156,0.000
1680448960.692,-42.969,-37.598,-36.133,-56.152,0.000
1680448960.696,-3.418,-37.109,-32.715,-40.527,0.000
1680448960.700,5.371,-26.855,-31.738,-9.766,0.000
1680448960.704,-28.809,-24.902,-25.391,-30.762,0.000
1680448960.708,-30.762,-39.062,-22.461,-43.457,0.000
1680448960.712,-40.527,-38.086,-34.180,-25.879,0.000
1680448960.716,-50.293,-27.832,-32.227,-13.184,0.000
1680448960.720,-14.160,-26.367,-27.832,-8.789,0.000
1680448960.723,1.465,-30.762,-28.809,-26.367,0.000
1680448960.727,-38.086,-33.203,-32.227,-42.480,0.000
1680448960.731,-51.758,-34.668,-34.668,-22.949,0.000
1680448960.735,-35.645,-33.203,-27.344,6.836,0.000
1680448960.739,-20.996,-30.762,-24.414,-2.930,0.000
1680448960.743,10.742,-32.227,-31.250,-26.855,0.000
1680448960.747,-6.836,-35.156,-36.621,-37.109,0.000
1680448960.751,-49.316,-39.062,-36.621,-40.527,0.000
1680448960.755,-44.922,-33.203,-37.598,-37.109,0.000
1680448960.759,-24.902,-30.762,-32.227,-26.367,0.000
1680448960.763,-5.371,-35.645,-29.785,-23.926,0.000
1680448960.766,-14.160,-38.086,-31.738,-17.578,0.000
1680448960.770,-38.086,-39.062,-38.574,-32.715,0.000
1680448960.774,-5.859,-33.203,-39.551,-52.734,0.000
1680448960.778,0.488,-29.297,-26.367,-25.391,0.000
1680448960.782,-34.180,-30.762,-20.020,-9.766,0.000
1680448960.786,-47.852,-34.668,-33.203,-34.180,0.000
1680448960.790,-44.434,-33.203,-41.504,-37.598,0.000
1680448960.794,-28.320,-32.227,-37.109,-22.949,0.000
1680448960.798,-24.902,-30.762,-35.156,-22.461,0.000
1680448960.802,-31.738,-32.715,-37.109,-30.762,0.000
1680448960.805,-30.273,-34.668,-45.898,-25.879,0.000
1680448960.809,-18.066,-38.086,-29.785,-11.719,0.000
1680448960.813,-16.602,-39.551,-15.137,-18.066,0.000
1680448960.817,-25.391,-33.203,-39.062,-29.785,0.000
1680448960.821,-12.695,-28.809,-46.387,-27.344,0.000
1680448960.825,-5.371,-27.832,-40.527,-37.598,0.000
1680448960.829,-37.109,-34.180,-44.922,-49.805,0.000
1680448960.833,-26.855,-37.598,-45.898,-30.273,0.000
1680448960.837,9.277,-31.250,-36.133,-8.301,0.000
1680448960.841,-27.344,-25.391,-26.367,-20.020,0.000
1680448960.845,-42.969,-23.926,-26.855,-24.414,0.000
1680448960.848,-20.508,-32.227,-35.156,-20.020,0.000
1680448960.852,-7.812,-33.691,-39.551,-19.043,0.000
1680448960.856,-18.066,-34.180,-15.625,-4.883,0.000
1680448960.860,-20.508,-36.133,-10.742,-0.488,0.000
1680448960.864,-4.883,-32.227,-30.273,-13.184,0.000
1680448960.868,-23.438,-33.691,-31.738,-20.996,0.000
1680448960.872,-27.832,-41.016,-35.156,-16.602,0.000
1680448960.876,-21.484,-39.062,-30.273,-16.602,0.000
1680448960.880,-17.578,-36.621,-23.438,-11.719,0.000
1680448960.884,3.906,-37.109,-29.785,0.000,0.000
1680448960.888,1.953,-38.086,-35.645,-20.508,0.000
1680448960.891,-30.273,-28.809,-33.691,-16.113,0.000
1680448960.895,-32.227,-25.391,-39.551,-4.883,0.000
1680448960.899,-19.043,-36.133,-34.180,-25.391,0.000
1680448960.903,-28.320,-38.574,-17.090,-19.043,0.000
1680448960.907,-33.203,-39.551,-28.320,-25.879,0.000
1680448960.911,-12.695,-38.574,-36.133,-40.039,0.000
1680448960.915,-17.578,-34.668,-31.738,-16.113,0.000
1680448960.919,-13.184,-37.598,-29.297,7.324,0.000
1680448960.923,25.391,-36.133,-30.762,7.812,0.000
1680448960.927,-12.207,-35.645,-35.156,-25.879,0.000
1680448960.930,-54.688,-42.480,-40.527,-37.109,0.000
1680448960.934,-25.879,-38.086,-35.156,-17.578,0.000
1680448960.938,-24.902,-25.879,-28.320,-15.137,0.000
1680448960.942,-43.457,-29.297,-38.086,-24.902,0.000
1680448960.946,-50.293,-37.109,-30.762,-17.090,0.000
1680448960.950,-27.832,-40.039,-29.785,-20.508,0.000
1680448960.954,-16.602,-37.109,-42.480,-35.645,0.000
1680448960.958,-25.879,-25.391,-33.203,-14.160,0.000
1680448960.962,-13.184,-25.391,-30.762,-6.836,0.000
1680448960.966,6.836,-28.809,-33.203,-9.277,0.000
1680448960.970,-4.395,-31.250,-37.598,-15.137,0.000
1680448960.973,-25.879,-29.297,-37.598,-29.785,0.000
1680448960.977,-11.719,-21.973,-27.832,-17.578,0.000
1680448960.981,-5.859,-24.902,-28.809,-16.602,0.000
1680448960.985,-18.066,-27.344,-38.574,-27.344,0.000
1680448960.989,-11.719,-29.297,-28.320,-19.043,0.000
1680448960.993,20.996,-23.926,-13.672,-20.508,0.000
1680448960.997,18.555,-18.555,-28.809,-20.020,0.000
1680448961.001,-33.203,-22.461,-36.133,-20.020,0.000
1680448961.005,-62.012,-27.344,-35.156,-35.645,0.000
1680448961.009,-45.898,-32.715,-45.410,-40.039,0.000
1680448961.013,-27.344,-38.086,-48.340,-41.992,0.000
1680448961.016,-16.113,-36.133,-38.574,-42.969,0.000
1680448961.020,-25.879,-33.691,-36.133,-32.715,0.000
1680448961.024,-30.762,-25.879,-38.086,-16.602,0.000
1680448961.028,-10.742,-28.320,-41.992,-39.551,0.000
1680448961.032,7.812,-30.762,-49.316,-47.852,0.000
1680448961.036,1.953,-30.273,-33.203,-17.090,0.000
1680448961.040,-10.742,-32.715,-22.461,-12.207,0.000
1680448961.044,-14.160,-28.809,-36.133,-17.578,0.000
1680448961.048,-31.250,-32.227,-42.969,-28.809,0.000
1680448961.052,-46.875,-33.203,-42.480,-27.832,0.000
1680448961.055,-32.715,-26.855,-38.086,-16.113,0.000
1680448961.059,-14.160,-20.508,-38.574,-21.973,0.000
1680448961.063,-10.742,-18.066,-37.598,-19.043,0.000
1680448961.067,-6.348,-23.438,-36.133,-20.508,0.000
1680448961.071,-13.184,-25.879,-38.574,-23.926,0.000
1680448961.075,-24.902,-23.926,-41.016,-14.648,0.000
1680448961.079,-24.414,-22.949,-31.250,-6.348,0.000
1680448961.083,-14.648,-25.391,-19.043,-16.602,0.000
1680448961.087,-11.230,-22.949,-33.691,-25.391,0.000
1680448961.091,-21.484,-20.508,-42.969,-16.602,0.000
1680448961.095,-18.066,-22.949,-40.039,-9.766,0.000
1680448961.098,-7.812,-31.250,-41.016,-10.254,0.000
1680448961.102,-18.066,-29.785,-43.457,-20.996,0.000
1680448961.106,-62.988,-32.227,-46.875,-33.691,0.000
1680448961.110,-74.707,-41.992,-48.340,-43.457,0.000
1680448961.114,-42.969,-41.016,-45.898,-37.598,0.000
1680448961.118,-19.531,-28.809,-39.551,-4.395,0.000
1680448961.122,-19.043,-20.020,-35.156,3.906,0.000
1680448961.126,-17.578,-18.066,-32.227,-11.719,0.000
1680448961.130,-14.648,-27.344,-32.227,-32.715,0.000
1680448961.134,-26.367,-33.203,-34.180,-59.570,0.000
1680448961.138,-46.387,-37.598,-34.668,-43.457,0.000
1680448961.141,-62.012,-38.574,-19.043,-28.320,0.000
1680448961.145,-42.480,-30.762,-18.555,-33.691,0.000
1680448961.149,-24.902,-27.832,-36.621,-41.504,0.000
1680448961.153,-14.648,-30.273,-37.598,-26.855,0.000
1680448961.157,-20.996,-36.133,-35.645,-10.254,0.000
1680448961.161,-34.180,-34.180,-32.227,-20.508,0.000
1680448961.165,-29.297,-26.855,-30.273,-10.742,0.000
1680448961.169,1.465,-24.902,-33.203,-27.832,0.000
1680448961.173,26.367,-24.414,-32.715,-36.133,0.000
1680448961.177,-27.344,-30.762,-29.785,-33.691,0.000
1680448961.180,-59.570,-30.273,-32.227,-39.551,0.000
1680448961.184,-34.668,-28.809,-20.996,-29.785,0.000
1680448961.188,-36.133,-37.598,-15.137,-40.039,0.000
1680448961.192,-32.227,-37.598,-38.574,-43.457,0.000
1680448961.196,-14.648,-30.273,-39.062,-30.762,0.000
1680448961.200,-17.578,-28.320,-32.227,-24.414,0.000
1680448961.204,-10.742,-29.297,-35.156,-13.672,0.000
1680448961.208,3.906,-28.809,-37.598,-35.156,0.000
1680448961.212,-29.297,-27.832,-38.086,-59.570,0.000
1680448961.216,-46.387,-21.973,-32.715,-34.668,0.000
1680448961.220,-37.109,-20.508,-28.809,-32.227,0.000
1680448961.223,-32.227,-25.879,-32.227,-43.457,0.000
1680448961.227,-20.020,-27.344,-35.645,-50.293,0.000
1680448961.231,-9.277,-27.832,-18.555,-42.969,0.000
1680448961.235,14.648,-28.809,-14.160,-29.297,0.000
1680448961.239,-14.648,-26.367,-27.832,-24.902,0.000
1680448961.243,-47.852,-19.531,-29.785,-23.926,0.000
1680448961.247,-23.926,-20.996,-30.273,-26.367,0.000
1680448961.251,-18.555,-26.855,-31.250,-23.926,0.000
1680448961.255,-24.414,-35.156,-40.039,-28.320,0.000
1680448961.259,-7.812,-29.297,-32.227,-23.926,0.000
1680448961.262,0.488,-25.879,-26.367,-20.508,0.000
1680448961.266,-12.207,-31.250,-34.180,-23.926,0.000
1680448961.270,-33.203,-31.738,-41.016,-25.391,0.000
1680448961.274,-25.879,-34.180,-30.273,-30.273,0.000
1680448961.278,-12.207,-31.738,-10.742,-15.137,0.000
1680448961.282,-27.344,-28.809,-26.855,-11.230,0.000
1680448961.286,-32.715,-28.809,-40.039,-23.926,0.000
1680448961.290,-24.902,-27.344,-39.551,-23.926,0.000
1680448961.294,-7.324,-26.855,-42.480,-47.363,0.000
1680448961.298,-9.277,-27.832,-39.551,-47.852,0.000
1680448961.302,-31.738,-25.391,-33.691,-25.391,0.000
1680448961.305,-40.527,-23.438,-31.250,-28.809,0.000
1680448961.309,-23.438,-28.320,-37.598,-32.715,0.000
1680448961.313,-4.883,-28.809,-38.574,-29.785,0.000
1680448961.317,-24.902,-28.320,-35.645,-23.438,0.000
1680448961.321,-39.551,-35.156,-19.043,-19.531,0.000
1680448961.325,-31.250,-38.574,-21.484,-17.090,0.000
1680448961.329,-28.320,-28.809,-40.039,-23.438,0.000
1680448961.333,-32.715,-28.320,-37.598,-34.180,0.000
1680448961.337,0.977,-29.297,-33.203,-24.414,0.000
1680448961.341,23.438,-26.367,-32.715,-19.043,0.000
1680448961.345,-23.926,-26.367,-35.645,-32.715,0.000
1680448961.348,-49.805,-28.809,-29.785,-52.734,0.000
1680448961.352,-41.992,-27.344,-27.832,-45.410,0.000
1680448961.356,-29.297,-21.484,-28.320,-22.461,0.000
1680448961.360,-15.625,-19.043,-32.715,-7.812,0.000
1680448961.364,-18.066,-20.996,-25.391,-4.883,0.000
1680448961.368,-14.648,-28.809,-14.648,-6.836,0.000
1680448961.372,-12.695,-26.855,-34.668,-12.695,0.000
1680448961.376,-17.090,-28.320,-36.621,-19.531,0.000
1680448961.380,-20.020,-34.668,-30.762,-16.602,0.000
1680448961.384,-17.090,-26.367,-28.809,-23.438,0.000
1680448961.387,-33.691,-25.391,-35.156,-38.574,0.000
1680448961.391,-23.438,-32.227,-44.922,-36.133,0.000
1680448961.395,-14.160,-35.156,-42.480,-27.832,0.000
1680448961.399,-33.691,-36.621,-38.086,-27.832,0.000
1680448961.403,-33.203,-37.109,-40.039,-24.414,0.000
1680448961.407,-41.504,-30.273,-44.922,-31.738,0.000
1680448961.411,-29.297,-35.156,-29.297,-44.922,0.000
1680448961.415,-18.066,-43.457,-25.879,-32.227,0.000
1680448961.419,-39.062,-41.016,-44.434,-7.324,0.000
1680448961.423,-27.344,-40.039,-39.062,-24.414,0.000
1680448961.427,-11.230,-34.668,-35.156,-43.945,0.000
1680448961.430,-11.719,-32.715,-42.969,-52.734,0.000
1680448961.434,-26.855,-37.109,-46.387,-49.316,0.000
1680448961.438,-41.016,-35.156,-42.480,-27.344,0.000
1680448961.442,-31.738,-31.738,-38.086,-13.184,0.000
1680448961.446,-25.879,-29.785,-41.016,-22.949,0.000
1680448961.450,-34.668,-28.809,-47.363,-31.250,0.000
1680448961.454,-34.180,-28.809,-38.574,-30.273,0.000
1680448961.458,-13.184,-31.738,-22.461,-29.297,0.000
1680448961.462,7.324,-31.738,-30.273,-19.531,0.000
1680448961.466,17.090,-33.691,-34.668,-23.438,0.000
1680448961.470,-25.391,-35.156,-37.109,-32.227,0.000
1680448961.473,-44.434,-32.715,-37.109,-23.926,0.000
1680448961.477,-29.785,-27.832,-26.367,-7.812,0.000
1680448961.481,-37.109,-24.902,-19.043,-13.184,0.000
1680448961.485,-39.551,-19.531,-21.484,-32.227,0.000
1680448961.489,-44.434,-23.926,-33.691,-34.668,0.000
1680448961.493,-39.551,-28.809,-33.203,-30.762,0.000
1680448961.497,-21.484,-21.484,-27.832,-27.832,0.000
1680448961.501,-15.625,-18.066,-22.461,-23.926,0.000
1680448961.505,-14.160,-23.438,-23.438,-17.090,0.000
1680448961.509,-10.742,-27.344,-34.668,-23.926,0.000
1680448961.512,-18.066,-27.344,-35.645,-28.320,0.000
1680448961.516,-19.531,-28.809,-20.020,-18.066,0.000
1680448961.520,-12.207,-24.414,-16.602,-14.160,0.000
1680448961.524,-22.949,-25.391,-28.809,-18.555,0.000
1680448961.528,-37.109,-33.203,-34.180,-28.320,0.000
1680448961.532,-13.672,-34.180,-38.574,-30.273,0.000
1680448961.536,5.371,-30.762,-35.645,-25.879,0.000
1680448961.540,-24.414,-22.461,-29.785,-12.207,0.000
1680448961.544,-36.133,-21.973,-23.926,-26.367,0.000
1680448961.548,-24.414,-27.832,-25.879,-37.598,0.000
1680448961.552,-9.277,-29.297,-32.715,-16.113,0.000
1680448961.555,-43.457,-28.320,-35.156,-21.484,0.000
1680448961.559,-59.570,-28.320,-24.414,-19.043,0.000
1680448961.563,-40.527,-32.227,-14.648,-23.926,0.000
1680448961.567,-33.203,-32.227,-31.250,-47.363,0.000
1680448961.571,-25.391,-28.809,-38.574,-41.992,0.000
1680448961.575,-34.180,-28.809,-34.180,-39.062,0.000
1680448961.579,-33.691,-33.203,-32.715,-31.250,0.000
1680448961.583,-26.855,-37.109,-36.133,-21.973,0.000
1680448961.587,-42.969,-37.598,-41.016,-38.086,0.000
1680448961.591,-38.086,-41.504,-41.016,-59.082,0.000
1680448961.595,-24.414,-39.062,-38.574,-39.062,0.000
1680448961.598,-33.691,-25.391,-32.227,-15.625,0.000
1680448961.602,-30.762,-27.832,-33.203,-34.668,0.000
1680448961.606,-33.691,-42.969,-26.855,-50.293,0.000
1680448961.610,-42.480,-48.340,-30.762,-51.758,0.000
1680448961.614,-40.039,-41.992,-45.410,-41.016,0.000
1680448961.618,-37.598,-32.715,-34.668,-29.785,0.000
1680448961.622,-21.973,-34.668,-30.762,-16.602,0.000
1680448961.626,-21.484,-30.762,-32.227,-17.090,0.000
1680448961.630,-40.039,-28.320,-35.645,-60.059,0.000
1680448961.634,-25.879,-25.879,-35.156,-67.871,0.000
1680448961.637,6.836,-22.461,-28.320,-27.832,0.000
1680448961.641,-26.367,-21.484,-26.855,-31.250,0.000
1680448961.645,-52.246,-21.484,-30.762,-54.688,0.000
1680448961.649,-39.062,-26.855,-28.809,-64.453,0.000
1680448961.653,-35.156,-26.855,-18.066,-58.594,0.000
1680448961.657,-35.156,-25.879,-26.367,-44.922,0.000
1680448961.661,-27.832,-28.320,-34.180,-39.062,0.000
1680448961.665,1.953,-20.996,-33.203,-23.926,0.000
1680448961.669,-7.324,-19.043,-36.621,-18.555,0.000
1680448961.673,-41.504,-25.391,-36.621,-36.621,0.000
1680448961.677,-43.457,-25.879,-30.762,-34.668,0.000
1680448961.680,-35.156,-25.391,-30.273,-20.996,0.000
1680448961.684,-39.062,-25.391,-28.320,-32.715,0.000
1680448961.688,-37.109,-24.414,-26.855,-36.621,0.000
1680448961.692,-27.832,-31.250,-33.203,-20.508,0.000
1680448961.696,-31.738,-36.133,-12.695,-26.855,0.000
1680448961.700,-29.785,-33.203,-11.230,-36.133,0.000
1680448961.704,-28.320,-35.156,-36.621,-36.133,0.000
1680448961.708,-30.273,-36.133,-34.180,-40.527,0.000
1680448961.712,-40.039,-31.250,-32.227,-47.852,0.000
1680448961.716,-69.824,-33.691,-30.762,-48.340,0.000
1680448961.719,-41.504,-31.738,-29.297,-37.109,0.000
1680448961.723,-11.719,-29.297,-32.227,-42.969,0.000
1680448961.727,-32.227,-32.715,-32.715,-51.270,0.000
1680448961.731,-52.246,-33.203,-36.133,-51.270,0.000
1680448961.735,-48.340,-24.902,-34.668,-28.320,0.000
1680448961.739,-41.504,-23.926,-20.996,-23.926,0.000
1680448961.743,-36.133,-29.785,-11.719,-30.273,0.000
1680448961.747,-10.742,-27.832,-30.273,-22.949,0.000
1680448961.751,-13.672,-27.344,-39.062,-44.434,0.000
1680448961.755,-36.621,-29.297,-30.273,-64.453,0.000
1680448961.759,-50.293,-22.949,-27.344,-40.039,0.000
1680448961.762,-48.828,-24.414,-29.785,-31.738,0.000
1680448961.766,-36.133,-27.344,-29.785,-35.645,0.000
1680448961.770,-18.066,-26.367,-33.691,-30.273,0.000
1680448961.774,-11.719,-28.320,-37.109,-33.203,0.000
1680448961.778,-15.625,-26.855,-30.762,-20.996,0.000
1680448961.782,-35.156,-20.996,-26.855,-8.301,0.000
1680448961.786,-68.359,-31.250,-16.602,-46.387,0.000
1680448961.790,-60.059,-38.086,-11.719,-52.246,0.000
1680448961.794,-55.664,-32.227,-28.320,-33.691,0.000
1680448961.798,-51.758,-31.738,-24.414,-28.320,0.000
1680448961.802,-29.297,-26.855,-22.949,-21.973,0.000
1680448961.805,-39.062,-31.738,-23.438,-25.879,0.000
1680448961.809,-32.715,-35.645,-28.320,-30.762,0.000
1680448961.813,-19.043,-35.156,-29.297,-14.648,0.000
1680448961.817,-21.973,-31.250,-21.973,6.836,0.000
1680448961.821,-13.672,-30.273,-25.879,-14.160,0.000
1680448961.825,-6.348,-34.668,-34.668,-29.297,0.000
1680448961.829,-41.504,-41.992,-36.133,-32.715,0.000
1680448961.833,-79.590,-54.199,-26.855,-42.480,0.000
1680448961.837,-80.078,-47.852,-30.762,-44.922,0.000
1680448961.841,-64.941,-34.668,-33.203,-38.086,0.000
1680448961.844,-46.387,-35.156,-34.180,-37.598,0.000
1680448961.848,-49.805,-40.527,-42.969,-50.781,0.000
1680448961.852,-52.734,-38.086,-45.898,-50.293,0.000
1680448961.856,-37.598,-30.273,-37.598,-27.832,0.000
1680448961.860,-28.809,-29.297,-33.203,-20.508,0.000
1680448961.864,-20.996,-28.809,-32.227,-32.715,0.000
1680448961.868,-7.324,-28.320,-32.227,-34.668,0.000
1680448961.872,-19.531,-25.391,-32.227,-14.648,0.000
1680448961.876,-21.484,-18.555,-22.949,-12.695,0.000
1680448961.880,-22.461,-23.438,-17.578,-7.324,0.000
1680448961.884,-54.688,-33.203,-24.414,-11.719,0.000
1680448961.887,-52.246,-39.551,-33.203,-36.621,0.000
1680448961.891,-36.133,-39.551,-21.484,-37.109,0.000
1680448961.895,-14.648,-31.738,-15.625,-28.809,0.000
1680448961.899,4.395,-29.297,-27.344,-12.207,0.000
1680448961.903,-10.254,-32.227,-28.809,-11.230,0.000
1680448961.907,-50.293,-34.180,-30.273,-23.438,0.000
1680448961.911,-37.598,-33.203,-33.691,-42.969,0.000
1680448961.915,-6.836,-29.785,-32.715,-44.434,0.000
1680448961.919,-21.973,-30.273,-28.809,-25.391,0.000
1680448961.923,-24.414,-25.391,-24.414,-18.555,0.000
1680448961.927,-8.789,-25.879,-23.438,-12.695,0.000
1680448961.930,19.531,-27.344,-27.832,-18.555,0.000
1680448961.934,24.414,-23.438,-14.160,-13.184,0.000
1680448961.938,-25.879,-26.367,2.441,-14.160,0.000
1680448961.942,-38.574,-28.320,-16.113,-19.531,0.000
1680448961.946,-21.484,-28.320,-26.855,-7.812,0.000
1680448961.950,-28.809,-29.785,-23.438,-30.762,0.000
1680448961.954,-27.344,-30.273,-26.367,-47.852,0.000
1680448961.958,-17.090,-30.273,-19.531,-33.691,0.000
1680448961.962,-9.277,-25.391,-19.043,-18.066,0.000
1680448961.966,0.488,-26.367,-31.738,-17.578,0.000
1680448961.969,-21.973,-31.250,-31.250,-41.992,0.000
1680448961.973,-47.852,-31.738,-29.297,-34.668,0.000
1680448961.977,-33.203,-25.879,-29.297,-5.859,0.000
1680448961.981,-12.207,-20.996,-6.348,-3.906,0.000
1680448961.985,-23.926,-24.414,-7.324,-17.578,0.000
1680448961.989,-24.414,-19.043,-24.414,-41.504,0.000
1680448961.993,-9.766,-14.160,-22.461,-41.992,0.000
1680448961.997,-3.418,-15.625,-24.414,-28.320,0.000
1680448962.001,-3.418,-22.461,-26.855,-12.695,0.000
1680448962.005,-17.090,-24.414,-28.320,-5.859,0.000
1680448962.009,-18.555,-23.438,-28.809,-25.879,0.000
1680448962.012,-1.465,-23.926,-30.273,-25.879,0.000
1680448962.016,-30.762,-25.391,-26.855,-8.301,0.000
1680448962.020,-45.410,-25.879,-29.297,0.977,0.000
1680448962.024,-15.137,-31.250,-26.367,8.301,0.000
1680448962.028,-20.020,-36.133,-17.090,-5.371,0.000
1680448962.032,-14.648,-33.203,-33.203,-36.133,0.000
1680448962.036,-12.695,-33.691,-41.016,-51.270,0.000
1680448962.040,-44.922,-30.273,-38.574,-40.039,0.000
1680448962.044,-48.340,-25.391,-38.086,-30.273,0.000
1680448962.048,-14.160,-23.438,-36.621,-38.086,0.000
1680448962.052,-12.695,-23.438,-39.062,-53.223,0.000
1680448962.055,-30.273,-24.414,-36.133,-42.480,0.000
1680448962.059,-42.480,-25.391,-27.344,-25.391,0.000
1680448962.063,-61.523,-28.320,-31.250,-34.180,0.000
1680448962.067,-57.129,-28.320,-38.086,-47.852,0.000
1680448962.071,-46.875,-32.227,-24.902,-54.199,0.000
1680448962.075,-13.184,-28.809,-18.555,-36.133,0.000
1680448962.079,-8.301,-21.973,-29.785,-11.230,0.000
1680448962.083,-41.504,-21.484,-32.715,-8.789,0.000
1680448962.087,-15.137,-25.391,-34.180,-11.719,0.000
1680448962.091,-13.672,-29.297,-40.039,-20.996,0.000
1680448962.094,-22.949,-23.926,-39.062,-18.066,0.000
1680448962.098,-11.230,-21.973,-27.344,-11.230,0.000
1680448962.102,-34.668,-28.320,-25.391,-31.250,0.000
1680448962.106,-59.570,-25.879,-31.738,-54.688,0.000
1680448962.110,-59.082,-22.949,-39.551,-51.270,0.000
1680448962.114,-41.992,-34.668,-35.156,-33.691,0.000
1680448962.118,-40.527,-39.062,-14.160,-32.715,0.000
1680448962.122,-39.551,-28.320,-17.578,-22.461,0.000
1680448962.126,-26.367,-29.785,-30.762,-7.324,0.000
1680448962.130,-20.020,-33.691,-36.621,-34.180,0.000
1680448962.134,-34.668,-30.273,-32.715,-42.969,0.000
1680448962.137,-17.578,-26.855,-31.250,-27.832,0.000
1680448962.141,-13.672,-26.367,-29.297,-14.648,0.000
1680448962.145,-59.570,-25.391,-26.367,-9.277,0.000
1680448962.149,-30.273,-24.902,-32.227,-23.438,0.000
1680448962.153,13.184,-27.832,-35.645,-28.809,0.000
1680448962.157,-11.719,-25.879,-34.180,-20.508,0.000
1680448962.161,-29.785,-25.879,-12.207,-2.930,0.000
1680448962.165,-23.926,-31.250,-7.812,-17.090,0.000
1680448962.169,-25.879,-33.691,-34.668,-42.969,0.000
1680448962.173,8.301,-36.133,-41.016,-25.391,0.000
1680448962.176,9.277,-32.715,-32.715,-5.859,0.000
1680448962.180,-41.016,-29.785,-26.855,-32.227,0.000
1680448962.184,-57.617,-30.762,-35.645,-33.203,0.000
1680448962.188,-39.551,-27.832,-35.645,-20.020,0.000
1680448962.192,-13.672,-26.367,-30.762,-27.832,0.000
1680448962.196,-27.832,-24.414,-29.297,-39.551,0.000
1680448962.200,-53.223,-23.926,-29.785,-32.715,0.000
1680448962.204,-44.922,-21.973,-25.391,-23.438,0.000
1680448962.208,-27.832,-27.344,-15.625,-19.531,0.000
1680448962.212,-21.484,-34.180,-27.832,-20.020,0.000
1680448962.216,-25.879,-25.879,-28.320,-4.395,0.000
1680448962.219,-17.090,-20.996,-20.508,13.672,0.000
1680448962.223,-3.418,-28.809,-22.949,-2.930,0.000
1680448962.227,-19.531,-29.785,-32.227,-21.484,0.000
1680448962.231,-28.320,-23.926,-41.016,-39.062,0.000
1680448962.235,-14.648,-27.344,-42.969,-41.504,0.000
1680448962.239,-21.973,-31.250,-39.551,-28.320,0.000
1680448962.243,-32.227,-30.273,-38.574,-27.344,0.000
1680448962.247,-44.922,-32.715,-50.293,-35.156,0.000
1680448962.251,-49.316,-33.203,-41.992,-24.414,0.000
1680448962.255,-21.484,-31.738,-36.133,-25.391,0.000
1680448962.259,-12.207,-28.320,-40.039,-44.434,0.000
1680448962.262,-29.297,-27.344,-39.551,-43.457,0.000
1680448962.266,-59.570,-37.109,-40.039,-46.387,0.000
1680448962.270,-78.613,-36.621,-43.945,-53.223,0.000
1680448962.274,-58.594,-28.809,-43.945,-28.809,0.000
1680448962.278,-44.922,-35.645,-39.062,-4.883,0.000
1680448962.282,-23.438,-33.691,-40.039,-32.227,0.000
1680448962.286,-22.461,-30.762,-47.852,-46.875,0.000
1680448962.290,-47.852,-41.504,-56.152,-46.387,0.000
1680448962.294,-52.246,-41.504,-46.387,-58.105,0.000
1680448962.298,-48.828,-32.715,-39.551,-27.344,0.000
1680448962.301,-31.738,-41.016,-41.016,-15.137,0.000
1680448962.305,-39.062,-44.434,-43.457,-32.227,0.000
1680448962.309,-49.316,-42.969,-39.551,-47.363,0.000
1680448962.313,-37.109,-47.852,-29.297,-48.828,0.000
1680448962.317,-30.273,-43.457,-37.598,-33.691,0.000
1680448962.321,-30.762,-35.156,-39.062,-35.645,0.000
1680448962.325,-28.320,-32.227,-38.574,-37.598,0.000
1680448962.329,-32.227,-33.691,-43.945,-34.180,0.000
1680448962.333,-41.016,-36.133,-47.363,-24.414,0.000
1680448962.337,-27.832,-33.691,-41.504,-12.207,0.000
1680448962.341,-13.184,-36.621,-36.133,-23.926,0.000
1680448962.344,-13.672,-42.480,-42.480,-34.180,0.000
1680448962.348,-10.254,-42.969,-45.410,-17.578,0.000
1680448962.352,-2.441,-44.922,-47.852,-36.621,0.000
1680448962.356,-25.879,-42.969,-26.367,-41.504,0.000
1680448962.360,-58.594,-36.133,-16.113,-25.391,0.000
1680448962.364,-46.387,-34.668,-36.133,-33.691,0.000
1680448962.368,-13.672,-37.109,-42.480,-36.621,0.000
1680448962.372,-11.230,-36.621,-43.457,-58.594,0.000
1680448962.376,-32.227,-32.227,-42.480,-55.664,0.000
1680448962.380,-30.273,-30.762,-34.668,-27.832,0.000
1680448962.384,-8.789,-26.367,-34.180,-25.879,0.000
1680448962.387,-22.461,-28.320,-38.574,-31.738,0.000
1680448962.391,-27.344,-32.227,-33.203,-22.949,0.000
1680448962.395,2.441,-29.785,-36.133,-18.066,0.000
1680448962.399,-6.348,-24.902,-28.320,-16.602,0.000
1680448962.403,-3.906,-25.391,-13.672,-21.484,0.000
1680448962.407,5.859,-29.785,-27.344,-16.113,0.000
1680448962.411,-34.668,-29.785,-39.551,-16.602,0.000
1680448962.415,-36.621,-28.320,-36.133,-29.297,0.000
1680448962.419,-12.207,-31.250,-36.621,-33.691,0.000
1680448962.423,-28.320,-28.320,-39.062,-36.133,0.000
1680448962.426,-38.574,-25.391,-39.551,-43.457,0.000
1680448962.430,-21.973,-26.367,-42.480,-41.992,0.000
1680448962.434,-33.691,-30.273,-42.969,-39.551,0.000
1680448962.438,-34.668,-31.738,-36.133,-34.180,0.000
1680448962.442,-18.555,-24.902,-33.203,-26.855,0.000
1680448962.446,-15.625,-34.668,-29.297,-31.250,0.000
1680448962.450,-8.789,-37.598,-31.250,-39.062,0.000
1680448962.454,-25.879,-28.320,-39.551,-35.156,0.000
1680448962.458,-28.809,-27.344,-33.203,-38.574,0.000
1680448962.462,-16.602,-25.879,-34.180,-38.574,0.000
1680448962.466,-37.109,-32.227,-36.133,-32.227,0.000
1680448962.469,-38.086,-38.574,-38.574,-34.180,0.000
1680448962.473,-32.227,-37.598,-39.551,-36.133,0.000
1680448962.477,-34.668,-33.691,-36.133,-33.203,0.000
1680448962.481,-28.320,-29.297,-33.203,-24.902,0.000
1680448962.485,-40.039,-21.973,-32.715,-32.715,0.000
1680448962.489,-30.273,-26.367,-33.203,-33.691,0.000
1680448962.493,-19.531,-32.715,-22.461,-32.715,0.000
1680448962.497,-26.855,-27.344,-25.391,-32.715,0.000
1680448962.501,-9.277,-24.414,-28.809,-28.320,0.000
1680448962.505,-22.949,-23.438,-27.344,-41.504,0.000
1680448962.508,-46.387,-26.855,-34.668,-42.969,0.000
1680448962.512,-26.367,-31.250,-39.062,-41.016,0.000
1680448962.516,-12.695,-30.273,-31.738,-32.715,0.000
1680448962.520,-23.926,-31.250,-27.832,-16.113,0.000
1680448962.524,-27.832,-29.785,-31.250,-11.230,0.000
1680448962.528,-23.438,-31.250,-34.180,-34.668,0.000
1680448962.532,-15.137,-30.762,-39.551,-46.387,0.000
1680448962.536,-10.742,-29.785,-16.602,-39.551,0.000
1680448962.540,-12.695,-27.344,-1.953,-27.832,0.000
1680448962.544,-14.648,-20.508,-21.484,-19.043,0.000
1680448962.548,-31.738,-24.902,-32.227,-36.621,0.000
1680448962.551,-28.320,-30.273,-34.668,-47.852,0.000
1680448962.555,-25.879,-26.367,-35.156,-29.297,0.000
1680448962.559,-28.809,-25.879,-30.762,-2.441,0.000
1680448962.563,-15.625,-24.902,-24.902,-12.695,0.000
1680448962.567,-10.742,-26.367,-28.809,-39.551,0.000
1680448962.571,-26.855,-31.250,-37.598,-41.992,0.000
1680448962.575,-44.922,-33.203,-39.062,-17.090,0.000
1680448962.579,-47.363,-29.785,-24.414,-8.301,0.000
1680448962.583,-29.297,-33.203,-13.672,-18.555,0.000
1680448962.587,8.789,-31.250,-29.785,-13.184,0.000
1680448962.591,33.203,-27.344,-35.156,-20.508,0.000
1680448962.594,-2.930,-30.273,-27.344,-18.066,0.000
1680448962.598,-43.457,-27.832,-23.926,-17.578,0.000
1680448962.602,-47.363,-28.809,-24.902,-19.531,0.000
1680448962.606,-49.805,-34.668,-28.809,-20.996,0.000
1680448962.610,-29.297,-29.785,-31.250,-36.133,0.000
1680448962.614,1.953,-22.949,-34.180,-32.227,0.000
1680448962.618,-11.719,-23.926,-35.156,-27.832,0.000
1680448962.622,-18.555,-23.926,-40.039,-18.066,0.000
1680448962.626,-13.184,-23.926,-28.809,-10.254,0.000
1680448962.630,-14.160,-31.738,-24.902,-24.414,0.000
1680448962.633,-2.441,-33.203,-35.156,-20.996,0.000
1680448962.637,-22.949,-28.809,-35.156,-32.227,0.000
1680448962.641,-40.039,-38.574,-27.832,-37.109,0.000
1680448962.645,-51.758,-37.598,-32.227,-26.367,0.000
1680448962.649,-43.945,-37.109,-41.992,-32.227,0.000
1680448962.653,-28.809,-41.992,-38.086,-46.875,0.000
1680448962.657,-35.156,-36.133,-30.762,-34.180,0.000
1680448962.661,-30.762,-37.598,-30.273,-24.902,0.000
1680448962.665,-32.227,-35.645,-36.621,-40.039,0.000
1680448962.669,-24.902,-30.273,-40.039,-40.527,0.000
1680448962.673,5.371,-29.297,-37.109,-36.133,0.000
1680448962.676,11.230,-35.156,-35.156,-26.855,0.000
1680448962.680,-43.945,-31.738,-41.992,-13.672,0.000
1680448962.684,-39.062,-35.156,-33.691,-30.762,0.000
1680448962.688,-8.789,-40.527,-22.949,-43.945,0.000
1680448962.692,-33.691,-31.738,-41.504,-46.387,0.000
1680448962.696,-25.391,-26.367,-44.922,-43.945,0.000
1680448962.700,-25.391,-25.391,-36.621,-28.320,0.000
1680448962.704,-42.969,-27.344,-36.133,-36.133,0.000
1680448962.708,-18.555,-28.320,-41.504,-40.527,0.000
1680448962.712,-7.324,-29.297,-45.898,-44.434,0.000
1680448962.716,-21.484,-28.809,-41.016,-50.781,0.000
1680448962.719,-27.344,-18.066,-33.691,-29.297,0.000
1680448962.723,-27.344,-14.160,-36.621,-22.949,0.000
1680448962.727,-27.344,-21.973,-44.922,-27.832,0.000
1680448962.731,-18.066,-31.738,-28.809,-28.809,0.000
1680448962.735,-7.324,-25.391,-16.113,-20.020,0.000
1680448962.739,-6.836,-18.066,-31.738,-15.137,0.000
1680448962.743,-15.137,-23.926,-35.156,-20.508,0.000
1680448962.747,-7.812,-29.297,-40.039,-30.273,0.000
1680448962.751,-0.977,-29.297,-44.434,-41.992,0.000
1680448962.755,-23.926,-26.367,-42.480,-41.992,0.000
1680448962.758,-50.781,-21.484,-35.156,-22.949,0.000
1680448962.762,-51.270,-20.508,-27.832,-14.648,0.000
1680448962.766,-31.250,-22.949,-29.297,-37.109,0.000
1680448962.770,-36.133,-26.367,-35.156,-44.434,0.000
1680448962.774,-37.598,-28.320,-28.320,-28.809,0.000
1680448962.778,-31.250,-26.855,-17.578,-13.184,0.000
1680448962.782,-22.461,-24.902,-24.414,-20.508,0.000
1680448962.786,-2.930,-28.320,-33.203,-15.137,0.000
1680448962.790,-0.488,-32.715,-25.391,-31.250,0.000
1680448962.794,-8.301,-33.203,-19.043,-47.852,0.000
1680448962.798,-48.340,-29.297,-27.344,-32.715,0.000
1680448962.801,-58.105,-29.297,-27.344,-26.855,0.000
1680448962.805,-26.367,-28.320,-29.785,-25.391,0.000
1680448962.809,-40.527,-32.227,-33.691,-29.297,0.000
1680448962.813,-38.086,-33.203,-35.645,-22.949,0.000
1680448962.817,-18.066,-26.367,-34.180,-7.812,0.000
1680448962.821,-21.973,-32.227,-12.695,-13.672,0.000
1680448962.825,-17.578,-33.691,-12.695,-33.203,0.000
1680448962.829,-4.883,-31.250,-36.621,-32.227,0.000
1680448962.833,-22.949,-29.785,-36.133,-15.137,0.000
1680448962.837,-49.316,-21.973,-30.762,-7.812,0.000
1680448962.841,-55.176,-27.832,-28.320,1.465,0.000
1680448962.844,-46.875,-35.156,-30.273,-21.484,0.000
1680448962.848,-38.086,-33.203,-35.645,-53.223,0.000
1680448962.852,-20.508,-32.227,-40.527,-44.434,0.000
1680448962.856,-20.996,-29.297,-45.898,-32.227,0.000
1680448962.860,-37.598,-27.344,-38.086,-27.832,0.000
1680448962.864,-32.715,-31.738,-21.484,-34.180,0.000
1680448962.868,-12.207,-38.086,-22.461,-38.574,0.000
1680448962.872,-2.930,-33.691,-41.504,-38.086,0.000
1680448962.876,-48.340,-29.297,-37.109,-35.156,0.000
1680448962.880,-55.664,-31.250,-23.438,-14.160,0.000
1680448962.883,-8.789,-32.715,-26.855,-12.695,0.000
1680448962.887,-6.348,-41.016,-37.109,-49.316,0.000
1680448962.891,-37.598,-36.621,-37.109,-53.711,0.000
1680448962.895,-26.855,-31.738,-38.086,-21.484,0.000
1680448962.899,9.766,-33.691,-33.691,0.977,0.000
1680448962.903,-24.414,-32.227,-33.203,-24.902,0.000
1680448962.907,-61.035,-32.715,-41.016,-49.316,0.000
1680448962.911,-61.035,-38.086,-23.438,-38.086,0.000
1680448962.915,-46.387,-44.434,-22.949,-32.715,0.000
1680448962.919,-29.297,-33.203,-42.480,-25.391,0.000
1680448962.923,-47.363,-32.227,-38.574,-17.578,0.000
1680448962.926,-31.738,-40.039,-38.574,-32.227,0.000
1680448962.930,-13.672,-33.203,-40.527,-37.598,0.000
1680448962.934,-7.812,-28.320,-37.598,-30.762,0.000
1680448962.938,-18.066,-27.832,-33.691,-24.414,0.000
1680448962.942,-39.062,-24.902,-37.109,-17.578,0.000
1680448962.946,-27.344,-27.344,-41.504,-11.719,0.000
1680448962.950,-5.859,-33.203,-47.363,-28.320,0.000
1680448962.954,-22.461,-30.273,-38.574,-47.852,0.000
1680448962.958,-45.410,-32.227,-13.184,-27.344,0.000
1680448962.962,-41.504,-32.715,-23.438,-8.789,0.000
1680448962.965,-37.598,-29.785,-37.598,-22.461,0.000
1680448962.969,-21.973,-29.297,-33.203,-26.367,0.000
1680448962.973,-15.625,-24.414,-32.715,-12.207,0.000
1680448962.977,-31.738,-17.578,-29.785,-5.859,0.000
1680448962.981,-20.020,-21.973,-24.414,-15.137,0.000
1680448962.985,0.488,-25.879,-24.902,-26.367,0.000
1680448962.989,-38.574,-25.391,-24.902,-29.785,0.000
1680448962.993,-58.105,-26.855,-24.414,-33.203,0.000
1680448962.997,-33.691,-25.879,-25.391,-31.250,0.000
1680448963.001,-32.715,-25.391,-25.879,-30.273,0.000
1680448963.005,-24.902,-24.414,-29.785,-32.227,0.000
1680448963.008,-27.344,-29.785,-34.180,-44.434,0.000
1680448963.012,-21.484,-31.738,-38.574,-33.203,0.000
1680448963.016,-28.809,-33.203,-21.484,-12.695,0.000
1680448963.020,-36.133,-28.320,-13.672,-17.578,0.000
1680448963.024,-9.766,-22.949,-33.691,-33.691,0.000
1680448963.028,1.953,-29.297,-32.227,-49.316,0.000
1680448963.032,-2.441,-30.273,-29.297,-33.691,0.000
1680448963.036,-23.926,-30.273,-31.738,-6.348,0.000
1680448963.040,-41.504,-30.273,-33.203,-4.395,0.000
1680448963.044,-13.672,-30.273,-30.273,-38.086,0.000
1680448963.048,-26.367,-30.762,-33.691,-58.105,0.000
1680448963.051,-63.477,-35.645,-37.109,-39.551,0.000
1680448963.055,-48.340,-30.762,-37.109,-32.715,0.000
1680448963.059,-38.086,-27.344,-21.973,-24.902,0.000
1680448963.063,-22.949,-32.715,-7.812,-14.648,0.000
1680448963.067,-23.926,-32.227,-24.902,-26.855,0.000
1680448963.071,-19.531,-31.738,-29.785,-25.391,0.000
1680448963.075,-0.488,-28.809,-14.160,-22.949,0.000
1680448963.079,-34.668,-28.809,-11.719,-25.391,0.000
1680448963.083,-41.016,-25.391,-22.949,-23.438,0.000
1680448963.087,-20.508,-26.367,-27.344,-33.203,0.000
1680448963.090,-10.742,-35.645,-31.250,-32.227,0.000
1680448963.094,-6.836,-29.297,-28.809,-25.391,0.000
1680448963.098,-16.602,-26.367,-24.902,-22.949,0.000
1680448963.102,-0.488,-30.273,-35.156,-15.137,0.000
1680448963.106,-33.203,-35.645,-18.066,-37.598,0.000
1680448963.110,-70.801,-46.387,-9.277,-62.500,0.000
1680448963.114,-53.711,-40.039,-37.598,-59.570,0.000
1680448963.118,-36.133,-24.902,-38.086,-38.086,0.000
1680448963.122,-31.738,-37.109,-36.133,-22.949,0.000
1680448963.126,-46.387,-44.434,-39.551,-30.762,0.000
1680448963.130,-40.039,-35.156,-38.574,-36.621,0.000
1680448963.133,-28.809,-29.785,-31.738,-33.691,0.000
1680448963.137,-13.672,-32.227,-29.297,-21.484,0.000
1680448963.141,29.785,-32.227,-33.203,-15.625,0.000
1680448963.145,-3.418,-28.809,-37.109,-32.227,0.000
1680448963.149,-77.148,-39.551,-31.250,-55.664,0.000
1680448963.153,-49.805,-41.016,-19.531,-50.293,0.000
1680448963.157,-42.480,-34.668,-30.273,-37.598,0.000
1680448963.161,-72.266,-37.109,-40.039,-45.410,0.000
1680448963.165,-57.129,-35.645,-28.809,-45.410,0.000
1680448963.169,-45.410,-33.691,-25.391,-43.945,0.000
1680448963.173,-26.367,-32.227,-38.574,-36.133,0.000
1680448963.176,-3.906,-36.133,-36.133,-17.090,0.000
1680448963.180,-20.020,-38.574,-34.180,-23.438,0.000
1680448963.184,-31.738,-31.250,-33.203,-36.133,0.000
1680448963.188,-35.156,-29.785,-33.691,-44.434,0.000
1680448963.192,-36.133,-32.227,-43.457,-48.828,0.000
1680448963.196,-22.949,-30.762,-21.484,-26.855,0.000
1680448963.200,2.441,-28.320,-10.742,-23.438,0.000
1680448963.204,20.020,-22.461,-37.109,-11.230,0.000
1680448963.208,0.488,-23.438,-39.062,-13.184,0.000
1680448963.212,-17.090,-31.250,-40.039,-35.645,0.000
1680448963.215,-37.109,-34.668,-37.598,-28.320,0.000
1680448963.219,-33.691,-35.645,-33.691,-25.879,0.000
1680448963.223,-30.273,-35.645,-31.738,-25.879,0.000
1680448963.227,-18.555,-34.180,-33.203,-13.184,0.000
1680448963.231,-18.555,-34.668,-42.480,-15.625,0.000
1680448963.235,-36.621,-31.250,-42.480,-41.016,0.000
1680448963.239,-28.320,-32.227,-28.809,-39.062,0.000
1680448963.243,-35.645,-34.668,-25.879,-51.270,0.000
1680448963.247,-38.086,-32.227,-38.574,-62.012,0.000
1680448963.251,-0.977,-36.621,-43.945,-51.758,0.000
1680448963.255,15.137,-40.527,-29.297,-30.762,0.000
1680448963.258,-26.367,-33.203,-14.648,-17.578,0.000
1680448963.262,-8.789,-22.949,-27.344,-13.672,0.000
1680448963.266,-18.555,-23.438,-29.785,-30.273,0.000
1680448963.270,-43.457,-26.367,-29.297,-50.293,0.000
1680448963.274,-23.926,-27.832,-28.809,-35.645,0.000
1680448963.278,-13.184,-23.438,-24.414,-12.207,0.000
1680448963.282,-10.742,-20.508,-23.438,-5.859,0.000
1680448963.286,-9.766,-27.832,-23.926,-14.648,0.000
1680448963.290,-0.977,-30.273,-27.832,-28.809,0.000
1680448963.294,-11.719,-30.762,-31.250,-37.598,0.000
1680448963.298,-26.367,-33.203,-25.879,-21.484,0.000
1680448963.301,-31.250,-34.180,-11.230,-12.207,0.000
1680448963.305,-27.832,-32.227,-9.277,-8.301,0.000
1680448963.309,-35.645,-39.062,-26.855,-17.578,0.000
1680448963.313,-38.086,-39.551,-27.344,-42.969,0.000
1680448963.317,-26.367,-31.738,-18.066,-23.926,0.000
1680448963.321,-11.719,-26.367,-20.020,-28.320,0.000
1680448963.325,-5.371,-26.855,-28.809,-42.969,0.000
1680448963.329,-27.344,-29.297,-25.391,-40.527,0.000
1680448963.333,-19.531,-34.668,-20.996,-41.504,0.000
1680448963.337,-33.691,-35.156,-30.762,-32.715,0.000
1680448963.340,-57.129,-30.762,-36.133,-47.363,0.000
1680448963.344,-51.758,-31.250,-34.668,-54.688,0.000
1680448963.348,-56.641,-33.203,-41.016,-49.805,0.000
1680448963.352,-39.551,-32.715,-43.945,-44.434,0.000
1680448963.356,-23.438,-29.297,-37.109,-44.922,0.000
1680448963.360,-20.996,-27.344,-34.180,-39.551,0.000
1680448963.364,-39.062,-25.879,-30.273,-32.715,0.000
1680448963.368,-32.715,-22.949,-31.250,-35.156,0.000
1680448963.372,2.441,-23.438,-35.645,-26.855,0.000
1680448963.376,5.859,-21.484,-28.809,-6.836,0.000
1680448963.380,-32.715,-22.949,-30.762,0.977,0.000
1680448963.383,-53.711,-23.438,-37.598,-27.344,0.000
1680448963.387,-26.855,-20.996,-37.109,-22.461,0.000
1680448963.391,-14.648,-27.344,-27.344,-8.789,0.000
1680448963.395,-13.672,-27.344,-22.949,-37.109,0.000
1680448963.399,-20.020,-19.043,-28.809,-21.484,0.000
1680448963.403,-24.902,-21.484,-33.691,-24.414,0.000
1680448963.407,1.953,-25.879,-37.598,-41.992,0.000
1680448963.411,2.930,-26.855,-38.574,-20.020,0.000
1680448963.415,-33.691,-23.926,-35.645,-22.461,0.000
1680448963.419,-42.969,-23.438,-26.855,-36.133,0.000
1680448963.423,-48.828,-27.344,-25.391,-33.203,0.000
1680448963.426,-52.734,-32.227,-39.551,-43.457,0.000
1680448963.430,-38.086,-31.250,-40.527,-42.969,0.000
1680448963.434,-11.719,-23.926,-23.926,-27.344,0.000
1680448963.438,-3.906,-21.484,-18.555,-4.883,0.000
1680448963.442,-35.645,-23.438,-23.926,-15.625,0.000
1680448963.446,-24.902,-22.461,-33.691,-39.551,0.000
1680448963.450,-15.137,-26.855,-26.855,-31.250,0.000
1680448963.454,-23.438,-34.180,-19.043,-37.109,0.000
1680448963.458,-20.996,-28.320,-26.855,-36.621,0.000
1680448963.462,-47.363,-22.461,-27.344,-19.531,0.000
1680448963.465,-51.270,-24.414,-30.273,-9.277,0.000
1680448963.469,-30.273,-24.902,-32.715,-13.672,0.000
1680448963.473,-13.184,-28.809,-36.621,-32.715,0.000
1680448963.477,-24.902,-32.227,-39.062,-30.273,0.000
1680448963.481,-46.387,-34.668,-15.137,-19.043,0.000
1680448963.485,-33.691,-36.621,-14.160,-7.812,0.000
1680448963.489,-16.113,-34.180,-38.086,-15.625,0.000
1680448963.493,-24.414,-39.551,-40.527,-38.574,0.000
1680448963.497,-41.016,-38.574,-37.109,-32.715,0.000
1680448963.501,-39.551,-33.691,-37.598,-31.250,0.000
1680448963.505,-22.461,-37.109,-43.457,-40.039,0.000
1680448963.508,-25.879,-36.621,-41.504,-41.016,0.000
1680448963.512,-26.367,-32.227,-41.992,-32.715,0.000
1680448963.516,-37.109,-31.738,-39.551,-24.902,0.000
1680448963.520,-41.992,-36.133,-38.574,-29.785,0.000
1680448963.524,-10.742,-33.203,-25.879,-35.156,0.000
1680448963.528,-25.391,-32.715,-12.207,-46.875,0.000
1680448963.532,-41.992,-32.715,-34.180,-43.945,0.000
1680448963.536,-22.949,-31.250,-41.504,-20.020,0.000
1680448963.540,-42.480,-31.250,-31.250,-24.902,0.000
1680448963.544,-46.387,-29.785,-31.250,-43.457,0.000
1680448963.547,-21.484,-31.738,-41.016,-50.781,0.000
1680448963.551,-20.020,-34.180,-43.457,-52.734,0.000
1680448963.555,-22.461,-30.273,-37.109,-34.180,0.000
1680448963.559,-6.348,-28.320,-34.180,-13.672,0.000
1680448963.563,-4.395,-25.879,-31.250,-6.836,0.000
1680448963.567,-20.020,-25.879,-35.645,-4.395,0.000
1680448963.571,-44.922,-32.715,-17.578,-29.297,0.000
1680448963.575,-58.594,-35.645,-8.301,-45.410,0.000
1680448963.579,-56.152,-33.203,-31.250,-35.156,0.000
1680448963.583,-55.664,-34.668,-35.645,-32.227,0.000
1680448963.587,-57.129,-40.039,-38.086,-36.133,0.000
1680448963.590,-44.434,-43.945,-43.457,-47.852,0.000
1680448963.594,-36.133,-41.016,-41.992,-38.086,0.000
1680448963.598,-30.762,-38.086,-33.203,-18.555,0.000
1680448963.602,-11.230,-37.109,-26.855,-12.207,0.000
1680448963.606,-38.086,-39.062,-32.715,-31.250,0.000
1680448963.610,-61.523,-34.180,-39.551,-48.828,0.000
1680448963.614,-35.156,-29.297,-33.203,-42.480,0.000
1680448963.618,-33.203,-34.668,-15.625,-35.645,0.000
1680448963.622,-29.297,-28.809,-19.531,-30.762,0.000
1680448963.626,-3.906,-24.414,-29.297,-29.297,0.000
1680448963.630,1.953,-26.367,-30.273,-28.809,0.000
1680448963.633,-12.695,-26.367,-30.762,-19.531,0.000
1680448963.637,-16.602,-24.902,-28.320,-17.578,0.000
1680448963.641,-10.254,-26.367,-25.879,-25.391,0.000
1680448963.645,-29.297,-30.273,-30.273,-37.598,0.000
1680448963.649,-37.109,-24.902,-32.227,-35.156,0.000
1680448963.653,-41.992,-24.902,-29.785,-20.508,0.000
1680448963.657,-35.156,-26.367,-33.691,-33.691,0.000
1680448963.661,-11.719,-34.668,-19.043,-30.762,0.000
1680448963.665,-13.184,-38.086,-12.695,-9.277,0.000
1680448963.669,-26.367,-31.738,-33.203,-42.969,0.000
1680448963.672,-29.297,-32.227,-35.645,-57.617,0.000
1680448963.676,-37.598,-29.297,-31.250,-34.180,0.000
1680448963.680,-45.410,-24.414,-28.320,-14.160,0.000
1680448963.684,-29.785,-28.320,-35.156,-19.043,0.000
1680448963.688,-21.973,-34.668,-40.039,-51.758,0.000
1680448963.692,-26.855,-35.645,-40.039,-53.711,0.000
1680448963.696,-33.203,-28.320,-35.645,-33.203,0.000
1680448963.700,-41.992,-20.508,-32.715,-7.324,0.000
1680448963.704,-15.625,-21.484,-31.738,-21.973,0.000
1680448963.708,-23.438,-31.250,-29.785,-63.477,0.000
1680448963.712,-35.645,-31.250,-37.598,-43.945,0.000
1680448963.715,-22.461,-29.785,-37.598,-32.227,0.000
1680448963.719,-29.297,-32.227,-31.738,-32.227,0.000
1680448963.723,-20.020,-29.785,-32.227,-33.203,0.000
1680448963.727,-39.062,-26.855,-34.180,-59.570,0.000
1680448963.731,-34.180,-26.367,-36.133,-55.176,0.000
1680448963.735,-4.883,-23.438,-34.180,-39.551,0.000
1680448963.739,-38.086,-22.461,-33.691,-37.109,0.000
1680448963.743,-34.668,-26.367,-38.086,-32.227,0.000
1680448963.747,-2.930,-27.832,-42.969,-28.809,0.000
1680448963.751,-15.625,-28.809,-40.039,-32.227,0.000
1680448963.755,-41.992,-32.227,-34.668,-36.621,0.000
1680448963.758,-70.801,-37.109,-41.016,-28.809,0.000
1680448963.762,-57.129,-29.785,-38.574,-30.762,0.000
1680448963.766,-42.480,-31.738,-25.391,-42.969,0.000
1680448963.770,-35.645,-36.133,-34.180,-36.133,0.000
1680448963.774,-17.578,-29.785,-42.480,-9.277,0.000
1680448963.778,-6.348,-23.438,-36.133,-20.996,0.000
1680448963.782,-27.832,-21.484,-37.109,-36.133,0.000
1680448963.786,-47.363,-21.973,-36.621,-36.621,0.000
1680448963.790,-33.691,-23.926,-41.016,-43.945,0.000
1680448963.794,-26.367,-21.973,-41.016,-27.832,0.000
1680448963.797,-35.645,-23.438,-37.109,-11.230,0.000
1680448963.801,-37.598,-31.738,-39.062,-26.855,0.000
1680448963.805,-36.621,-33.691,-43.945,-51.270,0.000
1680448963.809,-17.090,-36.133,-37.598,-62.500,0.000
1680448963.813,2.441,-32.715,-21.973,-40.039,0.000
1680448963.817,-15.137,-30.273,-28.809,-18.555,0.000
1680448963.821,-22.461,-28.809,-34.180,-12.207,0.000
1680448963.825,-41.504,-26.367,-33.691,-29.297,0.000
1680448963.829,-42.969,-32.227,-39.062,-51.758,0.000
1680448963.833,-38.086,-36.133,-41.504,-30.273,0.000
1680448963.837,-36.621,-33.203,-35.156,-22.949,0.000
1680448963.840,-9.766,-28.320,-26.855,-29.297,0.000
1680448963.844,-4.395,-26.855,-28.809,-28.320,0.000
1680448963.848,-30.273,-29.297,-35.156,-42.480,0.000
1680448963.852,-31.738,-31.250,-40.039,-47.363,0.000
1680448963.856,-5.371,-31.738,-27.344,-17.090,0.000
1680448963.860,-17.090,-32.715,-18.555,-6.348,0.000
1680448963.864,-7.324,-25.879,-24.902,-26.367,0.000
1680448963.868,-16.602,-23.926,-30.762,-47.363,0.000
1680448963.872,-56.152,-30.273,-34.668,-49.316,0.000
1680448963.876,-56.152,-31.250,-26.855,-6.836,0.000
1680448963.880,-48.340,-31.250,-23.926,1.953,0.000
1680448963.883,-29.785,-27.344,-26.367,-26.855,0.000
1680448963.887,-20.508,-29.785,-31.738,-28.809,0.000
1680448963.891,-15.625,-28.320,-36.133,-30.273,0.000
1680448963.895,-4.395,-27.832,-35.156,-15.625,0.000
1680448963.899,-22.461,-35.156,-28.320,-3.906,0.000
1680448963.903,-39.062,-36.133,-17.578,-37.109,0.000
1680448963.907,-33.203,-33.691,-27.344,-53.223,0.000
1680448963.911,-23.438,-30.762,-36.133,-36.621,0.000
1680448963.915,-33.203,-30.762,-30.273,-29.297,0.000
1680448963.919,-32.715,-30.762,-28.320,-9.766,0.000
1680448963.922,-35.645,-30.273,-34.180,-17.578,0.000
1680448963.926,-5.371,-28.320,-35.645,-45.410,0.000
1680448963.930,-1.465,-26.367,-32.227,-54.688,0.000
1680448963.934,-45.410,-27.344,-28.809,-42.969,0.000
1680448963.938,-40.527,-28.809,-27.832,-24.902,0.000
1680448963.942,-36.133,-31.250,-26.855,-26.855,0.000
1680448963.946,-44.922,-35.645,-34.180,-32.227,0.000
1680448963.950,-31.738,-38.574,-36.621,-40.039,0.000
1680448963.954,-31.738,-35.156,-29.297,-36.133,0.000
1680448963.958,-38.574,-27.832,-27.832,-14.160,0.000
1680448963.962,-10.742,-26.855,-12.695,-22.461,0.000
1680448963.965,21.484,-29.785,-8.789,-30.273,0.000
1680448963.969,-35.645,-36.133,-27.344,-30.273,0.000
1680448963.973,-88.867,-42.969,-32.227,-43.457,0.000
1680448963.977,-65.430,-35.156,-23.438,-32.227,0.000
1680448963.981,-34.668,-28.320,-23.926,-20.508,0.000
1680448963.985,-26.855,-29.785,-35.645,-31.738,0.000
1680448963.989,-14.648,-36.621,-31.250,-47.852,0.000
1680448963.993,-21.973,-41.016,-19.531,-39.062,0.000
1680448963.997,-53.711,-34.668,-24.902,-2.930,0.000
1680448964.001,-46.387,-35.645,-30.762,-8.789,0.000
1680448964.004,-33.203,-41.016,-34.180,-40.039,0.000
1680448964.008,-29.297,-34.180,-39.062,-38.086,0.000
1680448964.012,-5.859,-30.273,-41.016,-32.715,0.000
1680448964.016,33.203,-29.785,-35.156,-27.832,0.000
1680448964.020,6.348,-20.020,-29.297,-37.109,0.000
1680448964.024,-43.945,-21.973,-32.227,-47.852,0.000
1680448964.028,-34.668,-33.203,-35.156,-51.270,0.000
1680448964.032,-23.926,-30.273,-40.527,-35.645,0.000
1680448964.036,-29.297,-26.367,-21.973,-25.879,0.000
1680448964.040,-24.902,-27.344,-9.766,-26.367,0.000
1680448964.044,-20.020,-27.344,-31.738,-33.691,0.000
1680448964.047,-10.742,-30.762,-34.180,-39.551,0.000
1680448964.051,-5.859,-32.715,-34.668,-35.645,0.000
1680448964.055,22.461,-30.762,-34.668,-26.367,0.000
1680448964.059,14.648,-30.762,-28.320,9.277,0.000
1680448964.063,-55.664,-32.715,-25.879,-2.930,0.000
1680448964.067,-49.805,-33.203,-26.855,-57.617,0.000
1680448964.071,-21.973,-32.715,-35.156,-71.777,0.000
1680448964.075,-43.945,-32.227,-37.109,-55.176,0.000
1680448964.079,-48.828,-30.762,-24.414,-36.133,0.000
1680448964.083,-29.785,-35.156,-12.695,-20.508,0.000
1680448964.087,-23.926,-38.574,-29.297,-27.344,0.000
1680448964.090,1.953,-37.598,-41.016,-27.832,0.000
1680448964.094,0.488,-38.086,-41.016,-27.344,0.000
1680448964.098,-11.230,-39.062,-40.527,-24.902,0.000
1680448964.102,-22.461,-34.668,-36.133,-30.273,0.000
1680448964.106,-44.922,-33.691,-40.039,-31.738,0.000
1680448964.110,-50.293,-38.086,-43.457,-27.344,0.000
1680448964.114,-46.387,-41.016,-37.598,-31.250,0.000
1680448964.118,-22.949,-34.668,-33.203,-29.297,0.000
1680448964.122,-9.277,-28.809,-27.344,-23.926,0.000
1680448964.126,-3.418,-28.809,-21.484,-27.344,0.000
1680448964.129,7.812,-31.250,-24.414,-38.086,0.000
1680448964.133,-24.414,-29.785,-25.391,-29.785,0.000
1680448964.137,-58.105,-26.367,-25.391,-27.832,0.000
1680448964.141,-28.809,-33.691,-20.020,-35.156,0.000
1680448964.145,-3.418,-33.203,-20.996,-32.715,0.000
1680448964.149,-23.926,-25.879,-31.250,-26.855,0.000
1680448964.153,-27.832,-30.273,-29.297,-14.648,0.000
1680448964.157,-17.090,-31.250,-22.461,0.977,0.000
1680448964.161,-20.508,-25.879,-24.902,-14.648,0.000
1680448964.165,-30.273,-27.344,-30.273,-34.668,0.000
1680448964.169,-46.387,-30.273,-32.227,-50.293,0.000
1680448964.172,-50.781,-33.203,-35.645,-49.805,0.000
1680448964.176,-37.109,-32.715,-30.762,-32.715,0.000
1680448964.180,-38.574,-27.832,-32.227,-26.855,0.000
1680448964.184,-33.203,-35.645,-32.227,-34.668,0.000
1680448964.188,-27.832,-41.504,-23.438,-47.852,0.000
1680448964.192,-37.598,-45.410,-40.039,-53.711,0.000
1680448964.196,-27.344,-44.922,-46.387,-41.504,0.000
1680448964.200,-16.602,-39.551,-38.086,-22.461,0.000
1680448964.204,-46.875,-34.668,-30.762,-12.207,0.000
1680448964.208,-43.457,-30.762,-29.297,-33.203,0.000
1680448964.212,-15.625,-32.715,-31.738,-32.715,0.000
1680448964.215,-27.344,-35.645,-31.250,-20.996,0.000
1680448964.219,-41.016,-32.227,-28.809,-24.902,0.000
1680448964.223,-35.645,-27.832,-28.809,-32.715,0.000
1680448964.227,-17.578,-25.879,-35.156,-20.508,0.000
1680448964.231,-22.461,-29.785,-24.414,-14.648,0.000
1680448964.235,-9.277,-34.668,-16.602,-41.992,0.000
1680448964.239,7.812,-29.297,-24.414,-28.809,0.000
1680448964.243,-25.391,-21.484,-23.926,-27.832,0.000
1680448964.247,-38.574,-25.391,-32.715,-38.086,0.000
1680448964.251,-10.254,-35.156,-41.992,-34.180,0.000
1680448964.254,-33.203,-30.762,-34.668,-21.484,0.000
1680448964.258,-44.434,-19.531,-23.438,0.000,0.000
1680448964.262,-29.297,-21.973,-28.320,-13.672,0.000
1680448964.266,-37.598,-28.320,-37.109,-37.109,0.000
1680448964.270,-41.016,-30.273,-41.992,-46.387,0.000
1680448964.274,-36.133,-31.738,-37.598,-25.391,0.000
1680448964.278,-43.945,-33.203,-20.020,0.488,0.000
1680448964.282,-17.578,-32.227,-28.320,-24.902,0.000
1680448964.286,14.648,-25.879,-39.062,-42.480,0.000
1680448964.290,-20.508,-24.414,-32.227,-34.668,0.000
1680448964.294,-22.949,-26.367,-29.297,-16.602,0.000
1680448964.297,-6.836,-26.367,-28.320,-7.812,0.000
1680448964.301,-19.531,-20.996,-22.461,-13.672,0.000
1680448964.305,-19.043,-22.949,-25.879,-34.668,0.000
1680448964.309,-28.320,-24.414,-32.227,-33.691,0.000
1680448964.313,-38.086,-21.973,-31.738,-23.438,0.000
1680448964.317,-29.297,-26.367,-37.109,-40.527,0.000
1680448964.321,-31.738,-32.715,-19.531,-45.410,0.000
1680448964.325,-50.781,-35.645,-14.648,-38.574,0.000
1680448964.329,-47.852,-35.156,-40.039,-41.992,0.000
1680448964.333,-29.785,-29.297,-36.133,-39.062,0.000
1680448964.337,-14.160,-24.414,-28.320,-16.602,0.000
1680448964.340,-16.113,-25.879,-28.809,-14.160,0.000
1680448964.344,3.906,-25.391,-30.273,-31.250,0.000
1680448964.348,-11.230,-23.926,-31.738,-36.133,0.000
1680448964.352,-57.129,-23.926,-30.762,-30.273,0.000
1680448964.356,-29.785,-28.809,-31.250,-18.555,0.000
1680448964.360,-15.137,-29.297,-35.156,-21.484,0.000
1680448964.364,-20.020,-29.297,-30.273,-16.113,0.000
1680448964.368,-22.461,-35.645,-15.625,-25.391,0.000
1680448964.372,-30.273,-36.133,-24.414,-31.738,0.000
1680448964.376,-37.598,-36.133,-30.273,-0.977,0.000
1680448964.379,-38.574,-40.039,-27.832,-24.414,0.000
1680448964.383,-26.367,-37.598,-32.227,-52.734,0.000
1680448964.387,-7.812,-39.062,-35.645,-48.828,0.000
1680448964.391,-1.953,-35.645,-34.668,-42.969,0.000
1680448964.395,-19.043,-30.762,-30.762,-24.414,0.000
1680448964.399,-23.926,-28.809,-24.414,-30.273,0.000
1680448964.403,-21.973,-28.320,-23.438,-45.410,0.000
1680448964.407,-42.480,-28.809,-32.715,-47.363,0.000
1680448964.411,-34.668,-31.738,-23.926,-61.523,0.000
1680448964.415,-30.273,-30.762,-15.625,-50.781,0.000
1680448964.419,-12.207,-24.902,-28.320,-18.555,0.000
1680448964.422,-6.836,-20.996,-32.227,-13.672,0.000
1680448964.426,-17.090,-16.113,-32.715,-9.277,0.000
1680448964.430,18.555,-22.949,-38.086,-15.137,0.000
1680448964.434,18.555,-34.668,-41.992,-44.434,0.000
1680448964.438,-46.875,-37.109,-35.156,-40.527,0.000
1680448964.442,-83.008,-38.574,-33.691,-22.949,0.000
1680448964.446,-66.406,-38.086,-36.621,-25.879,0.000
1680448964.450,-48.340,-38.086,-38.086,-40.039,0.000
1680448964.454,-24.902,-39.062,-30.762,-46.387,0.000
1680448964.458,-18.066,-39.551,-9.766,-41.992,0.000
1680448964.461,-26.855,-36.621,-21.484,-32.227,0.000
1680448964.465,-44.922,-34.668,-36.621,-29.785,0.000
1680448964.469,-49.805,-30.762,-34.668,-46.875,0.000
1680448964.473,-41.504,-31.738,-38.574,-45.898,0.000
1680448964.477,-23.438,-31.250,-34.668,-39.062,0.000
1680448964.481,-32.715,-26.367,-28.320,-34.180,0.000
1680448964.485,-45.898,-25.879,-23.438,-38.086,0.000
1680448964.489,-16.113,-23.438,-20.508,-46.387,0.000
1680448964.493,-13.184,-31.250,-28.320,-19.043,0.000
1680448964.497,-29.785,-36.621,-28.809,-19.531,0.000
1680448964.501,-26.367,-21.973,-8.789,-35.156,0.000
1680448964.504,11.230,-19.531,-10.254,-19.043,0.000
1680448964.508,14.648,-28.809,-27.832,-33.691,0.000
1680448964.512,-20.020,-27.832,-27.832,-46.875,0.000
1680448964.516,-51.270,-30.273,-20.020,-25.391,0.000
1680448964.520,-63.965,-28.809,-22.461,-11.230,0.000
1680448964.524,-46.875,-24.414,-28.809,-35.645,0.000
1680448964.528,-45.898,-32.227,-34.668,-46.875,0.000
1680448964.532,-23.438,-37.598,-38.574,-15.625,0.000
1680448964.536,-3.906,-34.668,-35.645,-22.461,0.000
1680448964.540,-26.367,-28.809,-31.250,-35.645,0.000
1680448964.544,-25.879,-22.949,-25.391,-24.902,0.000
1680448964.547,-23.926,-23.926,-30.273,-35.156,0.000
1680448964.551,-27.344,-30.762,-39.062,-46.387,0.000
1680448964.555,-21.484,-26.855,-40.527,-28.809,0.000
1680448964.559,-22.461,-21.973,-25.879,-2.930,0.000
1680448964.563,-10.254,-25.879,-18.555,-14.160,0.000
1680448964.567,11.230,-32.227,-36.133,-36.621,0.000
1680448964.571,-20.508,-31.250,-37.109,-40.039,0.000
1680448964.575,-40.527,-30.273,-33.203,-40.039,0.000
1680448964.579,-18.555,-25.391,-25.391,3.418,0.000
1680448964.583,-26.367,-22.949,-24.414,8.301,0.000
1680448964.586,-31.738,-31.738,-35.645,-43.457,0.000
1680448964.590,-28.809,-30.762,-31.250,-47.363,0.000
1680448964.594,-26.367,-22.461,-20.020,-30.762,0.000
1680448964.598,-13.184,-20.508,-20.996,-13.184,0.000
1680448964.602,5.371,-19.043,-26.367,-29.785,0.000
1680448964.606,-5.859,-20.020,-15.137,-46.875,0.000
1680448964.610,-24.902,-26.855,-19.531,-43.945,0.000
1680448964.614,-14.160,-19.531,-30.762,-26.367,0.000
1680448964.618,6.348,-12.695,-20.020,-2.441,0.000
1680448964.622,-8.301,-19.043,-21.973,-7.812,0.000
1680448964.626,-27.832,-24.902,-28.320,-29.297,0.000
1680448964.629,-29.297,-28.809,-36.621,-45.410,0.000
1680448964.633,-26.367,-31.738,-40.527,-39.551,0.000
1680448964.637,-4.883,-29.785,-35.156,-17.578,0.000
1680448964.641,-29.785,-27.344,-32.715,-26.367,0.000
1680448964.645,-46.875,-26.367,-39.062,-40.527,0.000
1680448964.649,-30.762,-32.715,-38.086,-49.316,0.000
1680448964.653,-34.180,-34.180,-21.484,-44.922,0.000
1680448964.657,-27.344,-25.879,-25.879,-19.531,0.000
1680448964.661,-6.836,-24.414,-28.809,-3.906,0.000
1680448964.665,-7.324,-25.879,-28.320,-27.832,0.000
1680448964.669,-30.273,-33.203,-37.109,-56.641,0.000
1680448964.672,-44.434,-37.109,-41.992,-48.340,0.000
1680448964.676,-21.973,-36.621,-39.062,-28.320,0.000
1680448964.680,-14.160,-39.062,-35.156,-15.137,0.000
1680448964.684,-28.809,-36.621,-35.156,-22.949,0.000
1680448964.688,-18.555,-32.227,-35.156,-43.945,0.000
1680448964.692,-12.695,-30.273,-37.598,-37.598,0.000
1680448964.696,-14.648,-30.762,-21.973,-13.672,0.000
1680448964.700,-41.992,-29.785,-14.160,-9.277,0.000
1680448964.704,-54.199,-25.391,-33.691,-19.531,0.000
1680448964.708,-40.527,-28.809,-42.969,-23.926,0.000
1680448964.711,-44.922,-29.785,-41.504,-56.152,0.000
1680448964.715,-51.270,-29.297,-39.551,-59.082,0.000
1680448964.719,-39.551,-29.297,-40.039,-28.320,0.000
1680448964.723,-3.906,-27.344,-34.668,-21.484,0.000
1680448964.727,3.906,-28.809,-38.086,-27.832,0.000
1680448964.731,-34.180,-33.203,-40.039,-44.922,0.000
1680448964.735,-20.020,-28.320,-37.598,-33.203,0.000
1680448964.739,-2.930,-33.691,-34.180,-25.879,0.000
1680448964.743,-23.926,-41.016,-22.461,-32.715,0.000
1680448964.747,-42.480,-33.203,-33.691,-26.367,0.000
1680448964.751,-62.012,-35.645,-42.480,-42.969,0.000
1680448964.754,-38.574,-37.598,-35.156,-43.945,0.000
1680448964.758,-30.762,-32.715,-30.762,-25.391,0.000
1680448964.762,-53.711,-36.133,-30.762,-35.645,0.000
1680448964.766,-34.180,-40.039,-34.180,-40.039,0.000
1680448964.770,-8.789,-37.109,-34.668,-22.461,0.000
1680448964.774,-30.273,-33.203,-30.762,-20.020,0.000
1680448964.778,-51.270,-34.180,-25.879,-31.738,0.000
1680448964.782,-53.711,-33.691,-27.832,-40.039,0.000
1680448964.786,-44.922,-37.598,-23.438,-47.363,0.000
1680448964.790,-48.340,-41.016,-23.438,-41.504,0.000
1680448964.793,-41.016,-36.133,-37.109,-33.203,0.000
1680448964.797,-15.137,-37.109,-41.016,-44.434,0.000
1680448964.801,-27.344,-33.691,-39.551,-47.852,0.000
1680448964.805,-57.129,-31.250,-38.574,-52.734,0.000
1680448964.809,-63.965,-39.551,-47.363,-60.059,0.000
1680448964.813,-61.035,-41.992,-52.734,-49.805,0.000
1680448964.817,-45.898,-35.645,-46.875,-41.016,0.000
1680448964.821,-45.410,-37.598,-43.945,-46.875,0.000
1680448964.825,-40.039,-34.668,-41.016,-45.410,0.000
1680448964.829,-31.738,-23.926,-27.344,-25.879,0.000
1680448964.833,-34.668,-28.809,-15.137,-33.691,0.000
1680448964.836,-18.555,-34.180,-25.391,-41.504,0.000
1680448964.840,-25.879,-30.762,-36.621,-23.438,0.000
1680448964.844,-47.852,-30.762,-35.645,-30.762,0.000
1680448964.848,-42.480,-36.133,-37.109,-32.227,0.000
1680448964.852,-17.578,-33.203,-39.062,-8.301,0.000
1680448964.856,-0.977,-25.879,-32.715,-20.996,0.000
1680448964.860,-28.809,-25.391,-24.902,-25.879,0.000
1680448964.864,-26.367,-26.367,-28.320,-20.996,0.000
1680448964.868,-20.508,-32.227,-38.574,-39.551,0.000
1680448964.872,-46.387,-32.715,-42.480,-51.270,0.000
1680448964.876,-48.828,-30.762,-32.715,-32.715,0.000
1680448964.879,-41.992,-33.203,-26.367,-18.555,0.000
1680448964.883,-37.109,-32.715,-34.668,-30.762,0.000
1680448964.887,-29.785,-34.668,-40.039,-30.273,0.000
1680448964.891,-13.672,-38.086,-26.367,-38.574,0.000
1680448964.895,-31.738,-27.832,-20.996,-38.574,0.000
1680448964.899,-27.344,-23.438,-27.832,-16.113,0.000
1680448964.903,-8.301,-25.879,-29.297,-9.277,0.000
1680448964.907,-10.254,-25.391,-35.645,-16.602,0.000
1680448964.911,5.371,-25.879,-37.598,-18.555,0.000
1680448964.915,-11.719,-22.949,-33.691,-34.668,0.000
1680448964.918,-31.738,-20.996,-31.738,-26.855,0.000
1680448964.922,-11.719,-20.020,-31.250,-14.160,0.000
1680448964.926,0.488,-31.250,-31.250,-25.879,0.000
1680448964.930,-4.395,-40.039,-33.203,-40.039,0.000
1680448964.934,-22.461,-32.227,-21.973,-36.133,0.000
1680448964.938,-33.691,-34.668,-9.277,-29.297,0.000
1680448964.942,-19.531,-35.156,-22.461,-31.738,0.000
1680448964.946,-13.672,-28.320,-32.227,-33.691,0.000
1680448964.950,-27.832,-30.273,-35.156,-41.504,0.000
1680448964.954,-11.719,-31.250,-34.668,-26.367,0.000
1680448964.958,0.977,-29.297,-33.203,-16.602,0.000
1680448964.961,-21.484,-30.762,-30.762,-21.973,0.000
1680448964.965,-21.484,-32.227,-32.715,-16.113,0.000
1680448964.969,-6.836,-30.273,-39.062,-27.832,0.000
1680448964.973,-24.902,-33.691,-37.598,-18.066,0.000
1680448964.977,10.254,-37.598,-33.203,-10.742,0.000
1680448964.981,35.645,-35.645,-15.137,-25.391,0.000
1680448964.985,-40.039,-39.551,-13.672,-39.062,0.000
1680448964.989,-63.965,-34.668,-34.180,-53.223,0.000
1680448964.993,-49.316,-35.645,-40.039,-45.898,0.000
1680448964.997,-41.992,-41.016,-36.133,-32.227,0.000
1680448965.001,-30.273,-32.227,-32.227,-24.414,0.000
1680448965.004,-9.277,-29.785,-33.691,-24.902,0.000
1680448965.008,-6.836,-30.762,-35.156,-37.109,0.000
1680448965.012,-5.859,-31.250,-34.180,-40.039,0.000
1680448965.016,7.324,-29.785,-29.297,-10.742,0.000
1680448965.020,-20.996,-27.344,-30.762,-0.977,0.000
1680448965.024,-57.617,-30.273,-25.879,-28.320,0.000
1680448965.028,-35.645,-35.645,-13.672,-34.180,0.000
1680448965.032,-15.137,-29.297,-25.391,-39.062,0.000
1680448965.036,-27.344,-28.809,-28.809,-14.160,0.000
1680448965.040,-30.762,-33.203,-23.438,-3.418,0.000
1680448965.043,-13.184,-28.320,-22.461,-42.969,0.000
1680448965.047,11.230,-27.344,-26.367,-44.434,0.000
1680448965.051,-4.395,-29.785,-27.832,-29.785,0.000
1680448965.055,-27.832,-26.855,-23.438,-26.367,0.000
1680448965.059,-9.277,-26.367,-25.391,-29.785,0.000
1680448965.063,-6.836,-25.391,-27.832,-19.043,0.000
1680448965.067,-20.020,-24.902,-39.551,-8.789,0.000
1680448965.071,-20.020,-27.344,-23.926,-0.977,0.000
1680448965.075,-33.203,-22.949,-11.719,-8.789,0.000
1680448965.079,-11.719,-20.020,-26.367,-25.391,0.000
1680448965.083,9.766,-20.508,-27.832,-27.344,0.000
