timestamps,TP9,AF7,AF8,TP10,Right AUX
1680451119.209,-39.551,-41.016,-35.645,-19.043,0.000
1680451119.213,-44.434,-41.504,-51.270,-42.969,0.000
1680451119.217,-40.039,-40.039,-44.434,-32.227,0.000
1680451119.221,-40.527,-36.621,-27.344,-23.438,0.000
1680451119.225,-50.781,-33.691,-1.465,-30.762,0.000
1680451119.229,-56.641,-35.645,-6.836,-48.828,0.000
1680451119.233,-42.969,-28.320,-18.066,-47.852,0.000
1680451119.237,-36.621,-27.344,-23.926,-35.156,0.000
1680451119.241,-42.969,-32.715,-26.367,-31.738,0.000
1680451119.244,-46.875,-33.691,-29.297,-40.039,0.000
1680451119.248,-51.758,-34.180,-34.180,-53.223,0.000
1680451119.252,-49.805,-32.227,-38.086,-55.664,0.000
1680451119.256,-40.039,-32.715,-32.227,-41.992,0.000
1680451119.260,-39.062,-37.109,-27.344,-30.762,0.000
1680451119.264,-33.203,-31.250,-25.879,-24.902,0.000
1680451119.268,-33.203,-31.738,-30.762,-29.297,0.000
1680451119.272,-30.762,-36.621,-35.645,-43.945,0.000
1680451119.276,-28.320,-28.320,-34.180,-38.574,0.000
1680451119.280,-29.297,-23.438,-26.855,-23.438,0.000
1680451119.284,-30.273,-28.320,-29.297,-23.438,0.000
1680451119.288,-37.109,-31.250,-37.109,-29.297,0.000
1680451119.291,-35.156,-28.809,-34.668,-30.273,0.000
1680451119.295,-32.227,-26.855,-29.297,-22.949,0.000
1680451119.299,-39.062,-27.344,-23.438,-22.461,0.000
1680451119.303,-44.434,-36.133,-30.762,-27.344,0.000
1680451119.307,-43.945,-43.945,-51.758,-34.180,0.000
1680451119.311,-44.434,-39.062,-47.363,-42.480,0.000
1680451119.315,-38.574,-30.762,-35.645,-34.668,0.000
1680451119.319,-30.273,-26.367,-30.273,-20.508,0.000
1680451119.323,-28.809,-20.508,-20.020,-22.949,0.000
1680451119.327,-14.648,-20.508,-18.066,-23.438,0.000
1680451119.331,-29.785,-30.762,-22.461,-40.527,0.000
1680451119.334,-59.570,-44.922,-29.297,-55.176,0.000
1680451119.338,-41.504,-47.363,-24.414,-25.879,0.000
1680451119.342,-30.273,-41.016,-16.602,-19.531,0.000
1680451119.346,-27.344,-36.133,-17.578,-39.062,0.000
1680451119.350,-29.785,-33.203,-18.066,-38.086,0.000
1680451119.354,-41.992,-33.203,-19.043,-29.785,0.000
1680451119.358,-38.086,-37.109,-20.020,-22.949,0.000
1680451119.362,-38.086,-39.062,-22.461,-14.648,0.000
1680451119.366,-36.621,-37.598,-34.180,-21.973,0.000
1680451119.370,-26.855,-35.156,-32.715,-30.762,0.000
1680451119.374,-23.438,-36.621,-16.602,-14.648,0.000
1680451119.377,-29.785,-41.016,-32.715,-12.695,0.000
1680451119.381,-42.969,-50.781,-44.434,-31.738,0.000
1680451119.385,-35.645,-54.199,-30.273,-41.016,0.000
1680451119.389,-29.297,-44.922,-21.973,-49.316,0.000
1680451119.393,-19.043,-35.156,-12.695,-51.758,0.000
1680451119.397,-28.809,-36.133,-25.391,-41.016,0.000
1680451119.401,-39.062,-34.180,-28.320,-17.578,0.000
1680451119.405,-29.297,-29.297,-20.508,-19.531,0.000
1680451119.409,-43.457,-32.715,-28.320,-52.734,0.000
1680451119.413,-43.945,-35.156,-32.227,-52.246,0.000
1680451119.416,-34.180,-30.273,-40.527,-28.809,0.000
1680451119.420,-33.691,-19.531,-45.898,-14.160,0.000
1680451119.424,-46.387,-27.344,-28.809,-22.949,0.000
1680451119.428,-43.945,-30.273,-30.762,-43.945,0.000
1680451119.432,-28.809,-23.926,-39.551,-51.758,0.000
1680451119.436,-27.832,-25.879,-21.484,-42.480,0.000
1680451119.440,-28.809,-29.297,-26.367,-31.738,0.000
1680451119.444,-28.809,-26.367,-37.109,-31.738,0.000
1680451119.448,-35.645,-28.320,-21.973,-42.969,0.000
1680451119.452,-25.879,-29.785,-19.531,-34.180,0.000
1680451119.456,-12.695,-26.855,-28.809,-13.672,0.000
1680451119.459,-20.508,-26.855,-24.414,-18.066,0.000
1680451119.463,-31.738,-29.297,-35.156,-25.879,0.000
1680451119.467,-36.133,-26.367,-34.180,-40.039,0.000
1680451119.471,-42.969,-32.715,-8.789,-45.898,0.000
1680451119.475,-39.551,-41.504,-4.883,-39.062,0.000
1680451119.479,-29.785,-36.133,-14.160,-37.109,0.000
1680451119.483,-24.902,-28.809,-17.578,-29.297,0.000
1680451119.487,-27.832,-25.879,-25.391,-27.344,0.000
1680451119.491,-20.996,-27.832,-36.621,-32.715,0.000
1680451119.495,-15.625,-33.691,-29.785,-35.156,0.000
1680451119.499,-26.367,-36.621,-20.508,-24.902,0.000
1680451119.502,-26.855,-25.879,-23.926,-24.902,0.000
1680451119.506,-13.184,-19.531,-22.461,-30.273,0.000
1680451119.510,-10.254,-14.648,-19.531,-28.809,0.000
1680451119.514,-21.973,-18.555,-22.461,-35.645,0.000
1680451119.518,-28.320,-28.809,-20.020,-38.086,0.000
1680451119.522,-30.762,-29.297,-20.508,-31.250,0.000
1680451119.526,-35.645,-30.762,-18.555,-27.344,0.000
1680451119.530,-40.527,-30.273,-24.902,-43.457,0.000
1680451119.534,-34.668,-26.367,-34.668,-53.711,0.000
1680451119.538,-22.949,-23.438,-30.762,-25.879,0.000
1680451119.541,-25.879,-31.738,-20.508,-4.395,0.000
1680451119.545,-23.438,-37.109,-25.879,-25.879,0.000
1680451119.549,-15.625,-23.926,-38.086,-33.691,0.000
1680451119.553,-8.789,-20.996,-40.039,-21.973,0.000
1680451119.557,-26.855,-34.180,-31.250,-35.645,0.000
1680451119.561,-50.781,-47.363,-23.926,-54.199,0.000
1680451119.565,-44.434,-40.527,-25.391,-50.781,0.000
1680451119.569,-35.156,-31.250,-28.320,-51.270,0.000
1680451119.573,-38.086,-28.809,-37.598,-39.551,0.000
1680451119.577,-40.527,-27.344,-40.039,-20.020,0.000
1680451119.580,-45.898,-36.133,-33.691,-27.832,0.000
1680451119.584,-40.527,-43.945,-36.133,-46.875,0.000
1680451119.588,-29.785,-42.969,-43.457,-61.035,0.000
1680451119.592,-28.320,-38.574,-35.156,-40.527,0.000
1680451119.596,-14.648,-25.391,-33.691,-8.789,0.000
1680451119.600,-19.531,-17.090,-44.922,-25.879,0.000
1680451119.604,-40.527,-19.531,-34.668,-54.199,0.000
1680451119.608,-43.457,-22.949,-50.293,-68.359,0.000
1680451119.612,-33.203,-27.344,-62.500,-51.270,0.000
1680451119.616,-29.785,-31.250,-23.926,-29.785,0.000
1680451119.619,-43.457,-38.574,-6.348,-35.156,0.000
1680451119.623,-44.922,-34.668,-12.695,-41.992,0.000
1680451119.627,-35.156,-25.391,-24.902,-62.012,0.000
1680451119.631,-33.203,-25.391,-30.762,-61.035,0.000
1680451119.635,-24.902,-27.832,-24.902,-34.668,0.000
1680451119.639,-20.020,-27.832,-26.367,-6.836,0.000
1680451119.643,-24.414,-29.785,-28.809,-5.859,0.000
1680451119.647,-27.832,-29.297,-23.438,-30.273,0.000
1680451119.651,-29.785,-26.367,-21.484,-45.410,0.000
1680451119.655,-29.785,-29.297,-30.273,-31.738,0.000
1680451119.659,-25.391,-28.320,-28.809,1.953,0.000
1680451119.662,-28.320,-33.691,-23.438,-14.648,0.000
1680451119.666,-43.945,-40.039,-42.480,-44.434,0.000
1680451119.670,-34.180,-34.180,-43.457,-34.180,0.000
1680451119.674,-25.879,-34.180,-37.109,-22.949,0.000
1680451119.678,-27.832,-38.086,-34.180,-15.625,0.000
1680451119.682,-31.250,-33.691,-22.461,-20.020,0.000
1680451119.686,-39.551,-31.738,-31.250,-36.621,0.000
1680451119.690,-43.457,-32.227,-28.320,-37.109,0.000
1680451119.694,-36.621,-29.785,-28.320,-36.621,0.000
1680451119.698,-38.574,-33.691,-33.203,-44.434,0.000
1680451119.702,-38.086,-29.785,-22.949,-40.527,0.000
1680451119.705,-39.551,-30.273,-26.855,-43.945,0.000
1680451119.709,-42.480,-41.504,-30.273,-59.570,0.000
1680451119.713,-28.809,-38.574,-23.926,-34.668,0.000
1680451119.717,-27.832,-33.203,-40.039,-12.207,0.000
1680451119.721,-37.109,-42.969,-49.805,-28.809,0.000
1680451119.725,-43.457,-38.574,-39.062,-36.621,0.000
1680451119.729,-41.016,-23.438,-24.414,-40.039,0.000
1680451119.733,-42.969,-20.020,-10.742,-40.039,0.000
1680451119.737,-45.898,-21.973,-15.137,-30.762,0.000
1680451119.741,-40.039,-30.762,-33.691,-25.391,0.000
1680451119.745,-40.039,-32.715,-31.738,-27.832,0.000
1680451119.748,-31.250,-27.832,-23.438,-35.156,0.000
1680451119.752,-31.738,-26.855,-20.996,-31.250,0.000
1680451119.756,-42.969,-29.785,-11.719,-25.879,0.000
1680451119.760,-46.875,-30.762,-18.555,-31.738,0.000
1680451119.764,-39.062,-24.902,-29.297,-34.668,0.000
1680451119.768,-22.949,-22.949,-28.320,-47.363,0.000
1680451119.772,-16.113,-20.996,-36.621,-51.270,0.000
1680451119.776,-15.625,-24.902,-45.898,-33.203,0.000
1680451119.780,-19.043,-38.574,-39.062,-23.926,0.000
1680451119.784,-23.438,-39.062,-28.320,-32.715,0.000
1680451119.788,-27.344,-30.273,-27.344,-38.086,0.000
1680451119.791,-29.297,-30.273,-26.367,-36.133,0.000
1680451119.795,-26.855,-25.391,-21.973,-33.203,0.000
1680451119.799,-28.320,-32.715,-13.184,-25.391,0.000
1680451119.803,-35.156,-43.457,-21.484,-18.555,0.000
1680451119.807,-35.645,-34.180,-40.039,-22.461,0.000
1680451119.811,-17.090,-27.832,-32.227,-21.973,0.000
1680451119.815,3.906,-26.367,-28.809,-18.066,0.000
1680451119.819,-18.555,-33.691,-21.973,-26.367,0.000
1680451119.823,-42.969,-41.016,-15.625,-28.809,0.000
1680451119.827,-42.480,-26.367,-21.973,-29.785,0.000
1680451119.830,-42.480,-27.832,-24.414,-28.809,0.000
1680451119.834,-27.832,-30.273,-24.902,-23.926,0.000
1680451119.838,-23.438,-29.785,-31.250,-16.602,0.000
1680451119.842,-36.621,-44.434,-24.414,-18.066,0.000
1680451119.846,-32.715,-34.668,-10.254,-27.832,0.000
1680451119.850,-36.621,-29.297,-17.090,-33.691,0.000
1680451119.854,-44.922,-35.645,-33.203,-36.621,0.000
1680451119.858,-41.016,-32.227,-36.621,-33.203,0.000
1680451119.862,-39.551,-28.809,-38.086,-25.391,0.000
1680451119.866,-33.203,-27.832,-32.227,-23.926,0.000
1680451119.870,-33.203,-29.785,-33.203,-24.414,0.000
1680451119.873,-40.039,-29.297,-44.434,-21.484,0.000
1680451119.877,-36.621,-31.250,-29.785,0.977,0.000
1680451119.881,-38.086,-39.062,-23.438,8.789,0.000
1680451119.885,-32.227,-35.156,-33.691,-38.574,0.000
1680451119.889,-22.949,-25.879,-31.250,-58.105,0.000
1680451119.893,-25.391,-25.879,-19.043,-42.969,0.000
1680451119.897,-26.367,-28.320,-20.508,-31.250,0.000
1680451119.901,-24.902,-23.438,-22.461,-21.973,0.000
1680451119.905,-31.738,-21.484,-16.113,-26.367,0.000
1680451119.908,-39.062,-31.738,-24.414,-41.992,0.000
1680451119.912,-33.691,-40.039,-28.320,-34.668,0.000
1680451119.916,-38.086,-41.016,-26.367,-16.602,0.000
1680451119.920,-41.016,-30.762,-30.273,-16.113,0.000
1680451119.924,-42.969,-22.461,-18.066,-9.766,0.000
1680451119.928,-41.504,-29.297,-16.113,-28.320,0.000
1680451119.932,-20.508,-21.973,-16.602,-41.992,0.000
1680451119.936,-18.066,-17.090,-8.301,-20.996,0.000
1680451119.940,-24.414,-27.344,-31.250,-8.301,0.000
1680451119.944,-22.949,-35.645,-40.527,-19.043,0.000
1680451119.947,-26.367,-42.480,-23.438,-35.645,0.000
1680451119.951,-25.391,-31.250,-22.461,-41.992,0.000
1680451119.955,-29.297,-16.113,-22.949,-32.715,0.000
1680451119.959,-35.645,-22.461,-17.578,-34.180,0.000
1680451119.963,-35.645,-23.438,-20.996,-34.668,0.000
1680451119.967,-32.715,-20.996,-28.320,-28.320,0.000
1680451119.971,-25.391,-25.391,-23.438,-32.715,0.000
1680451119.975,-23.926,-23.926,-27.832,-33.691,0.000
1680451119.979,-33.691,-26.855,-26.367,-32.715,0.000
1680451119.983,-34.180,-30.762,-16.113,-24.902,0.000
1680451119.987,-26.855,-28.320,-30.273,-27.344,0.000
1680451119.990,-25.879,-21.973,-39.551,-33.203,0.000
1680451119.994,-20.020,-22.949,-35.156,-36.621,0.000
1680451119.998,-18.555,-24.414,-19.531,-38.086,0.000
1680451120.002,-30.762,-24.414,-20.020,-25.391,0.000
1680451120.006,-41.504,-26.367,-35.156,-27.832,0.000
1680451120.010,-34.180,-31.738,-31.738,-47.852,0.000
1680451120.014,-18.066,-23.926,-50.293,-38.086,0.000
1680451120.018,-26.855,-20.508,-37.598,-23.926,0.000
1680451120.022,-43.457,-32.715,-6.348,-25.391,0.000
1680451120.026,-39.551,-32.227,-5.371,-33.691,0.000
1680451120.030,-32.715,-26.367,-9.766,-40.527,0.000
1680451120.033,-29.297,-25.879,-24.902,-34.180,0.000
1680451120.037,-29.785,-25.391,-40.527,-21.484,0.000
1680451120.041,-35.156,-30.273,-35.645,-11.719,0.000
1680451120.045,-22.949,-25.391,-25.879,-24.414,0.000
1680451120.049,-20.996,-23.438,-32.227,-42.969,0.000
1680451120.053,-33.691,-28.320,-41.504,-44.434,0.000
1680451120.057,-39.551,-34.668,-30.273,-51.270,0.000
1680451120.061,-26.367,-21.484,-18.066,-43.945,0.000
1680451120.065,-16.602,-11.230,-22.461,-46.875,0.000
1680451120.069,-37.109,-25.391,-24.414,-73.242,0.000
1680451120.073,-47.852,-29.297,-27.832,-71.777,0.000
1680451120.076,-41.016,-26.855,-28.320,-50.293,0.000
1680451120.080,-37.109,-25.391,-25.391,-40.527,0.000
1680451120.084,-42.969,-28.809,-33.203,-34.180,0.000
1680451120.088,-39.551,-25.391,-35.645,-35.645,0.000
1680451120.092,-32.715,-21.484,-34.180,-52.734,0.000
1680451120.096,-27.832,-34.180,-25.391,-49.805,0.000
1680451120.100,-17.578,-30.273,-21.484,-37.598,0.000
1680451120.104,-20.996,-10.742,-21.973,-33.691,0.000
1680451120.108,-41.016,-16.113,-26.855,-44.434,0.000
1680451120.112,-44.922,-33.691,-24.414,-61.523,0.000
1680451120.116,-37.109,-38.086,-13.672,-53.711,0.000
1680451120.119,-32.227,-37.598,-10.254,-27.832,0.000
1680451120.123,-26.855,-32.227,-16.113,-23.438,0.000
1680451120.127,-31.738,-30.762,-34.668,-41.992,0.000
1680451120.131,-31.250,-32.715,-38.086,-39.062,0.000
1680451120.135,-34.668,-37.598,-32.227,-37.598,0.000
1680451120.139,-38.086,-34.180,-23.926,-32.715,0.000
1680451120.143,-27.344,-31.250,-18.555,-28.320,0.000
1680451120.147,-23.438,-39.551,-18.555,-34.668,0.000
1680451120.151,-30.762,-39.551,-26.855,-31.250,0.000
1680451120.155,-30.273,-30.273,-34.180,-35.645,0.000
1680451120.159,-31.250,-26.855,-28.809,-27.344,0.000
1680451120.162,-44.434,-34.180,-29.297,-18.555,0.000
1680451120.166,-35.156,-29.297,-44.922,-21.973,0.000
1680451120.170,-34.180,-30.273,-39.551,-30.273,0.000
1680451120.174,-43.945,-40.527,-4.395,-33.203,0.000
1680451120.178,-40.527,-42.480,0.977,-30.273,0.000
1680451120.182,-44.922,-39.062,-19.531,-30.762,0.000
1680451120.186,-41.016,-33.691,-22.461,-34.668,0.000
1680451120.190,-37.598,-31.738,-21.484,-46.387,0.000
1680451120.194,-40.527,-31.738,-27.344,-39.062,0.000
1680451120.198,-37.109,-33.203,-20.996,-16.113,0.000
1680451120.202,-42.480,-43.457,-26.367,-21.973,0.000
1680451120.205,-42.480,-44.922,-39.551,-25.391,0.000
1680451120.209,-33.691,-40.039,-32.227,-34.668,0.000
1680451120.213,-39.062,-34.668,-15.137,-51.270,0.000
1680451120.217,-31.738,-26.367,-9.766,-31.250,0.000
1680451120.221,-34.668,-31.738,-10.742,-16.113,0.000
1680451120.225,-32.715,-34.668,-14.648,-23.926,0.000
1680451120.229,-26.855,-36.621,-33.691,-31.250,0.000
1680451120.233,-24.902,-31.738,-42.969,-39.551,0.000
1680451120.237,-27.344,-25.879,-35.156,-37.598,0.000
1680451120.241,-35.156,-30.762,-34.180,-32.227,0.000
1680451120.244,-37.109,-35.156,-24.902,-37.598,0.000
1680451120.248,-35.645,-35.156,-25.391,-35.645,0.000
1680451120.252,-33.203,-34.668,-30.273,-26.367,0.000
1680451120.256,-32.227,-37.598,-22.461,-25.391,0.000
1680451120.260,-38.574,-39.062,-22.949,-20.996,0.000
1680451120.264,-41.992,-48.340,-40.039,-22.949,0.000
1680451120.268,-26.367,-47.363,-36.621,-34.668,0.000
1680451120.272,-25.879,-43.945,-28.320,-41.992,0.000
1680451120.276,-26.367,-40.527,-26.367,-28.809,0.000
1680451120.280,-26.367,-35.156,-35.156,-27.344,0.000
1680451120.283,-45.410,-39.551,-45.898,-41.992,0.000
1680451120.287,-41.504,-43.945,-41.016,-42.969,0.000
1680451120.291,-27.344,-44.434,-51.270,-40.527,0.000
1680451120.295,-29.297,-36.133,-43.457,-35.645,0.000
1680451120.299,-21.973,-27.832,-20.020,-10.742,0.000
1680451120.303,-30.762,-33.203,-25.391,-29.785,0.000
1680451120.307,-38.574,-41.504,-41.504,-60.547,0.000
1680451120.311,-19.043,-28.809,-32.715,-41.504,0.000
1680451120.315,-16.113,-21.484,-25.879,-23.438,0.000
1680451120.319,-24.414,-31.738,-29.297,-21.973,0.000
1680451120.322,-20.996,-31.738,-48.340,-22.461,0.000
1680451120.326,-1.465,-22.461,-53.223,-9.766,0.000
1680451120.330,-19.531,-24.902,-27.344,-21.484,0.000
1680451120.334,-32.227,-27.344,-27.344,-40.039,0.000
1680451120.338,-28.809,-36.133,-34.668,-26.855,0.000
1680451120.342,-28.320,-39.551,-21.973,-13.672,0.000
1680451120.346,-30.273,-36.133,-30.762,-25.879,0.000
1680451120.350,-26.367,-34.668,-44.434,-20.020,0.000
1680451120.354,-16.602,-39.062,-26.855,-9.277,0.000
1680451120.358,-30.273,-39.062,-21.973,-20.508,0.000
1680451120.361,-41.016,-27.832,-31.250,-20.508,0.000
1680451120.365,-27.344,-24.902,-32.715,-19.531,0.000
1680451120.369,-13.672,-24.902,-24.414,-30.273,0.000
1680451120.373,-23.926,-26.367,-20.508,-30.273,0.000
1680451120.377,-32.227,-34.668,-26.855,-17.578,0.000
1680451120.381,-32.227,-29.297,-18.066,-0.488,0.000
1680451120.385,-26.855,-24.414,-23.438,-13.184,0.000
1680451120.389,-26.367,-24.414,-29.785,-42.480,0.000
1680451120.393,-23.926,-22.949,-15.625,-34.668,0.000
1680451120.397,-17.090,-28.809,-11.719,-19.531,0.000
1680451120.401,-24.902,-33.691,-18.555,-16.113,0.000
1680451120.405,-31.250,-28.809,-29.297,-17.578,0.000
1680451120.408,-19.043,-26.367,-41.504,-24.414,0.000
1680451120.412,-15.137,-21.973,-34.668,-31.250,0.000
1680451120.416,-18.066,-17.578,-20.996,-12.207,0.000
1680451120.420,-20.020,-21.973,-12.207,-6.348,0.000
1680451120.424,-26.855,-22.461,-9.766,-27.344,0.000
1680451120.428,-23.438,-18.066,-20.508,-38.086,0.000
1680451120.432,-32.715,-22.461,-27.344,-42.480,0.000
1680451120.436,-40.039,-24.902,-33.691,-39.551,0.000
1680451120.440,-36.621,-22.461,-36.621,-29.785,0.000
1680451120.444,-33.691,-33.203,-30.273,-30.273,0.000
1680451120.448,-37.109,-41.016,-21.484,-41.016,0.000
1680451120.451,-28.809,-24.902,-27.832,-35.156,0.000
1680451120.455,-28.320,-20.020,-26.367,-22.461,0.000
1680451120.459,-36.621,-27.832,-23.438,-16.113,0.000
1680451120.463,-25.879,-29.297,-41.504,-11.230,0.000
1680451120.467,-23.926,-28.809,-22.461,-39.551,0.000
1680451120.471,-32.227,-25.879,-6.836,-53.711,0.000
1680451120.475,-29.785,-30.762,-21.484,-36.621,0.000
1680451120.479,-41.504,-38.574,-28.320,-27.832,0.000
1680451120.483,-44.922,-31.738,-19.043,-32.715,0.000
1680451120.487,-30.762,-38.086,-25.391,-35.156,0.000
1680451120.491,-26.855,-49.805,-53.223,-32.715,0.000
1680451120.494,-26.367,-38.574,-41.504,-28.809,0.000
1680451120.498,-38.086,-21.973,-26.855,-33.203,0.000
1680451120.502,-38.086,-16.113,-30.273,-33.691,0.000
1680451120.506,-31.738,-29.785,-7.324,-34.668,0.000
1680451120.510,-33.203,-41.016,-7.324,-45.410,0.000
1680451120.514,-25.391,-34.180,-18.066,-34.180,0.000
1680451120.518,-23.926,-32.715,-20.020,-20.996,0.000
1680451120.522,-29.785,-38.574,-23.438,-27.344,0.000
1680451120.526,-35.156,-37.109,-21.484,-35.156,0.000
1680451120.530,-40.527,-32.227,-36.621,-51.758,0.000
1680451120.534,-29.297,-30.273,-37.109,-54.199,0.000
1680451120.537,-20.508,-28.320,-32.715,-39.062,0.000
1680451120.541,-41.992,-27.344,-42.480,-29.785,0.000
1680451120.545,-46.387,-27.832,-39.062,-30.273,0.000
1680451120.549,-35.156,-34.180,-17.090,-45.410,0.000
1680451120.553,-34.180,-41.016,-28.320,-48.828,0.000
1680451120.557,-24.902,-41.016,-53.711,-26.367,0.000
1680451120.561,-22.949,-32.715,-26.855,-8.301,0.000
1680451120.565,-32.715,-27.344,0.000,-21.484,0.000
1680451120.569,-30.762,-27.832,-13.184,-48.340,0.000
1680451120.573,-29.297,-29.297,-21.973,-48.828,0.000
1680451120.576,-30.273,-23.926,-7.324,-33.203,0.000
1680451120.580,-33.203,-21.973,-16.113,-35.645,0.000
1680451120.584,-31.738,-22.949,-23.926,-39.062,0.000
1680451120.588,-29.785,-22.949,-28.809,-42.969,0.000
1680451120.592,-37.598,-30.273,-33.203,-53.711,0.000
1680451120.596,-49.316,-38.086,-28.809,-50.293,0.000
1680451120.600,-46.387,-39.062,-32.715,-33.691,0.000
1680451120.604,-33.691,-42.480,-39.551,-26.855,0.000
1680451120.608,-30.273,-38.086,-45.410,-40.039,0.000
1680451120.612,-30.273,-34.180,-37.598,-45.898,0.000
1680451120.616,-45.410,-41.016,-26.855,-36.133,0.000
1680451120.619,-59.570,-45.410,-37.109,-25.879,0.000
1680451120.623,-48.828,-38.574,-37.109,-25.879,0.000
1680451120.627,-38.574,-26.855,-24.414,-44.922,0.000
1680451120.631,-37.109,-26.367,-31.250,-59.570,0.000
1680451120.635,-38.086,-27.832,-29.785,-49.805,0.000
1680451120.639,-31.250,-36.621,-15.137,-37.598,0.000
1680451120.643,-24.414,-41.992,-18.555,-36.621,0.000
1680451120.647,-14.648,-29.785,-41.504,-46.387,0.000
1680451120.651,1.953,-27.832,-39.551,-43.945,0.000
1680451120.654,-29.297,-38.086,-23.926,-41.992,0.000
1680451120.658,-57.129,-44.922,-27.344,-48.828,0.000
1680451120.662,-44.922,-41.992,-18.066,-28.809,0.000
1680451120.666,-33.203,-38.086,-21.484,-13.672,0.000
1680451120.670,-30.273,-34.180,-21.973,-21.484,0.000
1680451120.674,-37.598,-40.527,-14.160,-28.320,0.000
1680451120.678,-44.922,-45.410,-21.484,-26.855,0.000
1680451120.682,-45.410,-35.645,-22.461,-23.438,0.000
1680451120.686,-37.109,-36.621,-14.160,-26.855,0.000
1680451120.690,-33.691,-40.527,-28.809,-33.203,0.000
1680451120.694,-38.086,-41.016,-32.715,-26.367,0.000
1680451120.698,-40.039,-43.457,-21.973,-15.137,0.000
1680451120.701,-36.133,-46.875,-21.973,-22.949,0.000
1680451120.705,-35.645,-46.875,-34.180,-18.066,0.000
1680451120.709,-25.879,-41.992,-40.039,-16.113,0.000
1680451120.713,-26.855,-51.270,-21.484,-32.227,0.000
1680451120.717,-33.691,-49.805,-11.719,-35.645,0.000
1680451120.721,-35.645,-41.016,-14.160,-29.785,0.000
1680451120.725,-37.109,-37.109,-11.230,-30.762,0.000
1680451120.729,-35.156,-28.809,-14.648,-40.527,0.000
1680451120.733,-33.691,-25.879,-22.461,-39.551,0.000
1680451120.737,-34.180,-28.320,-20.996,-32.715,0.000
1680451120.740,-30.273,-30.762,-19.531,-27.832,0.000
1680451120.744,-29.785,-35.645,-8.789,-37.109,0.000
1680451120.748,-28.809,-37.598,-13.672,-47.363,0.000
1680451120.752,-22.949,-27.832,-32.715,-38.086,0.000
1680451120.756,-27.344,-23.438,-29.297,-22.461,0.000
1680451120.760,-27.344,-29.785,-25.879,-22.461,0.000
1680451120.764,-22.949,-25.879,-26.367,-39.062,0.000
1680451120.768,-33.203,-26.855,-28.809,-51.270,0.000
1680451120.772,-35.156,-31.250,-32.715,-51.758,0.000
1680451120.776,-29.785,-26.367,-20.996,-34.668,0.000
1680451120.780,-32.715,-28.320,-16.602,-21.973,0.000
1680451120.783,-36.133,-37.109,-30.273,-34.668,0.000
1680451120.787,-38.086,-43.457,-45.898,-47.852,0.000
1680451120.791,-28.809,-36.133,-40.527,-45.898,0.000
1680451120.795,-21.484,-44.922,-25.879,-18.066,0.000
1680451120.799,-19.043,-42.969,-27.344,-4.395,0.000
1680451120.803,-26.855,-24.414,-27.832,-32.227,0.000
1680451120.807,-44.922,-28.320,-28.809,-59.570,0.000
1680451120.811,-41.016,-35.645,-26.855,-66.895,0.000
1680451120.815,-27.344,-29.297,-15.625,-48.340,0.000
1680451120.819,-27.832,-24.414,-18.555,-32.227,0.000
1680451120.823,-36.133,-28.809,-27.344,-32.715,0.000
1680451120.826,-41.016,-26.367,-35.156,-47.852,0.000
1680451120.830,-31.738,-20.996,-46.875,-54.688,0.000
1680451120.834,-27.832,-28.809,-45.898,-42.969,0.000
1680451120.838,-21.973,-37.598,-30.273,-30.762,0.000
1680451120.842,-12.207,-29.297,-16.113,-22.949,0.000
1680451120.846,-23.438,-27.344,-25.391,-26.367,0.000
1680451120.850,-31.250,-28.809,-33.691,-34.668,0.000
1680451120.854,-30.273,-26.855,-20.996,-41.504,0.000
1680451120.858,-26.367,-27.344,-22.949,-38.086,0.000
1680451120.862,-20.020,-23.438,-33.691,-29.785,0.000
1680451120.866,-25.391,-25.391,-29.785,-34.668,0.000
1680451120.869,-25.879,-31.250,-23.438,-50.293,0.000
1680451120.873,-29.297,-28.320,-25.879,-49.316,0.000
1680451120.877,-32.227,-26.367,-29.297,-39.062,0.000
1680451120.881,-27.344,-34.668,-22.461,-40.527,0.000
1680451120.885,-26.367,-32.715,-32.227,-45.410,0.000
1680451120.889,-18.555,-23.438,-68.848,-54.199,0.000
1680451120.893,-11.719,-19.531,-47.363,-28.320,0.000
1680451120.897,-10.742,-15.137,3.906,-9.277,0.000
1680451120.901,-23.438,-25.391,-8.301,-23.926,0.000
1680451120.905,-35.645,-29.785,-19.531,-38.574,0.000
1680451120.909,-30.762,-19.531,-18.066,-38.574,0.000
1680451120.912,-30.762,-13.672,-21.973,-29.785,0.000
1680451120.916,-29.785,-19.043,-27.832,-29.785,0.000
1680451120.920,-33.203,-22.461,-29.785,-25.879,0.000
1680451120.924,-39.551,-21.484,-16.602,-19.043,0.000
1680451120.928,-31.250,-16.602,-20.996,-32.227,0.000
1680451120.932,-21.484,-22.949,-33.203,-41.504,0.000
1680451120.936,-20.508,-35.156,-22.461,-34.180,0.000
1680451120.940,-41.992,-25.879,-22.949,-36.621,0.000
1680451120.944,-47.363,-14.648,-30.762,-48.340,0.000
1680451120.948,-37.109,-18.555,-33.203,-55.664,0.000
1680451120.952,-33.203,-18.066,-44.434,-48.340,0.000
1680451120.955,-31.250,-16.113,-42.480,-38.086,0.000
1680451120.959,-31.250,-17.090,-25.879,-22.461,0.000
1680451120.963,-35.156,-24.414,-30.273,-21.973,0.000
1680451120.967,-27.832,-31.738,-38.086,-32.715,0.000
1680451120.971,-31.250,-32.227,-27.344,-32.715,0.000
1680451120.975,-43.945,-31.250,-20.508,-21.973,0.000
1680451120.979,-41.016,-32.227,-31.250,-3.906,0.000
1680451120.983,-38.086,-28.320,-28.809,-11.719,0.000
1680451120.987,-40.039,-33.203,-14.648,-42.480,0.000
1680451120.991,-38.086,-38.574,-24.414,-61.035,0.000
1680451120.994,-22.461,-27.344,-37.109,-56.152,0.000
1680451120.998,-22.461,-28.320,-39.062,-41.016,0.000
1680451121.002,-30.762,-33.691,-32.227,-33.203,0.000
1680451121.006,-20.508,-21.973,-24.902,-44.434,0.000
1680451121.010,-21.973,-24.902,-39.062,-55.664,0.000
1680451121.014,-29.297,-30.762,-33.691,-54.688,0.000
1680451121.018,-24.414,-26.367,-12.695,-39.062,0.000
1680451121.022,-30.762,-29.785,-24.902,-30.762,0.000
1680451121.026,-41.992,-26.367,-32.227,-42.969,0.000
1680451121.030,-43.457,-19.531,-22.949,-52.246,0.000
1680451121.033,-39.551,-24.414,-46.875,-43.945,0.000
1680451121.037,-41.992,-31.738,-57.129,-13.184,0.000
1680451121.041,-45.410,-35.645,-28.320,-11.719,0.000
1680451121.045,-39.551,-34.180,-14.648,-50.781,0.000
1680451121.049,-33.691,-25.879,-19.531,-51.758,0.000
1680451121.053,-25.879,-21.484,-26.367,-27.344,0.000
1680451121.057,-21.973,-24.414,-24.902,-18.066,0.000
1680451121.061,-30.273,-31.738,-15.137,-23.438,0.000
1680451121.065,-40.527,-34.180,-21.973,-36.133,0.000
1680451121.069,-37.598,-29.297,-36.133,-48.340,0.000
1680451121.072,-26.855,-27.832,-32.227,-43.945,0.000
1680451121.076,-30.762,-27.832,-30.273,-30.762,0.000
1680451121.080,-41.016,-31.250,-39.062,-30.762,0.000
1680451121.084,-48.828,-33.691,-43.945,-44.922,0.000
1680451121.088,-44.922,-28.809,-42.969,-53.223,0.000
1680451121.092,-41.504,-28.320,-40.527,-46.387,0.000
1680451121.096,-44.434,-27.344,-37.598,-32.715,0.000
1680451121.100,-51.758,-26.855,-29.785,-31.250,0.000
1680451121.104,-54.199,-28.809,-16.602,-40.039,0.000
1680451121.108,-47.852,-24.414,-16.113,-49.805,0.000
1680451121.111,-46.875,-26.367,-30.762,-59.082,0.000
1680451121.115,-37.598,-39.551,-31.738,-41.016,0.000
1680451121.119,-16.602,-36.133,-15.137,-0.977,0.000
1680451121.123,-32.715,-15.137,-20.020,-12.207,0.000
1680451121.127,-64.941,-17.090,-40.039,-64.941,0.000
1680451121.131,-54.199,-23.438,-40.039,-69.824,0.000
1680451121.135,-53.223,-25.391,-37.109,-54.199,0.000
1680451121.139,-68.359,-31.738,-39.062,-48.340,0.000
1680451121.143,-62.500,-30.762,-34.668,-36.133,0.000
1680451121.147,-57.129,-32.227,-36.133,-49.805,0.000
1680451121.151,-51.270,-30.273,-38.086,-62.012,0.000
1680451121.155,-50.293,-29.785,-37.109,-41.016,0.000
1680451121.158,-51.758,-31.250,-38.574,-25.391,0.000
1680451121.162,-43.457,-30.273,-36.621,-27.344,0.000
1680451121.166,-34.668,-32.715,-32.227,-36.621,0.000
1680451121.170,-27.832,-25.879,-34.180,-42.480,0.000
1680451121.174,-30.762,-22.949,-37.598,-42.480,0.000
1680451121.178,-31.738,-21.973,-34.180,-35.645,0.000
1680451121.182,-27.832,-19.043,-34.668,-36.133,0.000
1680451121.186,-27.832,-29.785,-49.805,-38.086,0.000
1680451121.190,-27.832,-32.715,-33.691,-29.785,0.000
1680451121.194,-31.250,-38.086,-22.461,-24.414,0.000
1680451121.198,-27.832,-42.480,-36.621,-23.438,0.000
1680451121.201,-23.926,-35.156,-27.344,-22.461,0.000
1680451121.205,-33.203,-30.273,-19.531,-31.738,0.000
1680451121.209,-35.645,-37.598,-16.113,-47.363,0.000
1680451121.213,-28.320,-42.480,-14.648,-36.133,0.000
1680451121.217,-26.855,-33.691,-20.508,-17.090,0.000
1680451121.221,-41.504,-36.133,-16.602,-23.926,0.000
1680451121.225,-37.109,-46.387,-28.320,-42.969,0.000
1680451121.229,-24.414,-49.316,-38.086,-41.504,0.000
1680451121.233,-30.762,-41.504,-28.809,-28.809,0.000
1680451121.237,-25.879,-34.180,-29.785,-28.809,0.000
1680451121.240,-27.832,-36.133,-35.645,-28.809,0.000
1680451121.244,-42.480,-33.691,-28.809,-39.551,0.000
1680451121.248,-43.457,-32.227,-26.855,-59.082,0.000
1680451121.252,-39.062,-29.297,-31.250,-61.035,0.000
1680451121.256,-38.574,-29.785,-32.715,-50.293,0.000
1680451121.260,-44.434,-30.762,-29.297,-41.504,0.000
1680451121.264,-41.992,-27.344,-25.879,-35.156,0.000
1680451121.268,-37.109,-29.297,-29.785,-39.551,0.000
1680451121.272,-38.574,-28.320,-21.973,-53.711,0.000
1680451121.276,-35.156,-33.203,-26.367,-54.199,0.000
1680451121.280,-34.180,-28.809,-29.297,-42.480,0.000
1680451121.283,-41.016,-27.832,-24.902,-42.480,0.000
1680451121.287,-39.062,-36.621,-31.738,-53.223,0.000
1680451121.291,-29.297,-35.645,-48.340,-48.828,0.000
1680451121.295,-28.809,-30.762,-48.340,-24.414,0.000
1680451121.299,-24.902,-40.527,-30.273,-13.184,0.000
1680451121.303,-15.137,-41.016,-21.484,-14.160,0.000
1680451121.307,-9.277,-27.832,-16.602,-28.320,0.000
1680451121.311,-24.414,-30.273,-16.113,-50.293,0.000
1680451121.315,-32.715,-33.691,-9.766,-35.645,0.000
1680451121.319,-18.066,-31.738,-2.930,1.465,0.000
1680451121.323,-20.508,-26.855,-6.836,13.672,0.000
1680451121.326,-28.320,-36.133,-10.742,1.465,0.000
1680451121.330,-19.043,-36.133,-20.996,-18.555,0.000
1680451121.334,-11.719,-28.320,-39.551,-20.996,0.000
1680451121.338,-20.020,-29.785,-20.508,5.371,0.000
1680451121.342,-33.691,-32.227,-2.441,-0.977,0.000
1680451121.346,-34.180,-37.598,-20.508,-32.715,0.000
1680451121.350,-29.785,-33.691,-29.297,-25.391,0.000
1680451121.354,-31.738,-38.086,-26.367,-13.672,0.000
1680451121.358,-29.785,-38.086,-30.762,-16.113,0.000
1680451121.361,-27.344,-24.414,-12.207,-4.883,0.000
1680451121.365,-32.715,-21.973,2.930,-15.625,0.000
1680451121.369,-27.344,-25.391,-20.020,-46.387,0.000
1680451121.373,-18.066,-19.531,-37.598,-49.316,0.000
1680451121.377,-17.090,-15.625,-23.926,-29.785,0.000
1680451121.381,-25.879,-20.508,-15.625,-22.461,0.000
1680451121.385,-34.180,-20.508,-26.367,-30.273,0.000
1680451121.389,-29.297,-17.578,-20.996,-35.156,0.000
1680451121.393,-23.438,-16.113,-9.277,-32.715,0.000
1680451121.397,-19.531,-19.531,-27.832,-21.484,0.000
1680451121.401,-25.391,-19.531,-36.621,-13.672,0.000
1680451121.404,-33.203,-11.230,-16.113,-16.113,0.000
1680451121.408,-30.273,-14.160,-10.254,-34.180,0.000
1680451121.412,-30.273,-12.207,-17.578,-52.246,0.000
1680451121.416,-29.297,-9.277,-18.555,-43.945,0.000
1680451121.420,-27.344,-11.230,-13.672,-20.020,0.000
1680451121.424,-26.367,-14.160,-25.391,-19.043,0.000
1680451121.428,-30.273,-17.578,-31.738,-46.387,0.000
1680451121.432,-22.949,-13.184,-32.227,-43.945,0.000
1680451121.436,-10.742,-14.160,-26.367,-25.391,0.000
1680451121.440,-15.625,-15.137,-11.230,-15.137,0.000
1680451121.443,-25.879,-16.113,-6.348,-27.344,0.000
1680451121.447,-33.203,-21.484,-19.531,-47.852,0.000
1680451121.451,-27.344,-23.438,-44.922,-33.691,0.000
1680451121.455,-15.625,-18.066,-37.109,-13.184,0.000
1680451121.459,-22.949,-20.996,-7.324,-29.785,0.000
1680451121.463,-36.621,-37.109,-14.160,-52.246,0.000
1680451121.467,-38.086,-37.598,-27.832,-55.176,0.000
1680451121.471,-35.645,-35.156,-33.691,-51.270,0.000
1680451121.475,-30.273,-29.785,-25.879,-39.551,0.000
1680451121.479,-28.320,-27.832,-13.184,-31.738,0.000
1680451121.483,-38.574,-27.832,-9.766,-41.992,0.000
1680451121.486,-41.992,-29.785,-28.809,-53.223,0.000
1680451121.490,-37.598,-40.527,-45.410,-47.363,0.000
1680451121.494,-38.086,-47.363,-34.180,-28.320,0.000
1680451121.498,-26.855,-46.875,-22.461,-23.438,0.000
1680451121.502,-30.273,-42.480,-20.996,-44.922,0.000
1680451121.506,-43.457,-46.387,-26.855,-57.129,0.000
1680451121.510,-37.598,-40.039,-22.461,-49.805,0.000
1680451121.514,-35.645,-27.344,-6.836,-40.527,0.000
1680451121.518,-34.668,-26.855,-3.906,-27.832,0.000
1680451121.522,-33.691,-31.738,-8.789,-24.414,0.000
1680451121.526,-27.344,-28.809,-5.371,-29.297,0.000
1680451121.529,-27.344,-24.902,-21.973,-36.621,0.000
1680451121.533,-31.738,-28.320,-33.203,-46.387,0.000
1680451121.537,-20.508,-28.320,-27.832,-41.016,0.000
1680451121.541,-20.020,-26.367,-26.855,-34.180,0.000
1680451121.545,-23.926,-24.902,-30.762,-45.898,0.000
1680451121.549,-26.367,-27.344,-37.109,-57.617,0.000
1680451121.553,-29.785,-31.250,-41.016,-52.246,0.000
1680451121.557,-26.855,-36.133,-49.316,-22.461,0.000
1680451121.561,-33.691,-31.250,-48.340,-7.324,0.000
1680451121.565,-37.598,-23.926,-49.805,-34.668,0.000
1680451121.569,-31.250,-27.832,-53.711,-50.293,0.000
1680451121.572,-21.973,-21.484,-32.715,-34.668,0.000
1680451121.576,-25.391,-14.160,-12.207,-20.996,0.000
1680451121.580,-44.434,-26.855,-15.137,-22.461,0.000
1680451121.584,-54.199,-42.480,-14.160,-28.809,0.000
1680451121.588,-50.293,-44.922,-16.113,-35.156,0.000
1680451121.592,-38.574,-37.598,-29.785,-33.691,0.000
1680451121.596,-34.668,-28.320,-27.832,-19.043,0.000
1680451121.600,-29.785,-28.320,-19.043,-6.836,0.000
1680451121.604,-28.809,-33.203,-23.438,-10.254,0.000
1680451121.608,-30.273,-28.320,-27.832,-28.809,0.000
1680451121.612,-19.043,-28.809,-25.879,-32.227,0.000
1680451121.615,-6.836,-24.902,-31.738,-9.277,0.000
1680451121.619,-20.996,-20.020,-29.785,-9.277,0.000
1680451121.623,-34.180,-22.461,-19.043,-17.578,0.000
1680451121.627,-32.715,-23.438,-35.156,-32.227,0.000
1680451121.631,-29.785,-23.926,-30.762,-39.062,0.000
1680451121.635,-18.555,-30.762,-14.160,-15.137,0.000
1680451121.639,-34.180,-40.039,-28.320,-11.719,0.000
1680451121.643,-45.410,-29.297,-23.438,-30.273,0.000
1680451121.647,-34.180,-22.949,-16.602,-46.387,0.000
1680451121.651,-33.203,-25.879,-20.020,-51.270,0.000
1680451121.655,-27.344,-21.973,-26.855,-33.691,0.000
1680451121.658,-32.715,-22.461,-32.715,-23.926,0.000
1680451121.662,-41.992,-25.879,-31.250,-32.715,0.000
1680451121.666,-33.203,-19.531,-27.344,-32.227,0.000
1680451121.670,-27.832,-17.090,-32.715,-34.180,0.000
1680451121.674,-33.691,-28.320,-44.922,-44.434,0.000
1680451121.678,-35.645,-36.133,-36.621,-39.062,0.000
1680451121.682,-31.250,-36.621,-22.461,-23.438,0.000
1680451121.686,-39.062,-38.574,-32.715,-26.367,0.000
1680451121.690,-44.922,-40.039,-40.039,-41.504,0.000
1680451121.694,-34.668,-37.109,-26.367,-35.156,0.000
1680451121.697,-31.250,-33.203,-13.184,-21.484,0.000
1680451121.701,-36.621,-35.156,-9.766,-27.344,0.000
1680451121.705,-35.156,-34.180,-8.789,-37.598,0.000
1680451121.709,-36.133,-39.551,-24.414,-41.504,0.000
1680451121.713,-34.180,-38.574,-44.434,-38.086,0.000
1680451121.717,-26.367,-34.668,-41.992,-17.090,0.000
1680451121.721,-24.902,-38.086,-37.109,5.371,0.000
1680451121.725,-27.344,-34.668,-27.344,-20.020,0.000
1680451121.729,-34.180,-32.715,-19.531,-60.547,0.000
1680451121.733,-26.855,-31.738,-24.902,-58.105,0.000
1680451121.736,-24.902,-36.621,-31.738,-38.574,0.000
1680451121.740,-24.902,-30.273,-23.926,-15.137,0.000
1680451121.744,-29.785,-17.578,-29.785,-28.809,0.000
1680451121.748,-61.035,-34.180,-37.109,-70.312,0.000
1680451121.752,-52.246,-36.133,-35.645,-64.453,0.000
1680451121.756,-31.250,-30.762,-50.293,-32.715,0.000
1680451121.760,-33.203,-39.062,-46.875,-5.859,0.000
1680451121.764,-34.180,-31.738,-34.668,-13.184,0.000
1680451121.768,-30.762,-33.203,-35.645,-43.945,0.000
1680451121.772,-22.949,-39.551,-33.203,-41.504,0.000
1680451121.775,-19.043,-26.367,-16.113,-19.531,0.000
1680451121.779,-15.137,-17.578,-25.879,-8.789,0.000
1680451121.783,-1.953,-27.832,-37.598,-2.930,0.000
1680451121.787,-14.648,-43.945,-16.113,-5.371,0.000
1680451121.791,-23.438,-37.598,-20.508,-4.883,0.000
1680451121.795,-9.766,-14.648,-37.109,-11.719,0.000
1680451121.799,-9.277,-18.066,-39.062,-15.137,0.000
1680451121.803,-25.391,-30.762,-21.973,-9.277,0.000
1680451121.807,-21.484,-17.090,-8.301,-15.137,0.000
1680451121.811,-14.648,-15.625,-20.020,-16.113,0.000
1680451121.815,-26.367,-27.832,-14.160,-0.488,0.000
1680451121.818,-22.949,-22.949,-6.836,-4.395,0.000
1680451121.822,-20.020,-25.391,-7.812,-20.020,0.000
1680451121.826,-34.668,-32.715,-17.090,-25.879,0.000
1680451121.830,-34.668,-22.949,-26.367,-31.738,0.000
1680451121.834,-21.973,-16.602,-22.949,-17.090,0.000
1680451121.838,-19.043,-16.602,-25.391,-3.906,0.000
1680451121.842,-27.344,-17.090,-22.461,-14.160,0.000
1680451121.846,-37.109,-24.414,-22.949,-41.992,0.000
1680451121.850,-34.180,-30.273,-24.414,-53.223,0.000
1680451121.854,-33.691,-31.738,-16.602,-49.316,0.000
1680451121.857,-38.574,-27.832,-32.227,-35.645,0.000
1680451121.861,-25.391,-15.137,-33.203,-21.973,0.000
1680451121.865,-18.555,-16.602,-13.672,-33.691,0.000
1680451121.869,-34.668,-36.133,-19.531,-47.852,0.000
1680451121.873,-43.457,-40.039,-33.691,-48.340,0.000
1680451121.877,-45.898,-28.320,-40.039,-39.551,0.000
1680451121.881,-48.340,-31.250,-37.109,-35.156,0.000
1680451121.885,-46.875,-39.551,-29.297,-39.551,0.000
1680451121.889,-40.527,-30.762,-15.137,-40.527,0.000
1680451121.893,-42.480,-27.832,-23.438,-50.781,0.000
1680451121.897,-41.992,-29.785,-25.879,-47.363,0.000
1680451121.900,-40.527,-28.809,-16.602,-40.039,0.000
1680451121.904,-40.527,-31.250,-33.203,-44.922,0.000
1680451121.908,-30.762,-30.762,-51.270,-45.898,0.000
1680451121.912,-28.809,-26.367,-44.922,-45.898,0.000
1680451121.916,-32.715,-34.668,-19.531,-40.527,0.000
1680451121.920,-38.574,-47.852,-6.836,-24.902,0.000
1680451121.924,-39.062,-42.480,-20.020,-33.691,0.000
1680451121.928,-25.879,-26.855,-29.297,-50.781,0.000
1680451121.932,-29.785,-19.531,-31.738,-56.152,0.000
1680451121.936,-61.523,-24.902,-36.621,-74.219,0.000
1680451121.940,-87.402,-33.203,-45.410,-86.914,0.000
1680451121.943,-91.309,-27.344,-56.641,-89.355,0.000
1680451121.947,-91.797,-20.508,-61.035,-96.680,0.000
1680451121.951,-85.449,-27.832,-46.387,-107.910,0.000
1680451121.955,-85.449,-35.645,-40.039,-100.586,0.000
1680451121.959,-84.961,-37.598,-36.621,-80.566,0.000
1680451121.963,-79.102,-30.273,-28.809,-61.035,0.000
1680451121.967,-60.547,-16.602,-43.945,-59.570,0.000
1680451121.971,-48.828,-11.230,-51.758,-63.477,0.000
1680451121.975,-51.270,-12.695,-51.270,-52.246,0.000
1680451121.979,-43.457,-6.836,-43.945,-41.504,0.000
1680451121.983,-38.086,1.953,-41.504,-40.039,0.000
1680451121.986,-39.551,-3.418,-43.457,-52.734,0.000
1680451121.990,-49.316,-12.207,-36.621,-62.500,0.000
1680451121.994,-42.969,-4.395,-26.367,-43.457,0.000
1680451121.998,-38.574,-0.488,-31.738,-18.066,0.000
1680451122.002,-45.410,-6.836,-47.363,-20.508,0.000
1680451122.006,-52.246,-13.184,-35.156,-49.805,0.000
1680451122.010,-49.316,-19.043,-29.785,-59.570,0.000
1680451122.014,-41.504,-17.578,-42.969,-42.969,0.000
1680451122.018,-37.598,-16.602,-45.898,-23.438,0.000
1680451122.022,-40.527,-25.391,-37.598,-22.461,0.000
1680451122.026,-42.480,-30.762,-41.504,-46.387,0.000
1680451122.029,-35.156,-27.832,-45.898,-50.293,0.000
1680451122.033,-33.691,-30.273,-27.832,-33.203,0.000
1680451122.037,-43.457,-35.645,-22.949,-36.621,0.000
1680451122.041,-52.734,-38.086,-33.203,-37.598,0.000
1680451122.045,-47.363,-39.062,-39.062,-21.973,0.000
1680451122.049,-43.945,-44.434,-40.527,-30.762,0.000
1680451122.053,-38.574,-59.570,-26.855,-56.152,0.000
1680451122.057,-38.574,-56.641,-29.297,-44.434,0.000
1680451122.061,-45.898,-53.711,-32.227,-29.297,0.000
1680451122.065,-49.316,-49.805,-19.531,-50.781,0.000
1680451122.069,-59.082,-41.504,-22.949,-67.383,0.000
1680451122.072,-59.570,-39.062,-30.273,-63.965,0.000
1680451122.076,-49.316,-24.414,-31.250,-37.109,0.000
1680451122.080,-58.594,-27.344,-37.109,-22.949,0.000
1680451122.084,-70.312,-42.480,-31.738,-38.574,0.000
1680451122.088,-62.500,-42.480,-24.414,-48.828,0.000
1680451122.092,-44.434,-43.457,-26.367,-51.270,0.000
1680451122.096,-39.062,-45.410,-14.648,-37.109,0.000
1680451122.100,-40.039,-46.875,-13.184,-25.391,0.000
1680451122.104,-32.715,-41.992,-31.250,-30.273,0.000
1680451122.107,-27.344,-34.668,-43.457,-34.668,0.000
1680451122.111,-28.320,-35.645,-52.734,-34.668,0.000
1680451122.115,-33.691,-38.086,-33.691,-22.461,0.000
1680451122.119,-36.133,-40.527,-21.973,-20.020,0.000
1680451122.123,-36.133,-40.527,-13.184,-17.578,0.000
1680451122.127,-37.109,-41.504,-1.465,-23.438,0.000
1680451122.131,-39.551,-42.480,-18.555,-36.133,0.000
1680451122.135,-35.645,-39.062,-27.832,-19.043,0.000
1680451122.139,-43.457,-43.457,-20.020,-17.090,0.000
1680451122.143,-48.340,-46.875,-22.949,-27.832,0.000
1680451122.147,-32.715,-41.992,-18.555,-28.809,0.000
1680451122.150,-22.461,-36.621,-16.113,-37.598,0.000
1680451122.154,-30.762,-35.156,-23.926,-35.645,0.000
1680451122.158,-35.156,-43.457,-19.531,-23.438,0.000
1680451122.162,-33.203,-40.039,-10.742,-21.484,0.000
1680451122.166,-41.992,-35.156,-34.668,-39.551,0.000
1680451122.170,-47.852,-37.598,-44.434,-42.969,0.000
1680451122.174,-38.086,-34.180,-16.602,-21.484,0.000
1680451122.178,-29.785,-36.133,-13.672,-17.090,0.000
1680451122.182,-32.715,-32.715,-23.438,-31.738,0.000
1680451122.186,-48.828,-32.227,-22.949,-43.945,0.000
1680451122.189,-56.152,-43.457,-37.109,-56.152,0.000
1680451122.193,-47.363,-43.457,-45.410,-51.270,0.000
1680451122.197,-37.109,-32.715,-32.715,-28.809,0.000
1680451122.201,-32.227,-29.785,-31.738,-22.949,0.000
1680451122.205,-31.738,-31.250,-31.250,-37.598,0.000
1680451122.209,-37.598,-35.156,-50.781,-48.340,0.000
1680451122.213,-31.250,-37.598,-45.410,-37.109,0.000
1680451122.217,-26.367,-34.668,-28.809,-32.227,0.000
1680451122.221,-31.738,-28.809,-33.203,-33.691,0.000
1680451122.225,-28.809,-27.344,-30.273,-36.621,0.000
1680451122.229,-22.949,-29.297,-22.949,-52.734,0.000
1680451122.232,-21.973,-27.832,-11.230,-45.410,0.000
1680451122.236,-21.484,-33.691,-15.625,-25.391,0.000
1680451122.240,-28.320,-38.574,-20.508,-24.414,0.000
1680451122.244,-28.320,-29.785,-35.156,-37.598,0.000
1680451122.248,-18.066,-25.879,-42.969,-51.270,0.000
1680451122.252,-11.230,-28.809,-30.762,-45.410,0.000
1680451122.256,-13.672,-33.203,-33.203,-36.621,0.000
1680451122.260,-20.996,-36.133,-39.551,-30.762,0.000
1680451122.264,-30.762,-28.809,-26.855,-29.785,0.000
1680451122.268,-30.273,-24.414,-21.484,-40.527,0.000
1680451122.272,-19.531,-35.156,-29.297,-41.992,0.000
1680451122.275,-21.973,-33.691,-35.156,-29.297,0.000
1680451122.279,-31.738,-19.531,-25.391,-24.902,0.000
1680451122.283,-39.551,-29.785,-22.461,-38.574,0.000
1680451122.287,-37.109,-36.621,-38.086,-44.922,0.000
1680451122.291,-35.645,-34.180,-27.832,-48.828,0.000
1680451122.295,-36.621,-33.203,-15.625,-42.969,0.000
1680451122.299,-41.016,-33.691,-26.855,-32.227,0.000
1680451122.303,-45.410,-35.156,-37.109,-31.250,0.000
1680451122.307,-38.574,-36.133,-41.016,-38.574,0.000
1680451122.311,-23.438,-36.133,-34.180,-37.109,0.000
1680451122.315,-4.883,-33.203,-25.879,-6.348,0.000
1680451122.318,-18.066,-36.133,-30.273,-0.488,0.000
1680451122.322,-43.945,-38.574,-31.250,-35.645,0.000
1680451122.326,-51.270,-29.297,-22.461,-55.176,0.000
1680451122.330,-40.039,-30.762,-28.320,-49.316,0.000
1680451122.334,-32.715,-35.156,-32.715,-35.645,0.000
1680451122.338,-43.457,-30.762,-26.367,-29.785,0.000
1680451122.342,-46.875,-27.344,-29.297,-17.090,0.000
1680451122.346,-43.457,-28.320,-34.180,-28.320,0.000
1680451122.350,-42.480,-30.273,-26.855,-42.969,0.000
1680451122.354,-38.574,-33.691,-24.902,-29.785,0.000
1680451122.358,-31.738,-27.832,-30.273,-15.625,0.000
1680451122.361,-32.227,-27.344,-31.250,-12.695,0.000
1680451122.365,-36.621,-40.039,-39.062,-27.344,0.000
1680451122.369,-33.203,-39.062,-29.297,-32.715,0.000
1680451122.373,-34.180,-29.297,-27.344,-27.344,0.000
1680451122.377,-36.621,-28.320,-37.598,-18.555,0.000
1680451122.381,-30.762,-38.086,-25.879,-17.090,0.000
1680451122.385,-20.508,-34.180,-31.738,-14.160,0.000
1680451122.389,-17.578,-22.461,-57.129,-27.832,0.000
1680451122.393,-24.902,-25.391,-36.133,-45.898,0.000
1680451122.397,-28.809,-30.762,-4.883,-29.785,0.000
1680451122.401,-27.832,-29.785,-11.719,-24.414,0.000
1680451122.404,-21.484,-21.973,-14.160,-33.203,0.000
1680451122.408,-21.484,-22.461,-11.230,-45.410,0.000
1680451122.412,-25.391,-31.250,-20.996,-49.805,0.000
1680451122.416,-25.391,-30.273,-23.438,-41.504,0.000
1680451122.420,-27.344,-32.227,-20.508,-36.621,0.000
1680451122.424,-16.113,-28.809,-25.391,-36.621,0.000
1680451122.428,-15.625,-29.785,-41.504,-41.504,0.000
1680451122.432,-17.090,-36.133,-44.434,-36.621,0.000
1680451122.436,-26.367,-34.180,-26.367,-36.133,0.000
1680451122.439,-44.922,-36.621,-20.996,-36.621,0.000
1680451122.444,-37.598,-34.180,-29.785,-23.438,0.000
1680451122.447,-33.203,-30.273,-35.156,-29.297,0.000
1680451122.451,-39.551,-35.156,-32.715,-46.875,0.000
1680451122.455,-30.273,-27.344,-17.578,-40.039,0.000
1680451122.459,-20.508,-29.297,-14.160,-22.949,0.000
1680451122.463,-32.715,-35.645,-30.762,-21.973,0.000
1680451122.467,-36.133,-28.809,-33.203,-31.250,0.000
1680451122.471,-29.785,-32.227,-22.461,-41.504,0.000
1680451122.475,-33.691,-33.691,-24.414,-37.109,0.000
1680451122.479,-35.645,-34.180,-35.156,-29.785,0.000
1680451122.482,-34.180,-29.297,-25.391,-27.832,0.000
1680451122.486,-37.598,-26.367,-25.391,-31.738,0.000
1680451122.490,-28.320,-26.855,-25.391,-41.016,0.000
1680451122.494,-20.020,-25.879,-28.809,-37.109,0.000
1680451122.498,-24.414,-30.273,-41.992,-15.625,0.000
1680451122.502,-29.785,-29.785,-43.945,-12.207,0.000
1680451122.506,-24.902,-23.438,-23.926,-24.414,0.000
1680451122.510,-31.738,-25.879,-14.648,-41.504,0.000
1680451122.514,-33.691,-28.809,-15.625,-35.645,0.000
1680451122.518,-27.832,-30.762,-8.301,-16.113,0.000
1680451122.521,-28.809,-35.645,-17.090,-18.555,0.000
1680451122.525,-31.738,-34.668,-24.902,-20.996,0.000
1680451122.529,-27.344,-25.879,-35.645,-23.926,0.000
1680451122.533,-14.160,-22.949,-36.133,-38.086,0.000
1680451122.537,-12.207,-26.855,-32.227,-31.738,0.000
1680451122.541,-18.555,-16.602,-31.738,-19.531,0.000
1680451122.545,-21.973,-16.113,-25.391,-27.344,0.000
1680451122.549,-20.020,-26.367,-25.879,-33.203,0.000
1680451122.553,-11.230,-20.020,-21.973,-19.531,0.000
1680451122.557,3.418,-9.277,-14.648,5.371,0.000
1680451122.561,-9.766,-29.785,-34.180,-7.812,0.000
1680451122.564,-38.086,-34.180,-38.086,-37.109,0.000
1680451122.568,-36.621,-16.113,-42.969,-52.734,0.000
1680451122.572,-38.574,-25.391,-32.227,-70.312,0.000
1680451122.576,-50.781,-26.855,-22.461,-56.152,0.000
1680451122.580,-50.781,-21.484,-38.574,-42.969,0.000
1680451122.584,-51.758,-25.391,-37.109,-52.246,0.000
1680451122.588,-46.875,-27.832,-35.645,-59.570,0.000
1680451122.592,-33.203,-28.809,-35.156,-54.199,0.000
1680451122.596,-27.832,-31.738,-30.273,-32.715,0.000
1680451122.600,-31.250,-29.785,-32.227,-22.461,0.000
1680451122.603,-32.715,-29.785,-30.762,-35.156,0.000
1680451122.607,-35.645,-29.297,-20.996,-50.781,0.000
1680451122.611,-42.480,-26.855,-26.367,-57.129,0.000
1680451122.615,-42.969,-29.785,-32.227,-45.898,0.000
1680451122.619,-46.387,-37.598,-28.809,-26.855,0.000
1680451122.623,-47.852,-37.109,-25.879,-22.949,0.000
1680451122.627,-41.016,-25.879,-27.344,-39.062,0.000
1680451122.631,-40.039,-25.391,-19.043,-52.734,0.000
1680451122.635,-42.480,-29.297,-16.113,-42.969,0.000
1680451122.639,-41.016,-24.902,-25.879,-28.809,0.000
1680451122.643,-46.387,-30.762,-39.551,-30.762,0.000
1680451122.646,-45.410,-35.156,-36.133,-44.922,0.000
1680451122.650,-31.250,-29.297,-26.855,-46.387,0.000
1680451122.654,-29.297,-32.227,-34.180,-40.527,0.000
1680451122.658,-31.738,-33.203,-20.996,-23.926,0.000
1680451122.662,-38.086,-34.180,-10.742,-22.949,0.000
1680451122.666,-32.715,-37.109,-14.160,-31.250,0.000
1680451122.670,-25.879,-28.320,-17.578,-30.273,0.000
1680451122.674,-27.832,-26.367,-25.391,-38.574,0.000
1680451122.678,-28.320,-25.391,-28.809,-27.344,0.000
1680451122.682,-27.832,-21.973,-32.715,-24.414,0.000
1680451122.686,-25.391,-24.902,-34.180,-36.133,0.000
1680451122.689,-24.902,-28.320,-37.598,-42.969,0.000
1680451122.693,-15.625,-21.973,-27.344,-32.227,0.000
1680451122.697,-4.395,-16.602,-20.020,-8.301,0.000
1680451122.701,-20.020,-21.973,-26.855,-9.277,0.000
1680451122.705,-36.133,-22.949,-23.926,-35.645,0.000
1680451122.709,-25.879,-20.996,-18.066,-51.270,0.000
1680451122.713,-33.203,-23.438,-21.973,-54.199,0.000
1680451122.717,-41.504,-23.438,-37.109,-36.133,0.000
1680451122.721,-38.086,-26.367,-47.363,-16.113,0.000
1680451122.725,-43.945,-32.715,-38.574,-37.598,0.000
1680451122.729,-43.945,-33.691,-28.320,-47.852,0.000
1680451122.732,-40.039,-29.785,-25.879,-36.133,0.000
1680451122.736,-33.691,-26.855,-23.438,-19.531,0.000
1680451122.740,-16.113,-18.555,-22.949,-3.418,0.000
1680451122.744,-26.855,-22.461,-11.719,-21.973,0.000
1680451122.748,-70.312,-40.527,-14.160,-58.105,0.000
1680451122.752,-58.105,-36.133,-26.855,-46.387,0.000
1680451122.756,-37.598,-37.109,-29.785,-18.066,0.000
1680451122.760,-42.480,-40.527,-21.973,6.348,0.000
1680451122.764,-37.109,-22.949,-9.277,4.883,0.000
1680451122.768,-39.551,-32.227,-13.184,-38.574,0.000
1680451122.772,-38.086,-37.598,-24.902,-44.434,0.000
1680451122.775,-37.109,-30.273,-28.320,-27.344,0.000
1680451122.779,-33.203,-30.762,-27.832,-19.043,0.000
1680451122.783,-37.109,-37.598,-25.391,-22.949,0.000
1680451122.787,-40.527,-41.016,-38.574,-30.762,0.000
1680451122.791,-32.227,-39.551,-43.945,-32.715,0.000
1680451122.795,-34.180,-41.016,-46.875,-19.531,0.000
1680451122.799,-35.156,-39.062,-38.086,-15.625,0.000
1680451122.803,-36.621,-41.992,-8.301,-25.391,0.000
1680451122.807,-29.785,-35.156,-14.160,-31.250,0.000
1680451122.811,-21.973,-25.879,-24.414,-36.621,0.000
1680451122.814,-30.273,-31.250,-31.250,-33.691,0.000
1680451122.818,-36.133,-34.180,-34.668,-24.902,0.000
1680451122.822,-39.551,-36.621,-33.203,-14.160,0.000
1680451122.826,-47.363,-34.180,-30.762,-16.602,0.000
1680451122.830,-42.969,-33.203,-29.297,-33.203,0.000
1680451122.834,-38.086,-35.645,-20.020,-27.344,0.000
1680451122.838,-35.645,-27.344,-21.484,-14.648,0.000
1680451122.842,-40.039,-21.973,-22.461,-21.484,0.000
1680451122.846,-40.527,-30.273,-19.531,-26.855,0.000
1680451122.850,-25.879,-35.156,-21.973,-28.809,0.000
1680451122.853,-20.996,-27.832,-17.090,-34.180,0.000
1680451122.857,-25.879,-23.926,-20.020,-30.762,0.000
1680451122.861,-31.738,-28.809,-15.137,-24.414,0.000
1680451122.865,-29.785,-27.832,-25.391,-35.156,0.000
1680451122.869,-22.461,-26.855,-38.086,-38.574,0.000
1680451122.873,-21.484,-28.809,-28.809,-18.066,0.000
1680451122.877,-32.227,-34.668,-19.531,-8.789,0.000
1680451122.881,-43.457,-43.945,-25.391,-18.066,0.000
1680451122.885,-41.016,-28.809,-16.113,-24.414,0.000
1680451122.889,-33.203,-21.973,-11.230,-33.691,0.000
1680451122.893,-32.227,-31.250,-27.832,-34.668,0.000
1680451122.896,-33.203,-32.227,-22.949,-17.578,0.000
1680451122.900,-24.414,-25.391,-13.672,-11.230,0.000
1680451122.904,-34.180,-26.367,-21.484,-34.180,0.000
1680451122.908,-43.457,-27.344,-37.109,-56.641,0.000
1680451122.912,-34.668,-25.391,-35.645,-47.852,0.000
1680451122.916,-26.367,-22.461,-18.066,-34.180,0.000
1680451122.920,-32.227,-20.996,-17.578,-28.809,0.000
1680451122.924,-35.156,-25.391,-28.809,-36.133,0.000
1680451122.928,-25.879,-16.113,-54.688,-49.805,0.000
1680451122.932,-20.020,-13.184,-48.340,-48.340,0.000
1680451122.936,-19.043,-23.926,-20.996,-33.203,0.000
1680451122.939,-20.996,-19.531,-18.555,-19.043,0.000
1680451122.943,-25.879,-16.113,-15.137,-12.695,0.000
1680451122.947,-24.902,-18.555,-20.020,-20.996,0.000
1680451122.951,-27.344,-21.973,-28.320,-40.527,0.000
1680451122.955,-31.250,-26.367,-24.414,-39.062,0.000
1680451122.959,-25.879,-21.973,-15.137,-21.973,0.000
1680451122.963,-21.484,-24.414,-16.113,-19.043,0.000
1680451122.967,-24.414,-23.926,-28.809,-28.320,0.000
1680451122.971,-23.438,-22.949,-30.762,-28.809,0.000
1680451122.975,-15.625,-20.508,-30.762,-15.137,0.000
1680451122.978,-19.043,-20.020,-35.645,-9.277,0.000
1680451122.982,-30.762,-26.855,-24.902,-20.996,0.000
1680451122.986,-27.832,-24.414,-20.508,-38.574,0.000
1680451122.990,-33.691,-24.414,-33.691,-35.645,0.000
1680451122.994,-34.180,-20.020,-40.039,-20.020,0.000
1680451122.998,-31.738,-24.414,-35.156,-28.320,0.000
1680451123.002,-38.086,-30.762,-35.156,-35.645,0.000
1680451123.006,-34.668,-22.461,-32.715,-40.527,0.000
1680451123.010,-29.297,-32.227,-19.043,-48.828,0.000
1680451123.014,-22.461,-39.062,-11.719,-39.551,0.000
1680451123.018,-30.273,-32.715,-7.324,-27.344,0.000
1680451123.021,-41.992,-36.621,-16.113,-32.227,0.000
1680451123.025,-38.574,-31.738,-30.273,-41.992,0.000
1680451123.029,-29.785,-30.762,-30.762,-40.527,0.000
1680451123.033,-27.344,-38.574,-37.598,-33.203,0.000
1680451123.037,-26.855,-35.645,-33.691,-25.879,0.000
1680451123.041,-29.297,-35.645,-18.066,-23.926,0.000
1680451123.045,-28.320,-34.668,-21.973,-28.809,0.000
1680451123.049,-16.113,-32.227,-31.250,-33.691,0.000
1680451123.053,-14.160,-37.598,-28.320,-28.809,0.000
1680451123.057,-23.926,-41.016,-14.160,-17.090,0.000
1680451123.061,-34.180,-37.109,-20.996,-21.973,0.000
1680451123.064,-34.180,-34.180,-21.484,-38.574,0.000
1680451123.068,-20.020,-31.738,-25.879,-36.133,0.000
1680451123.072,-23.926,-30.762,-32.227,-17.578,0.000
1680451123.076,-28.320,-31.250,-23.438,-11.719,0.000
1680451123.080,-27.832,-33.203,-21.484,-25.879,0.000
1680451123.084,-36.133,-41.992,-13.184,-41.504,0.000
1680451123.088,-38.086,-41.992,-21.484,-52.246,0.000
1680451123.092,-26.367,-31.250,-35.645,-39.062,0.000
1680451123.096,-16.113,-37.109,-28.320,-21.484,0.000
1680451123.100,-27.832,-38.574,-19.043,-30.273,0.000
1680451123.104,-37.109,-32.227,-17.578,-38.574,0.000
1680451123.107,-29.297,-28.809,-15.137,-38.086,0.000
1680451123.111,-26.855,-28.809,-18.066,-45.898,0.000
1680451123.115,-27.832,-30.273,-22.949,-44.434,0.000
1680451123.119,-32.227,-25.879,-22.461,-27.832,0.000
1680451123.123,-24.414,-21.973,-21.484,-36.621,0.000
1680451123.127,-28.809,-27.344,-22.461,-59.082,0.000
1680451123.131,-36.133,-32.227,-34.180,-56.152,0.000
1680451123.135,-26.855,-26.367,-32.715,-32.715,0.000
1680451123.139,-37.598,-27.832,-25.391,-21.484,0.000
1680451123.143,-43.945,-33.691,-32.227,-31.250,0.000
1680451123.147,-37.598,-32.227,-39.062,-47.852,0.000
1680451123.150,-31.738,-36.133,-36.621,-47.852,0.000
1680451123.154,-29.785,-41.992,-29.785,-37.598,0.000
1680451123.158,-34.180,-37.598,-27.832,-31.738,0.000
1680451123.162,-41.504,-37.598,-27.832,-25.879,0.000
1680451123.166,-46.387,-45.410,-29.785,-40.039,0.000
1680451123.170,-47.363,-44.922,-35.156,-54.199,0.000
1680451123.174,-43.457,-48.828,-29.297,-48.340,0.000
1680451123.178,-44.922,-55.664,-24.414,-34.668,0.000
1680451123.182,-40.039,-47.852,-20.508,-25.391,0.000
1680451123.185,-34.668,-39.062,-19.531,-39.551,0.000
1680451123.189,-35.645,-34.180,-31.250,-61.523,0.000
1680451123.193,-41.504,-37.598,-45.410,-61.035,0.000
1680451123.197,-40.527,-38.086,-38.574,-35.156,0.000
1680451123.201,-22.949,-31.250,-33.203,-11.230,0.000
1680451123.205,-29.297,-40.527,-26.855,-25.879,0.000
1680451123.209,-41.504,-47.363,-33.691,-55.664,0.000
1680451123.213,-34.668,-38.574,-40.039,-59.570,0.000
1680451123.217,-40.039,-41.504,-17.090,-38.574,0.000
1680451123.221,-57.129,-49.805,-11.719,-34.668,0.000
1680451123.225,-67.383,-49.805,-17.578,-55.664,0.000
1680451123.228,-57.129,-44.922,-14.160,-54.199,0.000
1680451123.232,-45.898,-42.480,-13.672,-50.293,0.000
1680451123.236,-63.965,-49.805,-23.926,-46.387,0.000
1680451123.240,-76.660,-56.641,-21.973,-51.270,0.000
1680451123.244,-69.336,-49.805,-25.391,-75.195,0.000
1680451123.248,-53.223,-44.922,-29.785,-70.801,0.000
1680451123.252,-45.410,-49.316,-38.086,-60.547,0.000
1680451123.256,-46.875,-41.016,-37.598,-47.363,0.000
1680451123.260,-43.457,-40.039,-33.691,-39.062,0.000
1680451123.264,-43.457,-50.781,-30.273,-47.363,0.000
1680451123.268,-34.180,-40.039,-27.832,-44.434,0.000
1680451123.271,-24.902,-28.320,-32.715,-36.621,0.000
1680451123.275,-32.715,-35.645,-22.949,-35.156,0.000
1680451123.279,-42.969,-40.039,-24.902,-30.762,0.000
1680451123.283,-47.363,-41.992,-25.391,-34.180,0.000
1680451123.287,-41.992,-36.133,-24.414,-44.922,0.000
1680451123.291,-43.945,-37.109,-44.922,-42.969,0.000
1680451123.295,-47.852,-36.621,-36.133,-38.574,0.000
1680451123.299,-46.875,-38.086,-20.508,-29.297,0.000
1680451123.303,-43.457,-39.551,-28.320,-27.832,0.000
1680451123.307,-41.992,-32.715,-22.461,-42.969,0.000
1680451123.310,-46.875,-40.039,-15.137,-46.875,0.000
1680451123.314,-44.922,-36.133,-15.625,-27.832,0.000
1680451123.318,-36.621,-30.762,-23.926,-11.230,0.000
1680451123.322,-39.062,-33.691,-23.926,-27.344,0.000
1680451123.326,-41.992,-31.738,-14.160,-43.457,0.000
1680451123.330,-38.086,-32.715,-23.926,-43.945,0.000
1680451123.334,-27.832,-34.180,-44.922,-30.762,0.000
1680451123.338,-37.598,-34.668,-40.039,-16.113,0.000
1680451123.342,-51.270,-40.039,-16.602,-22.461,0.000
1680451123.346,-47.852,-37.109,-24.902,-46.875,0.000
1680451123.350,-44.434,-37.598,-52.246,-59.082,0.000
1680451123.353,-44.922,-41.992,-34.668,-38.086,0.000
1680451123.357,-42.969,-43.457,-12.695,-5.859,0.000
1680451123.361,-41.504,-42.480,-14.648,-6.836,0.000
1680451123.365,-41.992,-40.527,-18.066,-39.062,0.000
1680451123.369,-35.645,-42.480,-22.949,-42.480,0.000
1680451123.373,-28.320,-41.992,-23.438,-23.926,0.000
1680451123.377,-29.297,-43.457,-28.809,-12.695,0.000
1680451123.381,-29.785,-36.133,-11.719,-11.719,0.000
1680451123.385,-31.738,-35.645,-4.883,-34.668,0.000
1680451123.389,-30.762,-38.086,-15.137,-50.293,0.000
1680451123.393,-32.715,-34.668,-30.762,-38.086,0.000
1680451123.396,-41.992,-33.203,-47.363,-23.926,0.000
1680451123.400,-33.203,-29.785,-39.062,-27.344,0.000
1680451123.404,-31.250,-30.273,-24.902,-40.527,0.000
1680451123.408,-36.621,-23.438,-19.531,-45.898,0.000
1680451123.412,-26.855,-26.367,-20.508,-28.320,0.000
1680451123.416,-32.227,-41.016,-21.973,-13.672,0.000
1680451123.420,-36.621,-42.480,-14.648,-24.414,0.000
1680451123.424,-27.832,-46.875,-16.602,-16.602,0.000
1680451123.428,-20.020,-41.016,-19.043,-6.348,0.000
1680451123.432,-16.113,-33.691,-9.766,-20.508,0.000
1680451123.436,-19.043,-35.645,-10.742,-16.113,0.000
1680451123.439,-23.438,-35.156,-10.254,1.953,0.000
1680451123.443,-23.438,-35.156,-11.719,-5.371,0.000
1680451123.447,-28.809,-28.320,-18.066,-21.484,0.000
1680451123.451,-26.367,-22.949,-34.668,-26.855,0.000
1680451123.455,-14.648,-26.855,-40.527,-13.184,0.000
1680451123.459,-0.488,-39.551,-24.414,3.906,0.000
1680451123.463,-9.277,-48.340,-3.906,-11.719,0.000
1680451123.467,-27.344,-31.738,-2.930,-22.949,0.000
1680451123.471,-20.508,-20.996,-21.973,-18.555,0.000
1680451123.475,-20.508,-35.645,-28.809,-19.043,0.000
1680451123.479,-21.973,-36.621,-14.160,-12.695,0.000
1680451123.482,-21.973,-25.879,-8.789,-16.602,0.000
1680451123.486,-16.602,-23.926,-14.648,-19.531,0.000
1680451123.490,-8.301,-22.461,-13.672,-12.695,0.000
1680451123.494,-14.160,-23.926,-10.742,-12.695,0.000
1680451123.498,-25.391,-30.273,-19.531,-17.090,0.000
1680451123.502,-27.344,-31.250,-30.762,-12.695,0.000
1680451123.506,-20.508,-29.785,-19.043,-19.531,0.000
1680451123.510,-17.578,-31.250,-23.926,-36.621,0.000
1680451123.514,-20.020,-33.203,-25.879,-33.203,0.000
1680451123.517,-26.855,-28.320,-3.906,-8.301,0.000
1680451123.522,-41.504,-30.273,-7.324,-7.812,0.000
1680451123.525,-49.316,-36.133,-19.043,-32.715,0.000
1680451123.529,-35.645,-30.273,-21.484,-36.133,0.000
1680451123.533,-30.762,-28.809,-14.160,-21.973,0.000
1680451123.537,-40.039,-32.227,-19.043,-8.301,0.000
1680451123.541,-42.969,-24.902,-18.555,-13.672,0.000
1680451123.545,-33.691,-19.043,-18.066,-31.738,0.000
1680451123.549,-22.949,-20.996,-31.250,-35.645,0.000
1680451123.553,-20.996,-27.344,-29.297,-30.273,0.000
1680451123.557,-25.879,-28.320,-20.020,-22.461,0.000
1680451123.560,-20.996,-15.625,-21.973,-17.578,0.000
1680451123.564,-18.066,-19.531,-27.832,-29.785,0.000
1680451123.568,-14.160,-32.227,-27.344,-30.273,0.000
1680451123.572,-9.277,-21.973,-10.254,-24.902,0.000
1680451123.576,0.000,-10.254,-7.812,-9.277,0.000
1680451123.580,1.465,-12.695,-14.160,1.465,0.000
1680451123.584,-20.996,-26.855,-21.973,-31.738,0.000
1680451123.588,-34.668,-29.785,-25.391,-59.570,0.000
1680451123.592,-28.320,-23.438,-20.508,-55.176,0.000
1680451123.596,-12.207,-27.344,-18.555,-34.180,0.000
1680451123.600,-22.461,-27.832,-20.996,-21.973,0.000
1680451123.603,-26.367,-31.250,-25.391,-26.367,0.000
1680451123.607,-12.695,-32.227,-29.297,-33.691,0.000
1680451123.611,-14.160,-24.902,-27.344,-39.551,0.000
1680451123.615,-9.766,-20.996,-17.578,-24.414,0.000
1680451123.619,-9.277,-15.625,-13.184,-3.906,0.000
1680451123.623,-16.602,-16.602,-27.344,-0.977,0.000
1680451123.627,-16.113,-19.531,-35.645,-7.324,0.000
1680451123.631,-16.113,-17.090,-14.648,-27.344,0.000
1680451123.635,-22.461,-20.020,-9.277,-25.879,0.000
1680451123.639,-19.531,-13.672,-5.371,0.488,0.000
1680451123.642,-25.879,-21.973,-10.742,-10.254,0.000
1680451123.646,-42.480,-37.598,-40.039,-34.668,0.000
1680451123.650,-22.949,-30.762,-35.156,-28.320,0.000
1680451123.654,-14.160,-25.879,-28.809,-11.719,0.000
1680451123.658,-35.645,-37.598,-36.133,3.906,0.000
1680451123.662,-24.902,-39.062,-25.391,-2.441,0.000
1680451123.666,-26.367,-35.645,-14.160,-24.902,0.000
1680451123.670,-32.227,-40.039,-30.762,-20.996,0.000
1680451123.674,-27.344,-35.645,-33.203,-12.695,0.000
1680451123.678,-36.621,-33.203,-29.785,-16.113,0.000
1680451123.682,-36.133,-33.203,-51.270,-15.625,0.000
1680451123.685,-24.414,-34.180,-33.691,-29.297,0.000
1680451123.689,-22.949,-34.668,-6.348,-35.156,0.000
1680451123.693,-26.855,-30.762,-17.090,-31.250,0.000
1680451123.697,-29.785,-21.973,-27.344,-17.090,0.000
1680451123.701,-32.227,-22.949,-18.066,-4.395,0.000
1680451123.705,-34.180,-32.227,-17.578,-22.949,0.000
1680451123.709,-29.297,-26.855,-25.879,-40.039,0.000
1680451123.713,-29.297,-26.367,-30.273,-42.969,0.000
1680451123.717,-33.691,-27.344,-29.785,-33.203,0.000
1680451123.721,-36.621,-22.461,-20.508,-19.531,0.000
1680451123.724,-37.598,-25.879,-37.598,-24.414,0.000
1680451123.728,-15.625,-30.273,-31.738,-30.762,0.000
1680451123.732,-16.602,-33.691,-6.348,-32.227,0.000
1680451123.736,-34.180,-34.180,-17.578,-29.297,0.000
1680451123.740,-38.086,-36.133,-28.320,-24.414,0.000
1680451123.744,-25.879,-35.645,-29.785,-7.324,0.000
1680451123.748,-14.648,-19.531,-26.367,-2.930,0.000
1680451123.752,-37.109,-12.695,-45.898,-44.434,0.000
1680451123.756,-42.969,-16.602,-41.992,-50.293,0.000
1680451123.760,-40.039,-13.672,-21.973,-25.879,0.000
1680451123.764,-39.062,-12.695,-42.480,-41.016,0.000
1680451123.767,-35.156,-15.137,-62.012,-59.570,0.000
1680451123.771,-30.273,-14.160,-42.480,-40.039,0.000
1680451123.775,-28.320,-20.996,-35.156,-29.785,0.000
1680451123.779,-41.016,-25.391,-39.551,-34.180,0.000
1680451123.783,-37.598,-20.996,-49.805,-51.270,0.000
1680451123.787,-22.461,-21.973,-63.965,-52.734,0.000
1680451123.791,-28.320,-17.578,-35.156,-30.762,0.000
1680451123.795,-20.996,-12.207,-10.742,-24.902,0.000
1680451123.799,-25.879,-16.113,-22.949,-33.203,0.000
1680451123.803,-37.598,-19.531,-40.039,-38.086,0.000
1680451123.807,-34.180,-24.414,-42.480,-46.387,0.000
1680451123.811,-26.855,-24.902,-37.109,-48.340,0.000
1680451123.814,-18.066,-15.625,-34.180,-32.715,0.000
1680451123.818,-27.344,-24.414,-30.762,-27.344,0.000
1680451123.822,-33.691,-26.367,-23.926,-28.809,0.000
1680451123.826,-27.832,-18.066,-27.832,-28.320,0.000
1680451123.830,-27.344,-17.578,-28.809,-43.945,0.000
1680451123.834,-29.785,-25.391,-37.598,-45.898,0.000
1680451123.838,-32.227,-34.180,-43.945,-27.832,0.000
1680451123.842,-25.391,-33.203,-44.434,-21.484,0.000
1680451123.846,-19.043,-34.668,-41.992,-40.039,0.000
1680451123.850,-26.855,-41.992,-25.879,-52.246,0.000
1680451123.854,-39.062,-40.039,-20.508,-32.715,0.000
1680451123.857,-32.715,-30.762,-11.230,-10.742,0.000
1680451123.861,-11.719,-27.832,0.000,-9.277,0.000
1680451123.865,-35.156,-35.645,-21.973,-38.086,0.000
1680451123.869,-53.711,-39.551,-37.598,-58.594,0.000
1680451123.873,-42.969,-38.086,-34.180,-40.039,0.000
1680451123.877,-41.504,-34.668,-25.391,-21.973,0.000
1680451123.881,-43.457,-34.668,-22.461,-20.508,0.000
1680451123.885,-43.945,-32.715,-49.316,-22.461,0.000
1680451123.889,-34.180,-27.832,-47.852,-33.691,0.000
1680451123.892,-23.926,-27.832,-26.855,-41.504,0.000
1680451123.896,-32.227,-34.668,-29.297,-32.227,0.000
1680451123.900,-43.457,-40.039,-34.180,-30.273,0.000
1680451123.904,-38.086,-35.645,-28.320,-37.109,0.000
1680451123.908,-35.156,-36.621,-27.344,-39.551,0.000
1680451123.912,-35.156,-42.480,-39.551,-38.574,0.000
1680451123.916,-24.902,-36.133,-30.273,-4.395,0.000
1680451123.920,-26.855,-21.973,-20.020,12.207,0.000
1680451123.924,-44.434,-26.367,-18.066,-33.203,0.000
1680451123.928,-37.598,-38.086,-27.832,-66.895,0.000
1680451123.932,-18.555,-35.645,-40.527,-64.941,0.000
1680451123.935,-22.949,-23.926,-23.438,-45.410,0.000
1680451123.939,-32.715,-18.066,-25.879,-36.621,0.000
1680451123.943,-29.297,-6.348,-39.551,-42.969,0.000
1680451123.947,-33.203,-2.930,-28.320,-47.363,0.000
1680451123.951,-26.855,-8.789,-25.879,-28.809,0.000
1680451123.955,-20.020,0.977,-32.715,-17.090,0.000
1680451123.959,-32.715,-0.488,-24.414,-30.273,0.000
1680451123.963,-42.480,-11.230,-24.414,-33.691,0.000
1680451123.967,-49.316,-14.648,-32.227,-40.039,0.000
1680451123.971,-41.016,-20.020,-14.648,-46.875,0.000
1680451123.975,-36.621,-20.996,-11.719,-29.297,0.000
1680451123.978,-38.086,-24.902,-23.438,-8.301,0.000
1680451123.982,-32.227,-34.668,-27.832,-24.902,0.000
1680451123.986,-34.180,-31.250,-35.156,-43.945,0.000
1680451123.990,-33.691,-22.461,-41.016,-38.574,0.000
1680451123.994,-30.273,-26.855,-40.527,-36.133,0.000
1680451123.998,-32.715,-36.621,-22.949,-27.344,0.000
1680451124.002,-31.738,-36.621,-13.184,-29.785,0.000
1680451124.006,-21.484,-30.762,-20.508,-44.922,0.000
1680451124.010,-23.926,-32.715,-24.414,-43.457,0.000
1680451124.014,-33.203,-35.156,-17.578,-38.086,0.000
1680451124.017,-30.762,-32.715,-16.113,-32.227,0.000
1680451124.021,-26.367,-34.668,-27.344,-21.973,0.000
1680451124.025,-29.297,-33.203,-34.668,-27.832,0.000
1680451124.029,-32.227,-37.109,-37.109,-48.828,0.000
1680451124.033,-18.555,-39.062,-30.762,-38.574,0.000
1680451124.037,-20.996,-37.598,-34.668,-14.160,0.000
1680451124.041,-40.527,-38.574,-31.250,-23.926,0.000
1680451124.045,-27.344,-36.621,-13.184,-27.832,0.000
1680451124.049,-0.488,-28.809,-22.949,-17.578,0.000
1680451124.053,-22.461,-21.484,-39.062,-35.645,0.000
1680451124.057,-48.340,-21.484,-31.738,-49.805,0.000
1680451124.060,-25.879,-25.391,-24.414,-25.391,0.000
1680451124.064,-8.789,-19.531,-23.926,-19.043,0.000
1680451124.068,-20.996,-20.508,-36.133,-38.574,0.000
1680451124.072,-27.832,-23.438,-34.180,-34.180,0.000
1680451124.076,-30.273,-19.531,-32.715,-24.902,0.000
1680451124.080,-24.414,-17.578,-38.086,-16.113,0.000
1680451124.084,-31.738,-21.484,-43.457,-25.879,0.000
1680451124.088,-36.621,-27.344,-38.574,-43.945,0.000
1680451124.092,-26.855,-20.020,-31.250,-45.410,0.000
1680451124.096,-22.949,-19.531,-28.809,-43.457,0.000
1680451124.099,-29.785,-26.855,-29.297,-36.621,0.000
1680451124.103,-35.645,-25.391,-34.180,-35.156,0.000
1680451124.107,-26.367,-17.090,-37.109,-34.668,0.000
1680451124.111,-14.160,-12.695,-42.480,-25.391,0.000
1680451124.115,-11.719,-20.996,-31.738,-23.926,0.000
1680451124.119,-17.090,-27.344,-31.250,-30.762,0.000
1680451124.123,-20.508,-29.297,-32.227,-30.762,0.000
1680451124.127,-12.207,-30.273,-21.973,-32.715,0.000
1680451124.131,3.418,-20.996,-20.996,-29.785,0.000
1680451124.135,1.953,-21.484,-17.578,-27.832,0.000
1680451124.139,-13.672,-25.391,-14.648,-24.902,0.000
1680451124.142,-16.113,-19.043,-20.508,-31.738,0.000
1680451124.146,-13.672,-21.484,-37.109,-47.363,0.000
1680451124.150,-15.625,-22.949,-41.016,-47.363,0.000
1680451124.154,-29.297,-31.250,-26.367,-36.133,0.000
1680451124.158,-42.969,-35.156,-20.508,-30.273,0.000
1680451124.162,-43.457,-26.855,-30.762,-28.320,0.000
1680451124.166,-43.945,-28.809,-35.156,-33.691,0.000
1680451124.170,-39.062,-22.949,-34.180,-30.762,0.000
1680451124.174,-31.250,-17.578,-37.598,-9.766,0.000
1680451124.178,-30.273,-27.832,-31.250,-6.836,0.000
1680451124.182,-32.715,-22.949,-14.648,-22.949,0.000
1680451124.185,-37.598,-12.207,-18.555,-47.852,0.000
1680451124.189,-40.527,-11.719,-25.391,-58.594,0.000
1680451124.193,-35.156,-5.371,-22.949,-44.434,0.000
1680451124.197,-37.598,-0.488,-17.090,-26.855,0.000
1680451124.201,-46.387,0.488,-15.625,-27.832,0.000
1680451124.205,-43.457,-5.371,-37.598,-41.504,0.000
1680451124.209,-38.574,-8.301,-30.762,-43.945,0.000
1680451124.213,-44.922,-9.766,-14.160,-31.250,0.000
1680451124.217,-41.992,-8.301,-36.621,-25.879,0.000
1680451124.221,-36.133,-7.324,-30.762,-29.785,0.000
1680451124.225,-39.551,-8.301,-15.137,-30.273,0.000
1680451124.228,-35.156,-3.418,-31.250,-53.223,0.000
1680451124.232,-30.273,-1.465,-34.668,-57.617,0.000
1680451124.236,-37.598,-0.977,-19.531,-28.809,0.000
1680451124.240,-39.062,3.418,-22.949,-19.531,0.000
1680451124.244,-34.180,5.371,-23.926,-26.367,0.000
1680451124.248,-31.738,-3.906,-22.949,-41.992,0.000
1680451124.252,-28.320,-6.348,-34.180,-40.039,0.000
1680451124.256,-13.184,-0.977,-32.227,-14.648,0.000
1680451124.260,-1.465,-4.395,-12.207,0.000,0.000
1680451124.264,-38.574,-20.020,-30.762,-24.414,0.000
1680451124.267,-64.453,-26.367,-44.434,-55.176,0.000
1680451124.271,-49.316,-19.043,-9.277,-50.293,0.000
1680451124.275,-54.688,-18.066,-2.441,-39.551,0.000
1680451124.279,-66.895,-24.414,-17.578,-31.738,0.000
1680451124.283,-74.219,-37.109,-23.438,-51.270,0.000
1680451124.287,-69.336,-38.086,-21.973,-67.383,0.000
1680451124.291,-48.340,-36.621,-21.973,-49.805,0.000
1680451124.295,-57.129,-44.434,-30.762,-39.062,0.000
1680451124.299,-66.406,-49.316,-24.414,-32.715,0.000
1680451124.303,-44.434,-52.246,-13.184,-31.738,0.000
1680451124.307,-34.668,-46.387,-31.250,-40.039,0.000
1680451124.310,-38.574,-44.922,-45.898,-44.922,0.000
1680451124.314,-38.086,-47.852,-35.645,-37.598,0.000
1680451124.318,-33.691,-43.457,-37.109,-25.391,0.000
1680451124.322,-25.879,-38.574,-49.316,-27.832,0.000
1680451124.326,-32.227,-42.969,-25.391,-45.410,0.000
1680451124.330,-35.645,-55.664,-9.277,-47.363,0.000
1680451124.334,-31.250,-53.223,-22.949,-32.715,0.000
1680451124.338,-23.926,-43.457,-25.391,-30.762,0.000
1680451124.342,-22.949,-39.062,-14.648,-37.598,0.000
1680451124.346,-34.180,-40.527,-16.113,-46.387,0.000
1680451124.349,-30.273,-41.016,-28.320,-54.688,0.000
1680451124.353,-31.250,-42.480,-31.250,-40.039,0.000
1680451124.357,-34.668,-42.480,-20.996,-24.414,0.000
1680451124.361,-33.203,-40.527,-18.066,-25.879,0.000
1680451124.365,-35.645,-45.898,-24.902,-37.598,0.000
1680451124.369,-34.180,-50.781,-33.203,-36.621,0.000
1680451124.373,-25.391,-41.504,-21.973,-20.020,0.000
1680451124.377,-17.090,-40.527,-16.602,-16.113,0.000
1680451124.381,-26.855,-48.828,-29.297,-20.996,0.000
1680451124.385,-32.227,-47.363,-34.668,-29.785,0.000
1680451124.389,-30.762,-44.922,-37.109,-49.805,0.000
1680451124.392,-33.691,-41.504,-35.156,-51.758,0.000
1680451124.396,-41.992,-43.945,-34.668,-40.039,0.000
1680451124.400,-40.039,-51.758,-25.879,-35.156,0.000
1680451124.404,-29.785,-46.875,-22.949,-35.645,0.000
1680451124.408,-30.762,-40.527,-39.062,-40.527,0.000
1680451124.412,-34.668,-40.039,-44.434,-42.969,0.000
1680451124.416,-36.621,-47.363,-35.645,-40.527,0.000
1680451124.420,-38.086,-49.805,-41.992,-34.180,0.000
1680451124.424,-44.434,-43.945,-46.875,-37.598,0.000
1680451124.428,-44.434,-43.457,-39.551,-51.270,0.000
1680451124.431,-31.738,-40.039,-27.832,-47.852,0.000
1680451124.435,-32.715,-42.480,-29.297,-33.691,0.000
1680451124.439,-36.621,-43.945,-36.133,-33.203,0.000
1680451124.443,-33.691,-41.504,-46.387,-34.180,0.000
1680451124.447,-29.297,-44.434,-46.387,-33.203,0.000
1680451124.451,-29.297,-36.621,-24.902,-42.480,0.000
1680451124.455,-37.109,-34.668,-25.879,-42.480,0.000
1680451124.459,-47.363,-44.434,-31.250,-28.809,0.000
1680451124.463,-38.574,-41.504,-33.691,-31.738,0.000
1680451124.467,-26.367,-33.203,-33.691,-50.293,0.000
1680451124.471,-28.320,-38.574,-33.691,-52.734,0.000
1680451124.474,-27.344,-41.504,-37.109,-32.715,0.000
1680451124.478,-32.227,-38.086,-31.738,-23.926,0.000
1680451124.482,-43.945,-39.062,-36.621,-24.902,0.000
1680451124.486,-38.574,-34.180,-40.039,-23.926,0.000
1680451124.490,-31.738,-34.180,-25.879,-36.133,0.000
1680451124.494,-32.227,-32.715,-22.461,-32.227,0.000
1680451124.498,-27.344,-25.391,-33.203,-15.137,0.000
1680451124.502,-32.227,-26.855,-21.973,-26.367,0.000
1680451124.506,-40.527,-26.367,-14.160,-48.828,0.000
1680451124.510,-35.156,-20.508,-34.668,-50.781,0.000
1680451124.514,-29.297,-20.508,-35.156,-43.457,0.000
1680451124.517,-29.297,-23.926,-16.113,-30.273,0.000
1680451124.521,-32.227,-21.484,-14.648,-18.066,0.000
1680451124.525,-28.809,-17.090,-25.879,-26.855,0.000
1680451124.529,-14.648,-11.719,-26.367,-33.203,0.000
1680451124.533,-14.648,-10.254,-19.531,-32.715,0.000
1680451124.537,-36.133,-14.160,-20.996,-28.320,0.000
1680451124.541,-44.434,-14.648,-23.926,-22.949,0.000
1680451124.545,-44.922,-5.859,-42.969,-31.738,0.000
1680451124.549,-38.574,5.859,-45.898,-43.945,0.000
1680451124.553,-28.320,8.301,-25.391,-45.410,0.000
1680451124.557,-30.762,12.695,-16.602,-30.273,0.000
1680451124.560,-42.969,20.508,-20.020,-31.250,0.000
1680451124.564,-47.852,23.926,-27.832,-53.223,0.000
1680451124.568,-43.945,21.973,-31.250,-58.594,0.000
1680451124.572,-37.109,18.066,-38.574,-47.363,0.000
1680451124.576,-33.691,20.996,-30.762,-34.668,0.000
1680451124.580,-45.898,9.766,-22.461,-33.203,0.000
1680451124.584,-33.691,-6.348,-26.855,-34.668,0.000
1680451124.588,-14.160,-13.672,-21.484,-29.785,0.000
1680451124.592,-42.480,-19.043,-26.855,-40.039,0.000
1680451124.595,-44.434,-20.996,-29.785,-34.668,0.000
1680451124.600,-32.227,-30.273,-15.137,-12.695,0.000
1680451124.603,-40.039,-40.039,-14.648,-20.996,0.000
1680451124.607,-20.996,-39.062,-19.043,-33.203,0.000
1680451124.611,-7.324,-36.133,-12.207,-27.344,0.000
1680451124.615,-13.672,-37.598,-18.066,-16.602,0.000
1680451124.619,-9.277,-41.504,-19.531,-7.812,0.000
1680451124.623,-10.254,-46.387,-17.090,-10.742,0.000
1680451124.627,-15.137,-43.457,-25.391,-22.949,0.000
1680451124.631,-10.254,-41.016,-21.973,-24.902,0.000
1680451124.635,-13.184,-39.062,-21.973,-15.137,0.000
1680451124.638,-23.926,-37.598,-26.367,3.418,0.000
1680451124.642,-29.785,-49.805,-33.203,-13.672,0.000
1680451124.646,-21.973,-50.293,-29.297,-39.551,0.000
1680451124.650,-10.254,-42.969,-22.949,-26.367,0.000
1680451124.654,-14.648,-45.898,-20.996,-12.207,0.000
1680451124.658,-18.066,-44.922,-11.230,-5.371,0.000
1680451124.662,-20.996,-46.875,-15.137,-21.973,0.000
1680451124.666,-23.438,-44.434,-23.438,-29.297,0.000
1680451124.670,-14.160,-33.691,-24.414,-15.625,0.000
1680451124.674,-13.672,-36.621,-22.461,-13.184,0.000
1680451124.678,-11.230,-40.039,-19.531,-13.672,0.000
1680451124.681,-12.695,-40.527,-23.926,-20.020,0.000
1680451124.685,-31.738,-42.969,-42.969,-33.691,0.000
1680451124.689,-23.926,-41.016,-45.410,-30.762,0.000
1680451124.693,-20.020,-47.852,-24.902,-17.578,0.000
1680451124.697,-35.645,-51.270,-35.156,-16.113,0.000
1680451124.701,-41.992,-47.363,-42.480,-24.902,0.000
1680451124.705,-41.016,-41.016,-27.344,-38.086,0.000
1680451124.709,-32.715,-26.855,-21.484,-49.316,0.000
1680451124.713,-33.691,-26.367,-22.461,-42.480,0.000
1680451124.717,-32.715,-33.691,-27.344,-27.832,0.000
1680451124.721,-35.156,-38.574,-13.184,-29.297,0.000
1680451124.724,-44.434,-36.133,-15.625,-41.992,0.000
1680451124.728,-42.969,-36.621,-36.621,-49.316,0.000
1680451124.732,-33.691,-38.086,-33.691,-46.875,0.000
1680451124.736,-25.879,-38.574,-28.320,-21.484,0.000
1680451124.740,-25.391,-39.062,-23.926,-1.465,0.000
1680451124.744,-36.621,-41.504,-21.973,-31.738,0.000
1680451124.748,-30.273,-34.180,-23.926,-59.570,0.000
1680451124.752,-23.926,-31.250,-28.809,-39.551,0.000
1680451124.756,-5.371,-31.738,-20.508,-2.441,0.000
1680451124.760,-2.930,-27.344,-21.484,-10.742,0.000
1680451124.763,-28.320,-28.320,-37.109,-44.434,0.000
1680451124.767,-23.438,-25.391,-42.480,-46.387,0.000
1680451124.771,-9.277,-19.531,-39.551,-35.156,0.000
1680451124.775,-9.277,-23.926,-25.391,-17.090,0.000
1680451124.779,-26.367,-32.227,-32.715,-16.602,0.000
1680451124.783,-35.645,-31.738,-41.504,-36.621,0.000
1680451124.787,-36.133,-32.227,-31.250,-44.434,0.000
1680451124.791,-36.133,-39.062,-29.297,-43.945,0.000
1680451124.795,-21.973,-34.180,-25.391,-26.855,0.000
1680451124.799,-19.531,-37.598,-33.203,-19.531,0.000
1680451124.803,-32.715,-46.387,-38.086,-26.855,0.000
1680451124.806,-31.250,-41.992,-39.551,-23.438,0.000
1680451124.810,-17.578,-33.691,-31.250,-35.645,0.000
1680451124.814,-24.902,-29.785,-21.973,-36.133,0.000
1680451124.818,-33.203,-26.855,-30.762,-27.344,0.000
1680451124.822,-35.645,-35.156,-36.621,-37.109,0.000
1680451124.826,-21.484,-39.062,-31.738,-20.020,0.000
1680451124.830,-11.230,-33.691,-22.461,-11.719,0.000
1680451124.834,-29.785,-30.762,-20.020,-26.367,0.000
1680451124.838,-29.785,-28.320,-11.230,-28.809,0.000
1680451124.842,-29.785,-32.227,-17.090,-45.898,0.000
1680451124.845,-38.086,-34.180,-24.902,-49.316,0.000
1680451124.849,-31.250,-37.109,-24.902,-43.945,0.000
1680451124.853,-25.391,-34.668,-17.578,-29.785,0.000
1680451124.857,-21.973,-32.715,-7.812,-18.555,0.000
1680451124.861,-26.855,-33.203,-22.461,-20.020,0.000
1680451124.865,-36.621,-30.273,-41.992,-33.203,0.000
1680451124.869,-29.785,-32.715,-52.246,-39.062,0.000
1680451124.873,-20.996,-29.297,-42.969,-19.531,0.000
1680451124.877,-23.438,-27.344,-38.574,-8.301,0.000
1680451124.881,-23.926,-30.273,-26.855,-12.207,0.000
1680451124.885,-33.691,-38.086,-20.020,-21.484,0.000
1680451124.888,-35.645,-41.504,-28.809,-35.156,0.000
1680451124.892,-27.344,-37.109,-28.320,-46.875,0.000
1680451124.896,-44.434,-36.621,-35.156,-42.969,0.000
1680451124.900,-47.852,-35.156,-26.855,-41.504,0.000
1680451124.904,-41.016,-32.715,-19.043,-50.781,0.000
1680451124.908,-38.086,-41.016,-27.832,-56.641,0.000
1680451124.912,-28.809,-34.668,-35.645,-46.387,0.000
1680451124.916,-19.043,-29.297,-43.457,-21.973,0.000
1680451124.920,-22.461,-34.180,-33.203,-4.883,0.000
1680451124.924,-27.832,-31.250,-13.672,-14.648,0.000
1680451124.928,-28.320,-35.645,-8.301,-39.551,0.000
1680451124.931,-35.156,-42.480,-20.020,-46.387,0.000
1680451124.935,-24.902,-40.039,-29.297,-19.531,0.000
1680451124.939,-28.809,-36.621,-29.785,-5.859,0.000
1680451124.943,-40.039,-32.715,-20.508,-32.227,0.000
1680451124.947,-41.992,-30.762,-21.484,-49.805,0.000
1680451124.951,-29.785,-37.598,-26.367,-35.156,0.000
1680451124.955,-16.602,-37.598,-36.133,-13.184,0.000
1680451124.959,-24.414,-35.645,-37.598,-6.348,0.000
1680451124.963,-34.668,-38.086,-24.414,-20.020,0.000
1680451124.967,-29.785,-38.086,-29.785,-43.945,0.000
1680451124.970,-10.742,-41.016,-16.602,-43.945,0.000
1680451124.974,3.418,-36.621,-10.742,-10.742,0.000
1680451124.978,-20.020,-36.621,-14.648,4.883,0.000
1680451124.982,-55.664,-43.945,-7.324,-31.738,0.000
1680451124.986,-64.941,-44.434,-13.672,-66.406,0.000
1680451124.990,-57.129,-44.922,-26.367,-63.477,0.000
1680451124.994,-46.387,-46.387,-30.273,-48.340,0.000
1680451124.998,-43.945,-43.945,-31.738,-42.969,0.000
1680451125.002,-49.805,-41.504,-32.227,-43.945,0.000
1680451125.006,-45.898,-39.062,-15.625,-43.457,0.000
1680451125.010,-39.551,-36.133,-12.207,-48.828,0.000
1680451125.013,-48.340,-41.504,-27.344,-51.758,0.000
1680451125.017,-53.223,-44.922,-24.902,-44.434,0.000
1680451125.021,-42.480,-43.457,-33.203,-41.992,0.000
1680451125.025,-31.250,-41.504,-44.922,-51.270,0.000
1680451125.029,-15.137,-39.551,-33.691,-57.129,0.000
1680451125.033,-13.672,-35.156,-34.180,-46.875,0.000
1680451125.037,-19.531,-36.133,-37.598,-42.969,0.000
1680451125.041,-27.832,-35.156,-24.902,-31.738,0.000
1680451125.045,-36.133,-45.410,-25.879,-24.414,0.000
1680451125.049,-37.109,-58.594,-23.926,-42.969,0.000
1680451125.053,-41.504,-45.898,-6.836,-42.969,0.000
1680451125.056,-46.875,-36.621,-8.301,-28.809,0.000
1680451125.060,-43.457,-37.109,-16.113,-27.832,0.000
1680451125.064,-42.480,-34.668,-37.109,-40.039,0.000
1680451125.068,-39.551,-34.180,-45.898,-40.039,0.000
1680451125.072,-26.367,-32.715,-33.203,-25.391,0.000
1680451125.076,-31.738,-37.598,-22.949,-24.414,0.000
1680451125.080,-37.109,-36.621,-22.949,-32.227,0.000
1680451125.084,-39.551,-38.086,-28.809,-39.551,0.000
1680451125.088,-46.875,-34.180,-28.320,-41.016,0.000
1680451125.092,-37.598,-27.344,-40.527,-30.762,0.000
1680451125.095,-33.691,-29.785,-37.109,-9.766,0.000
1680451125.099,-34.180,-31.738,-20.020,-6.836,0.000
1680451125.103,-36.621,-36.621,-24.414,-28.320,0.000
1680451125.107,-42.480,-32.715,-26.367,-34.668,0.000
1680451125.111,-41.504,-31.250,-26.855,-33.203,0.000
1680451125.115,-32.227,-28.809,-30.762,-23.438,0.000
1680451125.119,-40.527,-33.691,-27.344,-25.391,0.000
1680451125.123,-44.922,-33.691,-37.109,-31.738,0.000
1680451125.127,-23.438,-28.809,-41.504,-31.250,0.000
1680451125.131,-19.043,-28.320,-27.832,-40.039,0.000
1680451125.135,-28.809,-27.344,-30.762,-33.203,0.000
1680451125.138,-32.227,-32.715,-23.438,-17.578,0.000
1680451125.142,-35.645,-41.992,-20.020,-17.090,0.000
1680451125.146,-29.297,-36.621,-31.250,-22.461,0.000
1680451125.150,-15.137,-24.902,-36.621,-28.320,0.000
1680451125.154,-18.066,-27.832,-38.574,-33.691,0.000
1680451125.158,-29.785,-32.715,-29.297,-29.297,0.000
1680451125.162,-18.555,-30.273,-28.320,-25.879,0.000
1680451125.166,-12.207,-28.809,-30.273,-29.297,0.000
1680451125.170,-31.250,-31.250,-17.090,-38.574,0.000
1680451125.174,-53.223,-35.156,-15.625,-49.316,0.000
1680451125.178,-54.199,-42.969,-21.973,-38.574,0.000
1680451125.181,-40.039,-37.598,-21.973,-20.996,0.000
1680451125.185,-45.410,-34.180,-16.602,-47.363,0.000
1680451125.189,-37.598,-43.457,-18.555,-56.641,0.000
1680451125.193,-25.879,-45.898,-47.363,-31.250,0.000
1680451125.197,-29.785,-43.945,-57.617,-32.715,0.000
1680451125.201,-38.086,-36.133,-28.320,-45.898,0.000
1680451125.205,-39.062,-35.645,-19.531,-39.551,0.000
1680451125.209,-24.902,-36.133,-28.809,-27.344,0.000
1680451125.213,-23.926,-34.180,-27.344,-35.645,0.000
1680451125.217,-34.668,-36.621,-25.879,-39.551,0.000
1680451125.220,-37.109,-41.016,-31.250,-34.180,0.000
1680451125.224,-30.762,-45.410,-31.250,-39.062,0.000
1680451125.228,-29.785,-40.527,-28.809,-33.203,0.000
1680451125.232,-20.508,-31.250,-17.090,-17.578,0.000
1680451125.236,-16.602,-27.832,-24.902,-20.996,0.000
1680451125.240,-29.297,-35.645,-38.574,-33.691,0.000
1680451125.244,-30.273,-38.574,-39.551,-43.945,0.000
1680451125.248,-21.973,-29.297,-38.574,-44.922,0.000
1680451125.252,-28.320,-25.879,-27.344,-37.109,0.000
1680451125.256,-33.691,-20.996,-22.461,-23.438,0.000
1680451125.260,-32.227,-20.020,-25.879,-4.883,0.000
1680451125.263,-35.645,-27.344,-31.738,-23.438,0.000
1680451125.267,-42.480,-25.391,-39.551,-62.012,0.000
1680451125.271,-39.062,-20.020,-37.598,-50.293,0.000
1680451125.275,-29.297,-20.020,-19.043,-11.230,0.000
1680451125.279,-22.461,-27.832,-10.742,-12.695,0.000
1680451125.283,-17.578,-23.926,-33.691,-29.785,0.000
1680451125.287,-23.438,-8.789,-36.621,-38.086,0.000
1680451125.291,-27.832,-10.254,-6.836,-38.086,0.000
1680451125.295,-30.762,-18.066,-8.789,-34.668,0.000
1680451125.299,-36.133,-14.160,-33.203,-30.762,0.000
1680451125.303,-40.527,-10.742,-25.879,-30.273,0.000
1680451125.307,-45.898,-14.160,-15.137,-49.316,0.000
1680451125.310,-38.086,-14.648,-20.508,-48.340,0.000
1680451125.314,-32.227,-14.648,-26.367,-31.738,0.000
1680451125.318,-36.621,-23.438,-29.785,-23.926,0.000
1680451125.322,-37.109,-23.438,-34.668,-29.785,0.000
1680451125.326,-33.203,-14.648,-35.645,-35.645,0.000
1680451125.330,-21.973,-11.719,-29.785,-27.344,0.000
1680451125.334,-12.207,-16.113,-20.996,-26.855,0.000
1680451125.338,-15.625,-16.602,-12.207,-18.066,0.000
1680451125.342,-19.043,-10.254,-34.668,-18.555,0.000
1680451125.345,-23.926,-13.184,-42.969,-40.527,0.000
1680451125.350,-19.043,-19.043,-20.020,-20.996,0.000
1680451125.353,3.418,-6.348,-9.766,11.230,0.000
1680451125.357,-20.996,6.836,-22.461,-10.254,0.000
1680451125.361,-48.340,-3.418,-28.809,-27.832,0.000
1680451125.365,-42.480,-0.977,-29.785,-35.645,0.000
1680451125.369,-46.387,1.465,-37.598,-59.570,0.000
1680451125.373,-31.738,1.953,-39.551,-52.246,0.000
1680451125.377,-40.039,-2.441,-47.852,-49.316,0.000
1680451125.381,-62.012,-18.066,-54.199,-56.641,0.000
1680451125.385,-57.129,-17.578,-50.293,-55.176,0.000
1680451125.388,-59.570,-15.137,-61.523,-62.500,0.000
1680451125.392,-53.711,-17.578,-67.871,-49.805,0.000
1680451125.396,-40.527,-15.625,-44.434,-33.691,0.000
1680451125.400,-44.922,-20.508,-36.621,-56.152,0.000
1680451125.404,-51.270,-25.391,-53.223,-77.637,0.000
1680451125.408,-37.109,-24.414,-52.734,-72.266,0.000
1680451125.412,-42.969,-30.762,-36.133,-64.941,0.000
1680451125.416,-57.129,-32.227,-41.992,-54.688,0.000
1680451125.420,-52.734,-20.020,-55.176,-40.039,0.000
1680451125.424,-50.781,-23.438,-30.273,-40.527,0.000
1680451125.428,-48.340,-29.297,-16.602,-57.129,0.000
1680451125.431,-42.969,-29.297,-33.203,-57.129,0.000
1680451125.435,-37.598,-31.250,-31.250,-29.297,0.000
1680451125.439,-29.785,-21.973,-24.902,-21.484,0.000
1680451125.443,-36.621,-22.949,-28.320,-44.922,0.000
1680451125.447,-45.898,-33.691,-31.250,-48.340,0.000
1680451125.451,-47.852,-35.645,-25.391,-44.434,0.000
1680451125.455,-38.574,-30.273,-28.809,-49.316,0.000
1680451125.459,-23.926,-27.344,-27.832,-45.898,0.000
1680451125.463,-31.738,-25.391,-20.020,-50.293,0.000
1680451125.467,-45.410,-30.273,-28.809,-62.012,0.000
1680451125.471,-47.363,-36.621,-32.715,-58.105,0.000
1680451125.474,-41.992,-35.156,-20.996,-45.410,0.000
1680451125.478,-45.410,-30.273,-32.227,-40.527,0.000
1680451125.482,-48.828,-29.785,-38.086,-41.504,0.000
1680451125.486,-46.387,-31.738,-29.785,-54.688,0.000
1680451125.490,-46.875,-29.297,-25.391,-56.641,0.000
1680451125.494,-39.062,-32.227,-28.320,-34.668,0.000
1680451125.498,-41.992,-34.668,-40.527,-29.785,0.000
1680451125.502,-56.152,-35.645,-30.762,-43.457,0.000
1680451125.506,-52.734,-33.691,-19.531,-56.152,0.000
1680451125.510,-41.504,-28.320,-20.508,-50.781,0.000
1680451125.514,-38.574,-33.691,-8.301,-35.645,0.000
1680451125.517,-34.180,-34.180,-6.836,-17.578,0.000
1680451125.521,-41.016,-33.203,-25.391,-20.020,0.000
1680451125.525,-39.062,-35.156,-30.273,-29.297,0.000
1680451125.529,-28.809,-29.297,-20.996,-31.250,0.000
1680451125.533,-29.785,-29.297,-25.879,-37.598,0.000
1680451125.537,-23.926,-30.273,-29.297,-29.297,0.000
1680451125.541,-21.484,-29.297,-20.020,-31.738,0.000
1680451125.545,-30.762,-30.762,-20.020,-45.898,0.000
1680451125.549,-34.180,-33.691,-22.949,-53.711,0.000
1680451125.553,-33.203,-32.715,-26.855,-42.969,0.000
1680451125.556,-30.273,-26.855,-45.898,-29.785,0.000
1680451125.560,-31.738,-27.832,-42.480,-40.527,0.000
1680451125.564,-30.273,-27.832,-16.602,-49.805,0.000
1680451125.568,-22.461,-25.391,-18.555,-49.316,0.000
1680451125.572,-19.043,-29.785,-27.344,-48.828,0.000
1680451125.576,-29.297,-30.273,-24.902,-32.715,0.000
1680451125.580,-38.086,-33.203,-21.484,-30.762,0.000
1680451125.584,-37.109,-38.574,-26.367,-55.664,0.000
1680451125.588,-36.133,-38.574,-28.320,-59.570,0.000
1680451125.592,-31.250,-33.203,-26.367,-49.316,0.000
1680451125.596,-29.785,-28.809,-29.785,-40.527,0.000
1680451125.599,-31.250,-31.250,-37.109,-30.273,0.000
1680451125.603,-21.484,-22.949,-28.320,-21.484,0.000
1680451125.607,-16.113,-13.672,-18.066,-20.020,0.000
1680451125.611,-28.809,-25.391,-46.387,-50.781,0.000
1680451125.615,-42.969,-35.156,-36.621,-56.641,0.000
1680451125.619,-45.898,-32.227,-17.578,-36.621,0.000
1680451125.623,-47.852,-29.785,-24.414,-42.969,0.000
1680451125.627,-45.898,-31.250,-23.926,-62.988,0.000
1680451125.631,-40.039,-31.250,-29.297,-55.664,0.000
1680451125.635,-37.109,-29.785,-35.156,-33.203,0.000
1680451125.639,-39.551,-27.832,-31.250,-28.320,0.000
1680451125.642,-32.715,-32.227,-25.391,-51.270,0.000
1680451125.646,-32.227,-34.668,-33.203,-60.059,0.000
1680451125.650,-43.457,-29.297,-36.133,-54.688,0.000
1680451125.654,-39.062,-28.809,-26.855,-46.387,0.000
1680451125.658,-36.133,-28.320,-28.320,-26.855,0.000
1680451125.662,-24.902,-17.578,-29.785,-10.742,0.000
1680451125.666,-26.367,-16.602,-20.508,-30.762,0.000
1680451125.670,-45.410,-25.391,-27.832,-58.105,0.000
1680451125.674,-31.250,-24.414,-31.738,-36.133,0.000
1680451125.678,-9.277,-17.090,-29.785,-4.883,0.000
1680451125.682,-25.391,-22.461,-26.855,-9.766,0.000
1680451125.685,-44.434,-30.273,-34.180,-35.156,0.000
1680451125.689,-30.762,-32.227,-38.574,-31.250,0.000
1680451125.693,-15.625,-28.809,-18.555,-15.137,0.000
1680451125.697,-20.508,-26.367,-11.230,-14.648,0.000
1680451125.701,-17.578,-26.855,-1.953,-6.836,0.000
1680451125.705,-8.789,-31.250,-6.836,-16.113,0.000
1680451125.709,-12.207,-40.527,-13.672,-23.926,0.000
1680451125.713,-17.090,-39.062,-16.602,-8.789,0.000
1680451125.717,-19.043,-27.344,-24.902,4.395,0.000
1680451125.720,-16.602,-26.855,-5.859,0.977,0.000
1680451125.725,-12.695,-31.250,-1.465,-12.207,0.000
1680451125.728,-18.555,-36.133,-20.020,-21.484,0.000
1680451125.732,-17.578,-33.203,-17.578,-13.672,0.000
1680451125.736,-17.578,-32.715,-13.672,1.953,0.000
1680451125.740,-24.902,-41.016,-20.020,-4.883,0.000
1680451125.744,-22.949,-37.109,-25.391,-26.367,0.000
1680451125.748,-18.066,-31.738,-29.297,-29.785,0.000
1680451125.752,-15.625,-23.438,-10.254,-19.531,0.000
1680451125.756,-20.996,-20.020,1.465,-10.254,0.000
1680451125.760,-31.250,-20.508,-4.395,0.000,0.000
1680451125.763,-28.809,-14.160,-9.766,-0.977,0.000
1680451125.767,-22.461,-15.625,-12.695,-20.020,0.000
1680451125.771,-17.578,-18.555,-18.066,-34.668,0.000
1680451125.775,-24.414,-25.879,-27.832,-30.273,0.000
1680451125.779,-35.645,-27.344,-22.949,-22.461,0.000
1680451125.783,-33.203,-17.578,-20.020,-28.809,0.000
1680451125.787,-27.832,-18.555,-21.973,-35.645,0.000
1680451125.791,-22.461,-23.438,-32.715,-35.156,0.000
1680451125.795,-19.043,-20.508,-31.738,-22.949,0.000
1680451125.799,-25.879,-21.973,-19.531,-8.301,0.000
1680451125.803,-22.461,-29.297,-32.227,-24.902,0.000
1680451125.806,-18.066,-31.250,-38.574,-36.133,0.000
1680451125.810,-16.113,-33.691,-35.645,-25.879,0.000
1680451125.814,-16.113,-33.203,-30.762,-27.344,0.000
1680451125.818,-23.438,-31.250,-21.484,-26.855,0.000
1680451125.822,-21.973,-32.715,-22.949,-32.715,0.000
1680451125.826,-19.531,-32.227,-22.949,-41.016,0.000
1680451125.830,-28.809,-29.785,-23.438,-41.992,0.000
1680451125.834,-29.785,-33.691,-20.996,-30.273,0.000
1680451125.838,-20.996,-32.227,-23.438,-5.859,0.000
1680451125.842,-26.367,-32.715,-30.273,-12.207,0.000
1680451125.846,-26.367,-41.504,-21.484,-36.133,0.000
1680451125.849,-19.043,-41.504,-20.020,-34.180,0.000
1680451125.853,-25.391,-35.156,-19.043,-28.320,0.000
1680451125.857,-39.062,-33.691,-17.578,-24.414,0.000
1680451125.861,-45.410,-31.250,-20.020,-24.414,0.000
1680451125.865,-36.133,-28.809,-16.113,-32.227,0.000
1680451125.869,-33.691,-31.738,-20.020,-41.504,0.000
1680451125.873,-31.738,-30.762,-38.086,-26.367,0.000
1680451125.877,-30.273,-37.109,-33.691,-18.555,0.000
1680451125.881,-32.715,-42.969,-29.297,-28.809,0.000
1680451125.885,-40.527,-35.645,-30.273,-41.504,0.000
1680451125.888,-47.363,-34.180,-17.578,-47.363,0.000
1680451125.892,-47.852,-41.992,-25.391,-47.363,0.000
1680451125.896,-36.621,-41.016,-35.156,-34.668,0.000
1680451125.900,-21.973,-37.598,-32.715,-20.996,0.000
1680451125.904,-36.133,-39.551,-32.715,-35.645,0.000
1680451125.908,-44.434,-36.133,-27.344,-36.621,0.000
1680451125.912,-29.297,-30.273,-28.320,-20.020,0.000
1680451125.916,-22.461,-32.227,-27.832,-30.273,0.000
1680451125.920,-31.738,-31.738,-28.809,-29.785,0.000
1680451125.924,-44.434,-34.668,-38.574,-35.156,0.000
1680451125.928,-37.109,-35.645,-34.668,-57.129,0.000
1680451125.931,-25.879,-26.855,-26.367,-49.805,0.000
1680451125.935,-20.508,-23.438,-17.578,-34.180,0.000
1680451125.939,-11.230,-25.879,-20.020,-30.762,0.000
1680451125.943,-18.555,-19.531,-36.133,-36.133,0.000
1680451125.947,-32.227,-22.461,-33.203,-49.316,0.000
1680451125.951,-26.367,-27.344,-26.855,-42.969,0.000
1680451125.955,-23.926,-27.832,-37.109,-20.996,0.000
1680451125.959,-31.250,-30.273,-39.062,-15.137,0.000
1680451125.963,-36.133,-30.273,-34.668,-40.527,0.000
1680451125.967,-30.762,-27.344,-26.367,-57.129,0.000
1680451125.970,-33.691,-34.668,-26.855,-41.016,0.000
1680451125.974,-33.691,-38.086,-39.551,-21.973,0.000
1680451125.978,-26.855,-29.297,-44.922,-14.648,0.000
1680451125.982,-32.715,-23.926,-42.969,-23.438,0.000
1680451125.986,-26.367,-13.672,-39.062,-27.832,0.000
1680451125.990,-22.461,-20.020,-30.762,-22.949,0.000
1680451125.994,-38.086,-36.621,-12.207,-29.785,0.000
1680451125.998,-42.480,-37.109,-8.301,-25.391,0.000
1680451126.002,-41.992,-30.762,-14.648,-19.531,0.000
1680451126.006,-38.086,-29.297,-17.578,-43.945,0.000
1680451126.010,-31.738,-31.250,-24.902,-55.176,0.000
1680451126.014,-30.273,-27.832,-24.902,-35.156,0.000
1680451126.017,-31.250,-36.133,-21.484,-3.906,0.000
1680451126.021,-38.574,-46.875,-23.438,-17.090,0.000
1680451126.025,-41.016,-39.062,-33.203,-44.434,0.000
1680451126.029,-36.133,-33.691,-42.969,-33.691,0.000
1680451126.033,-41.016,-36.133,-55.664,-30.273,0.000
1680451126.037,-41.016,-29.785,-48.828,-29.785,0.000
1680451126.041,-43.457,-31.250,-22.461,-31.738,0.000
1680451126.045,-46.387,-37.598,-15.625,-47.363,0.000
1680451126.049,-41.504,-37.109,-23.926,-50.781,0.000
1680451126.053,-40.039,-37.109,-31.738,-40.039,0.000
1680451126.056,-28.320,-28.809,-30.762,-15.625,0.000
1680451126.060,-21.484,-20.508,-27.832,-9.766,0.000
1680451126.064,-22.949,-25.879,-35.156,-27.832,0.000
1680451126.068,-24.414,-26.367,-35.645,-35.156,0.000
1680451126.072,-22.461,-19.531,-31.738,-24.414,0.000
1680451126.076,-18.066,-19.531,-38.574,-9.277,0.000
1680451126.080,-18.555,-19.043,-30.762,-7.324,0.000
1680451126.084,-15.137,-20.996,-21.484,-17.578,0.000
1680451126.088,-20.508,-27.344,-33.203,-37.598,0.000
1680451126.092,-27.832,-25.391,-41.992,-35.645,0.000
1680451126.095,-20.996,-22.949,-37.598,-8.789,0.000
1680451126.099,-28.809,-21.973,-35.645,-1.953,0.000
1680451126.103,-38.086,-21.973,-25.391,-31.738,0.000
1680451126.107,-26.367,-21.973,-18.066,-54.199,0.000
1680451126.111,-21.973,-20.020,-22.461,-43.945,0.000
1680451126.115,-27.832,-20.508,-19.043,-28.809,0.000
1680451126.119,-35.645,-18.066,-14.648,-18.555,0.000
1680451126.123,-31.250,-19.043,-22.949,-23.926,0.000
1680451126.127,-28.320,-22.461,-30.273,-32.227,0.000
1680451126.131,-30.273,-26.855,-20.020,-24.902,0.000
1680451126.135,-32.227,-28.320,-21.484,-25.391,0.000
1680451126.138,-38.574,-20.508,-28.809,-30.273,0.000
1680451126.142,-37.598,-21.484,-24.414,-31.738,0.000
1680451126.146,-32.227,-22.461,-20.996,-38.574,0.000
1680451126.150,-33.691,-24.902,-30.762,-43.457,0.000
1680451126.154,-34.180,-27.832,-37.109,-34.668,0.000
1680451126.158,-15.137,-16.113,-22.949,-11.719,0.000
1680451126.162,-26.367,-18.066,-11.719,-15.137,0.000
1680451126.166,-60.059,-37.598,-15.625,-55.664,0.000
1680451126.170,-48.828,-35.645,-16.602,-58.594,0.000
1680451126.174,-30.273,-32.227,-1.953,-27.832,0.000
1680451126.178,-32.715,-39.551,4.883,-22.949,0.000
1680451126.181,-38.574,-34.668,-17.578,-40.039,0.000
1680451126.185,-34.668,-28.320,-22.461,-46.875,0.000
1680451126.189,-32.227,-30.273,-17.578,-39.551,0.000
1680451126.193,-37.109,-28.320,-20.996,-39.551,0.000
1680451126.197,-39.551,-29.785,-24.902,-39.551,0.000
1680451126.201,-33.203,-32.715,-27.832,-36.621,0.000
1680451126.205,-31.250,-33.203,-27.344,-35.645,0.000
1680451126.209,-25.879,-29.785,-24.902,-35.645,0.000
1680451126.213,-19.043,-23.438,-24.414,-32.715,0.000
1680451126.217,-33.691,-29.297,-29.297,-21.973,0.000
1680451126.220,-44.922,-36.133,-22.461,-27.344,0.000
1680451126.224,-40.527,-30.762,-20.996,-46.387,0.000
1680451126.228,-30.762,-26.367,-33.203,-53.711,0.000
1680451126.232,-23.438,-22.461,-36.621,-49.805,0.000
1680451126.236,-27.344,-19.531,-32.715,-36.133,0.000
1680451126.240,-24.902,-19.043,-32.227,-25.879,0.000
1680451126.244,-27.832,-23.438,-35.156,-33.203,0.000
1680451126.248,-27.832,-24.902,-35.156,-35.645,0.000
1680451126.252,-12.695,-26.367,-26.855,-24.414,0.000
1680451126.256,-10.254,-26.855,-28.809,-14.160,0.000
1680451126.260,-17.578,-21.484,-43.457,-12.207,0.000
1680451126.263,-28.320,-20.020,-25.879,-17.578,0.000
1680451126.267,-35.156,-26.367,-12.695,-30.273,0.000
1680451126.271,-29.297,-25.391,-20.996,-31.250,0.000
1680451126.275,-29.297,-19.043,-20.996,-14.648,0.000
1680451126.279,-34.180,-25.391,-28.809,-14.648,0.000
1680451126.283,-36.621,-30.273,-21.484,-27.832,0.000
1680451126.287,-32.715,-24.902,-13.184,-34.180,0.000
1680451126.291,-27.832,-27.344,-26.367,-29.785,0.000
1680451126.295,-30.762,-29.785,-30.762,-13.184,0.000
1680451126.299,-32.227,-31.250,-26.855,3.418,0.000
1680451126.303,-18.066,-39.551,-23.926,2.441,0.000
1680451126.306,-4.883,-29.297,-13.184,-14.160,0.000
1680451126.310,-32.227,-21.484,-21.973,-49.805,0.000
1680451126.314,-63.477,-29.297,-30.273,-62.988,0.000
1680451126.318,-54.199,-24.902,-22.461,-42.480,0.000
1680451126.322,-46.387,-20.020,-37.109,-48.828,0.000
1680451126.326,-58.105,-21.973,-33.691,-67.383,0.000
1680451126.330,-63.477,-29.297,-30.273,-72.754,0.000
1680451126.334,-63.477,-32.227,-43.457,-65.918,0.000
1680451126.338,-61.523,-34.668,-36.621,-45.898,0.000
1680451126.342,-47.852,-34.180,-32.715,-36.133,0.000
1680451126.346,-35.156,-33.691,-39.062,-44.922,0.000
1680451126.349,-25.879,-32.715,-44.434,-48.340,0.000
1680451126.353,-20.996,-28.320,-41.016,-37.598,0.000
1680451126.357,-34.668,-30.273,-31.250,-22.461,0.000
1680451126.361,-34.668,-32.227,-28.320,-19.043,0.000
1680451126.365,-26.855,-34.668,-45.410,-46.387,0.000
1680451126.369,-35.645,-41.992,-31.738,-68.848,0.000
1680451126.373,-29.297,-40.527,-15.625,-51.270,0.000
1680451126.377,-27.832,-35.156,-26.367,-33.203,0.000
1680451126.381,-38.086,-34.180,-38.086,-39.062,0.000
1680451126.385,-34.668,-31.250,-46.875,-50.781,0.000
1680451126.389,-31.250,-28.809,-32.715,-46.875,0.000
1680451126.392,-34.668,-28.320,-22.461,-41.992,0.000
1680451126.396,-35.645,-27.832,-19.531,-26.367,0.000
1680451126.400,-38.086,-31.250,-17.090,-19.531,0.000
1680451126.404,-47.363,-38.086,-30.273,-42.969,0.000
1680451126.408,-42.480,-40.527,-39.551,-50.293,0.000
1680451126.412,-31.738,-35.156,-29.785,-44.434,0.000
1680451126.416,-39.551,-35.156,-22.461,-38.574,0.000
1680451126.420,-47.363,-29.785,-25.879,-26.855,0.000
1680451126.424,-48.828,-25.879,-30.762,-36.621,0.000
1680451126.428,-34.668,-29.785,-23.926,-47.852,0.000
1680451126.432,-31.250,-28.320,-24.902,-41.504,0.000
1680451126.435,-39.062,-30.762,-38.574,-38.574,0.000
1680451126.439,-44.922,-23.926,-31.738,-41.016,0.000
1680451126.443,-44.434,-17.578,-21.973,-45.410,0.000
1680451126.447,-35.645,-20.996,-31.250,-42.480,0.000
1680451126.451,-28.320,-21.973,-32.227,-31.738,0.000
1680451126.455,-32.227,-19.531,-29.785,-28.320,0.000
1680451126.459,-43.945,-26.855,-18.066,-26.367,0.000
1680451126.463,-43.945,-33.203,-23.926,-32.715,0.000
1680451126.467,-35.156,-25.391,-32.715,-30.762,0.000
1680451126.470,-26.855,-27.832,-31.738,-19.043,0.000
1680451126.475,-33.203,-30.273,-32.715,-22.461,0.000
1680451126.478,-44.434,-34.180,-31.738,-36.133,0.000
1680451126.482,-28.809,-27.832,-28.320,-38.086,0.000
1680451126.486,-13.672,-7.812,-15.137,-34.668,0.000
1680451126.490,-27.832,-13.672,-17.578,-45.410,0.000
1680451126.494,-39.551,-22.949,-17.090,-32.227,0.000
1680451126.498,-48.828,-24.414,-12.207,-11.230,0.000
1680451126.502,-40.039,-29.785,-26.367,-22.461,0.000
1680451126.506,-30.273,-31.250,-20.508,-37.109,0.000
1680451126.510,-27.344,-28.809,-2.930,-35.156,0.000
1680451126.513,-27.344,-23.438,-19.043,-22.949,0.000
1680451126.517,-31.738,-24.902,-34.668,-8.301,0.000
1680451126.521,-31.738,-25.391,-21.484,-14.648,0.000
1680451126.525,-31.738,-26.367,-16.602,-33.691,0.000
1680451126.529,-31.250,-31.250,-22.461,-24.902,0.000
1680451126.533,-34.180,-30.273,-21.973,-6.836,0.000
1680451126.537,-34.668,-27.832,-18.066,-5.371,0.000
1680451126.541,-31.738,-22.949,-18.555,-3.906,0.000
1680451126.545,-30.273,-20.020,-21.484,-19.531,0.000
1680451126.549,-23.438,-23.926,-17.578,-38.086,0.000
1680451126.553,-17.090,-27.832,-17.578,-30.273,0.000
1680451126.556,-23.438,-26.855,-20.020,-14.648,0.000
1680451126.560,-27.344,-24.902,-18.066,-11.230,0.000
1680451126.564,-21.973,-27.344,-24.902,-30.273,0.000
1680451126.568,-19.531,-33.203,-27.832,-41.016,0.000
1680451126.572,-24.414,-32.227,-25.391,-29.785,0.000
1680451126.576,-25.879,-27.344,-26.855,-29.297,0.000
1680451126.580,-37.598,-28.809,-22.949,-34.668,0.000
1680451126.584,-43.945,-30.762,-21.484,-39.551,0.000
1680451126.588,-29.785,-20.996,-23.438,-44.922,0.000
1680451126.592,-26.367,-19.531,-20.020,-38.574,0.000
1680451126.596,-32.227,-26.855,-4.395,-28.320,0.000
1680451126.599,-46.387,-27.344,-3.906,-26.855,0.000
1680451126.603,-47.363,-31.738,-23.926,-24.414,0.000
1680451126.607,-36.133,-36.133,-26.855,-23.926,0.000
1680451126.611,-33.203,-34.180,-21.484,-26.367,0.000
1680451126.615,-31.738,-34.180,-17.090,-30.762,0.000
1680451126.619,-34.668,-34.180,-15.625,-33.691,0.000
1680451126.623,-33.691,-28.320,-16.113,-28.809,0.000
1680451126.627,-34.180,-30.762,-20.996,-43.945,0.000
1680451126.631,-36.621,-28.809,-25.879,-46.387,0.000
1680451126.635,-38.574,-28.320,-26.855,-28.320,0.000
1680451126.638,-36.133,-32.715,-13.672,-23.926,0.000
1680451126.642,-32.227,-33.203,-2.441,-34.668,0.000
1680451126.646,-30.762,-35.156,-25.391,-41.504,0.000
1680451126.650,-24.414,-38.086,-31.738,-38.086,0.000
1680451126.654,-18.555,-31.738,-16.602,-28.809,0.000
1680451126.658,-27.344,-25.879,-14.160,-16.602,0.000
1680451126.662,-34.180,-34.180,-17.090,-20.508,0.000
1680451126.666,-39.062,-36.133,-20.020,-35.645,0.000
1680451126.670,-40.039,-31.738,-23.438,-36.621,0.000
1680451126.674,-33.691,-33.691,-19.531,-34.668,0.000
1680451126.678,-32.227,-33.203,-25.879,-34.668,0.000
1680451126.681,-24.902,-25.391,-37.598,-29.785,0.000
1680451126.685,-23.438,-22.949,-18.555,-25.879,0.000
1680451126.689,-25.391,-27.344,-14.648,-38.574,0.000
1680451126.693,-27.344,-26.367,-29.297,-47.852,0.000
1680451126.697,-39.551,-30.762,-28.320,-34.668,0.000
1680451126.701,-35.645,-34.180,-26.855,-32.227,0.000
1680451126.705,-36.133,-30.273,-27.832,-53.223,0.000
1680451126.709,-43.457,-29.297,-28.320,-63.965,0.000
1680451126.713,-45.410,-31.250,-28.809,-52.246,0.000
1680451126.717,-45.898,-26.855,-26.855,-25.879,0.000
1680451126.720,-44.434,-27.832,-23.926,-23.438,0.000
1680451126.724,-52.734,-31.738,-25.879,-58.594,0.000
1680451126.728,-34.668,-28.809,-24.902,-55.176,0.000
1680451126.732,-21.973,-20.996,-26.855,-43.457,0.000
1680451126.736,-49.805,-18.066,-36.133,-65.430,0.000
1680451126.740,-65.918,-17.578,-39.551,-70.312,0.000
1680451126.744,-63.965,-20.996,-46.875,-72.266,0.000
1680451126.748,-66.895,-22.949,-50.293,-77.637,0.000
1680451126.752,-71.289,-25.391,-50.293,-76.172,0.000
1680451126.756,-69.824,-32.715,-43.457,-62.988,0.000
1680451126.760,-65.918,-31.250,-35.156,-50.781,0.000
1680451126.763,-62.012,-27.344,-36.133,-59.570,0.000
1680451126.767,-55.176,-30.762,-33.691,-66.895,0.000
1680451126.771,-48.828,-32.227,-31.738,-57.617,0.000
1680451126.775,-42.480,-31.250,-33.691,-43.945,0.000
1680451126.779,-36.133,-32.715,-31.250,-30.273,0.000
1680451126.783,-38.574,-33.691,-31.738,-28.809,0.000
1680451126.787,-39.551,-40.039,-32.715,-53.711,0.000
1680451126.791,-35.156,-41.992,-33.203,-60.547,0.000
1680451126.795,-23.438,-34.180,-36.621,-43.945,0.000
1680451126.799,-24.414,-33.691,-39.551,-27.832,0.000
1680451126.803,-30.762,-35.645,-37.598,-33.691,0.000
1680451126.806,-19.531,-33.203,-31.250,-46.875,0.000
1680451126.810,-11.230,-35.645,-25.879,-39.062,0.000
1680451126.814,-18.066,-38.574,-34.180,-35.156,0.000
1680451126.818,-18.555,-36.621,-33.203,-30.273,0.000
1680451126.822,-19.043,-37.598,-36.133,-23.438,0.000
1680451126.826,-22.949,-33.691,-45.898,-22.461,0.000
1680451126.830,-23.926,-35.645,-38.574,-25.879,0.000
1680451126.834,-31.250,-40.039,-19.531,-21.973,0.000
1680451126.838,-41.504,-42.969,-11.719,-9.766,0.000
1680451126.842,-40.527,-36.133,-24.902,-14.160,0.000
1680451126.845,-39.062,-30.273,-32.715,-34.180,0.000
1680451126.849,-44.434,-32.227,-31.738,-44.434,0.000
1680451126.853,-38.574,-33.203,-24.414,-34.668,0.000
1680451126.857,-33.203,-33.691,-26.855,-23.926,0.000
1680451126.861,-35.156,-31.738,-32.715,-22.949,0.000
1680451126.865,-39.062,-33.203,-25.879,-30.762,0.000
1680451126.869,-32.227,-30.273,-23.438,-30.273,0.000
1680451126.873,-21.973,-22.949,-21.484,-9.766,0.000
1680451126.877,-25.879,-25.879,-20.996,-10.254,0.000
1680451126.881,-27.832,-32.715,-15.625,-24.414,0.000
1680451126.885,-24.414,-30.762,-13.672,-29.785,0.000
1680451126.888,-23.438,-27.344,-23.926,-30.273,0.000
1680451126.892,-19.043,-30.273,-31.738,-23.926,0.000
1680451126.896,-21.484,-33.691,-29.785,-8.789,0.000
1680451126.900,-22.461,-29.297,-24.414,-9.766,0.000
1680451126.904,-24.902,-23.926,-29.785,-26.367,0.000
1680451126.908,-27.344,-22.461,-30.273,-25.391,0.000
1680451126.912,-24.414,-25.391,-23.926,-16.113,0.000
1680451126.916,-29.785,-23.926,-19.531,-11.230,0.000
1680451126.920,-28.809,-17.578,-22.461,-16.113,0.000
1680451126.924,-21.973,-18.555,-28.320,-30.762,0.000
1680451126.928,-27.344,-24.902,-27.344,-48.340,0.000
1680451126.931,-32.715,-26.855,-23.926,-31.250,0.000
1680451126.935,-30.762,-18.555,-28.809,-9.277,0.000
1680451126.939,-23.926,-11.230,-26.855,-19.531,0.000
1680451126.943,-27.832,-18.066,-20.996,-41.504,0.000
1680451126.947,-31.250,-21.484,-32.227,-55.664,0.000
1680451126.951,-20.996,-10.742,-30.762,-44.434,0.000
1680451126.955,-24.414,-11.719,-28.809,-27.344,0.000
1680451126.959,-22.461,-17.578,-28.809,-17.090,0.000
1680451126.963,-22.949,-19.043,-26.855,-27.832,0.000
1680451126.967,-27.832,-16.602,-26.855,-40.039,0.000
1680451126.970,-32.227,-24.414,-32.227,-41.504,0.000
1680451126.974,-32.227,-28.320,-29.785,-30.762,0.000
1680451126.978,-30.273,-21.484,-22.461,-17.578,0.000
1680451126.982,-28.320,-20.996,-26.855,-15.625,0.000
1680451126.986,-24.902,-15.625,-24.414,-18.066,0.000
1680451126.990,-27.344,-11.719,-21.484,-34.668,0.000
1680451126.994,-21.484,-12.207,-24.414,-40.039,0.000
1680451126.998,-11.719,-10.742,-19.531,-18.555,0.000
1680451127.002,-16.113,-16.113,-17.090,-18.555,0.000
1680451127.006,-22.949,-19.043,-20.508,-35.645,0.000
1680451127.010,-20.996,-19.531,-23.926,-41.992,0.000
1680451127.013,-20.508,-17.578,-20.996,-34.180,0.000
1680451127.017,-22.461,-20.020,-15.625,-26.367,0.000
1680451127.021,-25.879,-21.973,-20.996,-37.109,0.000
1680451127.025,-29.785,-20.020,-23.926,-52.734,0.000
1680451127.029,-27.832,-16.602,-27.344,-46.875,0.000
1680451127.033,-21.973,-16.602,-29.785,-34.180,0.000
1680451127.037,-27.344,-18.066,-22.461,-41.992,0.000
1680451127.041,-35.645,-20.020,-12.695,-42.969,0.000
1680451127.045,-38.086,-18.555,-14.160,-45.410,0.000
1680451127.049,-31.738,-14.648,-20.020,-46.875,0.000
1680451127.053,-20.996,-16.113,-21.973,-32.715,0.000
1680451127.056,-26.855,-18.066,-29.297,-20.508,0.000
1680451127.060,-33.691,-18.555,-23.926,-25.879,0.000
1680451127.064,-36.621,-22.461,-23.926,-52.246,0.000
1680451127.068,-32.715,-22.461,-32.227,-62.988,0.000
1680451127.072,-30.762,-20.508,-32.715,-47.363,0.000
1680451127.076,-40.527,-25.391,-39.062,-28.320,0.000
1680451127.080,-31.250,-26.855,-37.109,-18.555,0.000
1680451127.084,-26.855,-22.461,-26.855,-41.992,0.000
1680451127.088,-41.016,-23.926,-20.996,-63.477,0.000
1680451127.092,-32.715,-21.973,-25.391,-48.828,0.000
1680451127.095,-29.297,-22.949,-22.461,-31.738,0.000
1680451127.099,-40.039,-27.832,-21.484,-40.039,0.000
1680451127.103,-23.926,-20.996,-22.461,-39.551,0.000
1680451127.107,-0.488,-9.277,-17.090,-23.438,0.000
1680451127.111,-18.066,-18.066,-19.043,-34.668,0.000
1680451127.115,-54.199,-36.133,-21.973,-44.434,0.000
1680451127.119,-53.711,-39.551,-17.578,-27.832,0.000
1680451127.123,-33.691,-37.598,-20.508,-30.762,0.000
1680451127.127,-37.109,-39.062,-27.832,-44.434,0.000
1680451127.131,-43.945,-42.969,-29.785,-41.992,0.000
1680451127.135,-36.621,-46.387,-29.785,-35.156,0.000
1680451127.138,-38.574,-43.945,-14.160,-26.855,0.000
1680451127.142,-44.922,-36.621,-24.902,-30.762,0.000
1680451127.146,-44.434,-39.551,-40.039,-45.898,0.000
1680451127.150,-38.086,-39.551,-30.273,-37.109,0.000
1680451127.154,-31.738,-36.621,-38.086,-14.160,0.000
1680451127.158,-31.250,-37.109,-36.133,-9.277,0.000
1680451127.162,-27.832,-31.738,-18.066,-25.391,0.000
1680451127.166,-20.508,-31.738,-11.719,-34.180,0.000
1680451127.170,-13.184,-34.180,-13.184,-36.133,0.000
1680451127.174,-19.531,-39.062,-20.020,-34.180,0.000
1680451127.178,-29.297,-39.062,-22.461,-18.066,0.000
1680451127.181,-30.273,-38.086,-22.949,-22.461,0.000
1680451127.185,-36.621,-42.969,-18.066,-37.598,0.000
1680451127.189,-39.062,-42.480,-18.555,-33.203,0.000
1680451127.193,-36.133,-42.969,-21.973,-21.973,0.000
1680451127.197,-40.039,-42.480,-22.461,-16.113,0.000
1680451127.201,-40.039,-33.691,-16.602,-17.090,0.000
1680451127.205,-34.668,-32.715,-22.949,-28.809,0.000
1680451127.209,-23.438,-34.668,-23.926,-25.391,0.000
1680451127.213,-25.879,-33.203,-17.578,-14.648,0.000
1680451127.217,-27.344,-31.738,-22.949,-5.371,0.000
1680451127.220,-25.879,-30.273,-20.996,-4.883,0.000
1680451127.224,-32.227,-34.180,-19.043,-27.832,0.000
1680451127.228,-36.133,-36.133,-23.926,-36.133,0.000
1680451127.232,-36.621,-33.203,-27.832,-16.113,0.000
1680451127.236,-36.621,-35.645,-31.738,-12.207,0.000
1680451127.240,-36.133,-32.715,-27.832,-13.184,0.000
1680451127.244,-39.062,-27.344,-18.066,-26.367,0.000
1680451127.248,-38.086,-26.855,-21.973,-45.898,0.000
1680451127.252,-18.555,-25.879,-28.320,-33.691,0.000
1680451127.256,-18.555,-28.320,-27.344,-18.066,0.000
1680451127.259,-41.992,-35.645,-27.344,-27.344,0.000
1680451127.263,-41.016,-37.109,-36.621,-36.621,0.000
1680451127.267,-33.203,-31.738,-41.016,-37.598,0.000
1680451127.271,-27.832,-29.297,-32.715,-32.227,0.000
1680451127.275,-25.391,-33.691,-18.066,-23.926,0.000
1680451127.279,-25.391,-34.668,-19.531,-32.715,0.000
1680451127.283,-32.227,-36.621,-28.320,-40.527,0.000
1680451127.287,-34.180,-43.945,-22.461,-44.922,0.000
1680451127.291,-29.785,-46.387,-20.996,-44.434,0.000
1680451127.295,-35.156,-42.480,-21.484,-24.902,0.000
1680451127.299,-44.434,-41.504,-25.391,-19.043,0.000
1680451127.302,-42.480,-42.480,-27.832,-22.461,0.000
1680451127.306,-36.621,-42.480,-23.438,-28.809,0.000
1680451127.310,-34.180,-38.574,-35.156,-42.969,0.000
1680451127.314,-33.691,-37.598,-54.199,-36.133,0.000
1680451127.318,-41.504,-45.410,-40.527,-27.832,0.000
1680451127.322,-44.922,-45.898,-29.297,-31.738,0.000
1680451127.326,-44.434,-43.945,-34.180,-47.852,0.000
1680451127.330,-40.527,-45.410,-17.090,-52.734,0.000
1680451127.334,-36.133,-47.363,-13.672,-27.832,0.000
1680451127.338,-35.645,-44.922,-38.086,-11.719,0.000
1680451127.342,-33.203,-41.992,-34.180,-22.949,0.000
1680451127.345,-39.551,-48.340,-14.648,-47.363,0.000
1680451127.349,-46.387,-53.711,-17.578,-54.688,0.000
1680451127.353,-34.668,-41.992,-23.926,-34.668,0.000
1680451127.357,-30.273,-29.785,-18.555,-21.484,0.000
1680451127.361,-38.574,-30.273,-18.555,-28.320,0.000
1680451127.365,-41.016,-31.738,-23.438,-36.133,0.000
1680451127.369,-36.621,-32.715,-27.832,-35.645,0.000
1680451127.373,-30.273,-31.738,-32.715,-35.156,0.000
1680451127.377,-25.391,-23.926,-31.250,-24.902,0.000
1680451127.381,-30.273,-28.320,-37.109,-15.625,0.000
1680451127.385,-28.809,-22.461,-39.062,-23.438,0.000
1680451127.388,-22.461,-16.113,-26.855,-36.621,0.000
1680451127.392,-17.578,-30.273,-26.367,-32.715,0.000
1680451127.396,-15.625,-30.762,-21.973,-14.648,0.000
1680451127.400,-18.066,-25.879,-16.113,-10.254,0.000
1680451127.404,-13.672,-18.066,-10.742,-16.113,0.000
1680451127.408,-7.812,-16.602,-11.230,-29.297,0.000
1680451127.412,-6.836,-21.484,-24.414,-29.785,0.000
1680451127.416,-19.043,-23.438,-26.367,-17.090,0.000
1680451127.420,-39.062,-23.926,-21.973,-14.160,0.000
1680451127.424,-39.551,-24.414,-35.156,-22.461,0.000
1680451127.428,-29.785,-28.320,-48.828,-32.715,0.000
1680451127.431,-21.973,-17.578,-26.855,-31.250,0.000
1680451127.435,-13.184,-20.020,3.418,-20.020,0.000
1680451127.439,-13.672,-31.250,3.418,-0.488,0.000
1680451127.443,-19.531,-25.391,-9.766,-15.137,0.000
1680451127.447,-25.391,-28.320,-29.785,-38.086,0.000
1680451127.451,-23.926,-34.180,-41.992,-29.297,0.000
1680451127.455,-21.484,-35.156,-23.438,-25.391,0.000
1680451127.459,-26.367,-32.227,-14.648,-15.625,0.000
1680451127.463,-26.367,-31.738,-15.137,-15.137,0.000
1680451127.467,-30.762,-33.691,-21.973,-32.227,0.000
1680451127.470,-36.621,-36.133,-29.297,-34.668,0.000
1680451127.474,-36.133,-38.574,-24.902,-29.297,0.000
1680451127.478,-30.273,-36.133,-20.508,-21.484,0.000
1680451127.482,-35.156,-33.203,-22.949,-25.391,0.000
1680451127.486,-33.691,-32.715,-30.273,-36.621,0.000
1680451127.490,-20.996,-36.621,-34.180,-35.156,0.000
1680451127.494,-15.137,-36.621,-27.832,-23.926,0.000
1680451127.498,-16.113,-26.367,-16.602,-8.789,0.000
1680451127.502,-20.996,-21.484,-12.207,-10.254,0.000
1680451127.506,-36.133,-36.621,-28.320,-41.992,0.000
1680451127.510,-40.039,-34.180,-30.762,-49.316,0.000
1680451127.513,-22.949,-19.043,-5.371,-21.973,0.000
1680451127.517,-37.109,-20.020,-28.320,-36.133,0.000
1680451127.521,-41.504,-5.371,-44.922,-47.363,0.000
1680451127.525,-40.527,-9.277,-19.531,-49.805,0.000
1680451127.529,-60.547,-28.320,-31.738,-70.801,0.000
1680451127.533,-72.266,-16.113,-42.969,-77.637,0.000
1680451127.537,-88.379,1.953,-23.438,-68.848,0.000
1680451127.541,-102.539,16.113,-29.785,-84.961,0.000
1680451127.545,-125.000,7.324,-62.500,-130.859,0.000
1680451127.549,-138.184,4.395,-68.359,-147.949,0.000
1680451127.553,-137.695,16.602,-73.242,-153.320,0.000
1680451127.556,-147.949,18.555,-60.547,-161.133,0.000
1680451127.560,-165.039,17.578,-26.367,-177.734,0.000
1680451127.564,-171.875,10.742,-8.789,-194.824,0.000
1680451127.568,-158.691,6.836,-16.602,-191.406,0.000
1680451127.572,-153.809,5.859,-21.973,-177.734,0.000
1680451127.576,-146.484,5.859,-28.809,-154.297,0.000
1680451127.580,-126.953,2.930,-38.086,-118.652,0.000
1680451127.584,-119.141,-16.602,-66.895,-107.422,0.000
1680451127.588,-97.656,-7.324,-100.098,-97.168,0.000
1680451127.592,-79.102,3.906,-62.500,-95.215,0.000
1680451127.595,-95.703,-29.785,-8.301,-113.770,0.000
1680451127.599,-81.055,-43.945,1.953,-97.168,0.000
1680451127.603,-52.246,-36.133,-12.695,-75.195,0.000
1680451127.607,-33.691,-32.715,-23.926,-63.965,0.000
1680451127.611,-20.996,-38.086,-31.738,-41.992,0.000
1680451127.615,-15.625,-40.527,-45.898,-17.578,0.000
1680451127.619,-7.812,-46.875,-48.340,-8.789,0.000
1680451127.623,-8.301,-54.688,-29.297,-12.695,0.000
1680451127.627,-1.953,-52.246,-29.297,-16.113,0.000
1680451127.631,8.789,-50.781,-33.203,0.977,0.000
1680451127.634,19.043,-49.805,-24.902,30.273,0.000
1680451127.638,22.949,-42.480,-20.996,39.551,0.000
1680451127.642,19.531,-41.016,-26.855,36.133,0.000
1680451127.646,27.344,-38.574,-20.020,36.133,0.000
1680451127.650,43.457,-39.551,-39.551,32.227,0.000
1680451127.654,33.691,-52.246,-52.246,45.410,0.000
1680451127.658,21.973,-51.270,-5.859,50.293,0.000
1680451127.662,20.020,-45.898,5.859,22.461,0.000
1680451127.666,17.578,-48.340,-9.766,9.766,0.000
1680451127.670,24.902,-43.945,-12.695,19.043,0.000
1680451127.674,31.738,-41.504,-15.137,22.949,0.000
1680451127.677,25.391,-52.734,-22.461,29.297,0.000
1680451127.681,18.066,-49.805,-24.902,36.621,0.000
1680451127.685,23.926,-41.504,-29.297,38.574,0.000
1680451127.689,16.113,-49.805,-24.902,26.367,0.000
1680451127.693,6.348,-51.758,-14.160,15.625,0.000
1680451127.697,3.906,-46.875,-14.648,19.531,0.000
1680451127.701,4.883,-41.504,-22.461,20.020,0.000
1680451127.705,9.766,-37.598,-28.320,8.301,0.000
1680451127.709,5.859,-42.480,-26.367,-0.488,0.000
1680451127.713,9.277,-43.945,-19.043,14.160,0.000
1680451127.717,15.625,-40.527,-19.531,16.113,0.000
1680451127.720,11.719,-44.922,-31.250,10.254,0.000
1680451127.724,15.137,-49.316,-37.109,5.371,0.000
1680451127.728,33.203,-41.992,-66.406,7.812,0.000
1680451127.732,26.855,-32.715,-52.734,0.977,0.000
1680451127.736,3.906,-34.668,2.930,-15.137,0.000
1680451127.740,-6.348,-39.062,3.418,-17.578,0.000
1680451127.744,-9.766,-40.527,-4.395,-12.695,0.000
1680451127.748,-1.953,-34.180,-11.719,-10.254,0.000
1680451127.752,2.930,-33.691,-33.691,-11.719,0.000
1680451127.756,0.488,-34.668,-34.180,-0.977,0.000
1680451127.760,-3.418,-28.320,-26.855,-1.465,0.000
1680451127.763,-6.348,-30.762,-25.879,-10.254,0.000
1680451127.767,-1.465,-36.621,-41.992,-17.578,0.000
1680451127.771,-7.812,-39.062,-50.293,-24.414,0.000
1680451127.775,-12.695,-41.504,-30.273,-20.508,0.000
1680451127.779,-22.461,-45.410,-34.668,-22.461,0.000
1680451127.783,-26.855,-41.504,-50.293,-23.926,0.000
1680451127.787,-11.719,-34.668,-45.410,-27.832,0.000
1680451127.791,-5.371,-38.574,-29.297,-42.969,0.000
1680451127.795,-16.113,-36.133,-18.555,-29.297,0.000
1680451127.799,-21.973,-33.203,-16.113,-12.695,0.000
1680451127.802,-20.508,-43.457,-41.504,-12.695,0.000
1680451127.806,-24.414,-40.527,-52.246,-20.996,0.000
1680451127.810,-35.156,-34.180,-21.484,-39.062,0.000
1680451127.814,-29.297,-34.668,-18.555,-29.297,0.000
1680451127.818,-17.578,-31.738,-32.227,-9.766,0.000
1680451127.822,-13.672,-29.785,-36.621,-11.719,0.000
1680451127.826,-10.254,-24.902,-23.438,-23.438,0.000
1680451127.830,-22.461,-27.832,-12.207,-30.273,0.000
1680451127.834,-35.645,-24.414,-20.508,-22.461,0.000
1680451127.838,-40.039,-22.949,-36.621,-25.879,0.000
1680451127.841,-50.293,-26.855,-46.387,-39.062,0.000
1680451127.845,-42.480,-20.508,-41.504,-26.367,0.000
1680451127.849,-26.367,-19.043,-38.574,-20.020,0.000
1680451127.853,-23.926,-24.902,-33.691,-37.598,0.000
1680451127.857,-31.250,-29.785,-15.137,-33.691,0.000
1680451127.861,-41.504,-35.156,-15.625,-39.062,0.000
1680451127.865,-39.551,-36.133,-28.320,-55.176,0.000
1680451127.869,-36.621,-41.504,-27.344,-53.711,0.000
1680451127.873,-37.109,-40.527,-19.043,-31.738,0.000
1680451127.877,-25.879,-32.715,-33.691,-11.230,0.000
1680451127.881,-24.902,-33.691,-42.969,-19.043,0.000
1680451127.884,-28.320,-34.180,-34.668,-40.527,0.000
1680451127.888,-19.531,-22.461,-27.832,-39.551,0.000
1680451127.892,-18.066,-20.996,-11.719,-27.832,0.000
1680451127.896,-20.020,-29.297,-13.672,-25.391,0.000
1680451127.900,-18.066,-28.809,-30.273,-24.414,0.000
1680451127.904,-17.090,-25.391,-37.598,-25.879,0.000
1680451127.908,-19.043,-28.320,-30.273,-25.391,0.000
1680451127.912,-18.066,-28.809,-22.949,-14.648,0.000
1680451127.916,-16.113,-24.414,-11.719,-3.418,0.000
1680451127.920,-19.531,-23.438,-6.836,-18.066,0.000
1680451127.923,-17.578,-25.391,-20.020,-39.062,0.000
1680451127.928,-20.020,-22.461,-19.043,-34.668,0.000
1680451127.931,-24.414,-24.414,-24.902,-26.855,0.000
1680451127.935,-15.625,-18.066,-26.367,-8.789,0.000
1680451127.939,-14.648,-11.230,-20.508,-11.230,0.000
1680451127.943,-21.484,-20.996,-34.180,-29.297,0.000
1680451127.947,-21.484,-27.832,-35.645,-27.832,0.000
1680451127.951,-15.137,-24.902,-27.832,-38.574,0.000
1680451127.955,-11.719,-22.461,-24.414,-46.387,0.000
1680451127.959,-21.484,-27.832,-18.066,-46.875,0.000
1680451127.963,-24.414,-24.902,-10.742,-48.340,0.000
1680451127.966,-20.508,-17.090,-14.160,-49.805,0.000
1680451127.970,-21.484,-21.973,-20.020,-51.270,0.000
1680451127.974,-22.949,-26.367,-23.926,-38.574,0.000
1680451127.978,-25.879,-26.855,-21.484,-24.414,0.000
1680451127.982,-28.320,-28.320,-28.320,-31.250,0.000
1680451127.986,-33.691,-24.414,-33.203,-42.969,0.000
1680451127.990,-33.203,-28.320,-21.973,-41.504,0.000
1680451127.994,-23.926,-28.320,-27.344,-22.461,0.000
1680451127.998,-24.902,-21.484,-31.738,-14.160,0.000
1680451128.002,-31.738,-27.344,-32.715,-40.527,0.000
1680451128.006,-22.461,-29.297,-27.832,-54.199,0.000
1680451128.009,-15.625,-26.367,-19.531,-48.828,0.000
1680451128.013,-30.273,-31.250,-20.020,-42.480,0.000
1680451128.017,-43.457,-35.156,-31.738,-26.855,0.000
1680451128.021,-39.062,-30.762,-36.133,-43.945,0.000
1680451128.025,-40.039,-30.762,-17.090,-68.359,0.000
1680451128.029,-37.598,-34.668,-15.625,-65.918,0.000
1680451128.033,-40.527,-35.156,-23.438,-59.570,0.000
1680451128.037,-49.805,-31.250,-15.137,-41.504,0.000
1680451128.041,-50.293,-28.320,-21.973,-41.504,0.000
1680451128.045,-43.457,-21.484,-27.832,-47.363,0.000
1680451128.049,-30.762,-14.160,-18.555,-51.758,0.000
1680451128.052,-29.297,-21.973,-10.742,-50.293,0.000
1680451128.056,-27.832,-23.438,-12.207,-33.691,0.000
1680451128.060,-25.879,-22.461,-41.016,-33.691,0.000
1680451128.064,-23.926,-23.926,-52.734,-30.762,0.000
1680451128.068,-18.555,-23.438,-27.832,-28.320,0.000
1680451128.072,-13.672,-19.531,-13.672,-19.531,0.000
1680451128.076,-16.602,-18.555,-15.137,13.184,0.000
1680451128.080,-22.949,-20.996,-37.109,1.465,0.000
