timestamps,TP9,AF7,AF8,TP10,Right AUX
1680449783.748,354.004,21.484,-27.832,388.184,0.000
1680449783.752,158.691,10.254,-29.785,-923.340,0.000
1680449783.756,-133.301,-10.742,-23.438,907.715,0.000
1680449783.759,71.289,-6.836,-17.578,986.328,0.000
1680449783.763,372.559,-3.418,-23.438,900.879,0.000
1680449783.767,341.797,14.648,-25.879,-933.594,0.000
1680449783.771,-87.402,-39.062,-27.832,625.977,0.000
1680449783.775,-643.066,-160.156,-39.062,-798.340,0.000
1680449783.779,-498.535,-118.164,-29.297,-1000.000,0.000
1680449783.783,51.758,-23.926,-10.254,-941.895,0.000
1680449783.787,145.508,8.301,-24.902,-1000.000,0.000
1680449783.791,-151.367,-12.207,-33.203,-991.699,0.000
1680449783.795,-390.625,-63.965,-25.391,-953.125,0.000
1680449783.798,-250.000,-20.996,-25.879,-1000.000,0.000
1680449783.802,389.648,76.660,-24.902,-72.754,0.000
1680449783.806,693.359,43.457,-27.344,-931.641,0.000
1680449783.810,233.887,-40.527,-28.809,933.105,0.000
1680449783.814,-132.812,-37.109,-21.484,950.684,0.000
1680449783.818,-66.895,-8.301,-21.973,972.168,0.000
1680449783.822,272.461,-29.785,-21.973,964.844,0.000
1680449783.826,396.973,-40.039,-24.902,910.645,0.000
1680449783.830,142.090,-53.711,-35.156,-900.391,0.000
1680449783.834,-405.762,-78.613,-33.203,126.465,0.000
1680449783.838,-582.031,-77.148,-32.227,-1000.000,0.000
1680449783.841,-135.254,-45.898,-29.785,-1000.000,0.000
1680449783.845,278.809,-8.789,-27.344,-296.387,0.000
1680449783.849,376.953,39.062,-26.367,994.629,0.000
1680449783.853,-4.883,-5.371,-23.438,968.262,0.000
1680449783.857,-125.488,-52.734,-24.902,932.617,0.000
1680449783.861,218.750,-10.254,-27.832,984.863,0.000
1680449783.865,421.387,7.812,-30.762,897.461,0.000
1680449783.869,244.141,-40.527,-20.020,-896.484,0.000
1680449783.873,-265.137,-85.938,-16.113,343.262,0.000
1680449783.877,-640.625,-127.441,-28.320,-1000.000,0.000
1680449783.881,-268.066,-67.871,-27.832,-1000.000,0.000
1680449783.884,148.438,-30.273,-26.367,-960.449,0.000
1680449783.888,39.551,-51.758,-28.320,-1000.000,0.000
1680449783.892,-304.199,-49.805,-32.227,-972.168,0.000
1680449783.896,-383.301,-34.668,-29.297,-990.723,0.000
1680449783.900,-83.496,-17.090,-37.598,-1000.000,0.000
1680449783.904,497.559,18.555,-33.691,200.195,0.000
1680449783.908,591.309,33.691,-30.273,-907.715,0.000
1680449783.912,58.594,-18.555,-39.062,910.156,0.000
1680449783.916,-201.172,-85.449,-33.203,966.797,0.000
1680449783.920,57.129,-41.016,-29.785,974.121,0.000
1680449783.923,387.207,-18.066,-23.926,942.383,0.000
1680449783.927,313.477,-21.973,-15.137,953.613,0.000
1680449783.931,-6.836,-39.062,-19.043,997.070,0.000
1680449783.935,-469.238,-91.309,-20.508,-145.020,0.000
1680449783.939,-486.328,-87.402,-23.926,-1000.000,0.000
1680449783.943,18.066,-27.832,-30.762,-799.316,0.000
1680449783.947,402.344,20.020,-32.227,433.594,0.000
1680449783.951,214.355,-20.020,-33.691,-836.426,0.000
1680449783.955,-240.234,-53.711,-36.133,512.207,0.000
1680449783.959,-382.812,-23.438,-23.438,-963.867,0.000
1680449783.963,-5.859,-19.043,-15.137,-638.184,0.000
1680449783.966,457.031,-19.043,-23.438,792.969,0.000
1680449783.970,232.422,-42.969,-23.438,-851.562,0.000
1680449783.974,-310.059,-78.613,-24.414,231.934,0.000
1680449783.978,-475.098,-88.379,-25.879,-953.125,0.000
1680449783.982,-114.258,-77.148,-28.809,-1000.000,0.000
1680449783.986,306.641,8.789,-28.320,-227.051,0.000
1680449783.990,329.590,62.012,-30.762,-986.328,0.000
1680449783.994,-92.773,-26.855,-30.273,958.496,0.000
1680449783.998,-133.789,-58.105,-28.320,937.500,0.000
1680449784.002,233.398,-6.836,-31.738,974.121,0.000
1680449784.006,401.367,22.949,-15.625,908.203,0.000
1680449784.009,138.672,-44.922,-14.648,-897.461,0.000
1680449784.013,-448.242,-90.332,-25.391,146.484,0.000
1680449784.017,-702.637,-116.211,-22.461,-1000.000,0.000
1680449784.021,-254.395,-67.871,-20.020,-1000.000,0.000
1680449784.025,255.371,16.113,-26.367,-276.367,0.000
1680449784.029,346.191,18.066,-29.785,974.609,0.000
1680449784.033,-53.711,-52.734,-28.809,-973.145,0.000
1680449784.037,-398.926,-47.852,-28.809,7.324,0.000
1680449784.041,-340.332,-48.340,-23.438,-1000.000,0.000
1680449784.045,220.215,-12.695,-19.531,-209.961,0.000
1680449784.048,396.484,37.109,-12.695,986.816,0.000
1680449784.052,-26.855,-4.395,-8.301,-916.992,0.000
1680449784.056,-413.086,-99.121,-16.113,195.312,0.000
1680449784.060,-406.738,-103.027,-12.207,-1000.000,0.000
1680449784.064,189.453,-5.859,-5.859,-242.188,0.000
1680449784.068,453.125,59.570,-11.719,986.816,0.000
1680449784.072,38.574,9.766,-24.902,-910.156,0.000
1680449784.076,-429.199,-108.887,-27.832,215.332,0.000
1680449784.080,-506.348,-88.867,-23.926,-1000.000,0.000
1680449784.084,184.082,35.156,-26.855,-216.309,0.000
1680449784.088,521.484,35.645,-26.855,-895.508,0.000
1680449784.091,-37.598,-70.801,-24.414,847.656,0.000
1680449784.095,-590.332,-90.332,-25.879,-410.156,0.000
1680449784.099,-499.023,-54.688,-24.414,-1000.000,0.000
1680449784.103,156.250,-26.367,-20.996,-326.172,0.000
1680449784.107,556.641,15.625,-19.043,961.426,0.000
1680449784.111,162.598,-21.484,-17.578,980.957,0.000
1680449784.115,-216.797,-24.414,-20.996,926.758,0.000
1680449784.119,-24.902,-9.277,-21.484,982.910,0.000
1680449784.123,350.098,7.324,-17.090,949.219,0.000
1680449784.127,399.414,17.090,-14.648,938.477,0.000
1680449784.131,62.988,-34.668,-17.090,-965.820,0.000
1680449784.134,-541.504,-108.887,-25.879,-31.738,0.000
1680449784.138,-661.621,-86.914,-23.926,-1000.000,0.000
1680449784.142,2.441,33.691,-23.438,-586.914,0.000
1680449784.146,562.500,67.871,-26.367,792.969,0.000
1680449784.150,305.664,-15.625,-27.344,-972.656,0.000
1680449784.154,-197.754,-56.641,-23.438,910.645,0.000
1680449784.158,-123.047,-31.738,-16.113,982.910,0.000
1680449784.162,283.691,10.742,-16.113,962.891,0.000
1680449784.166,418.945,1.465,-19.043,913.574,0.000
1680449784.170,150.879,-38.574,-22.949,-904.785,0.000
1680449784.173,-477.051,-70.312,-26.855,95.215,0.000
1680449784.177,-729.492,-73.242,-33.203,-1000.000,0.000
1680449784.181,-228.027,-22.949,-37.109,-1000.000,0.000
1680449784.185,300.293,5.371,-39.551,-291.504,0.000
1680449784.189,392.090,30.762,-39.062,929.199,0.000
1680449784.193,-32.715,24.414,-42.969,-900.391,0.000
1680449784.197,-352.051,-54.199,-42.480,257.324,0.000
1680449784.201,-328.613,-100.098,-34.668,-1000.000,0.000
1680449784.205,42.480,-35.645,-32.715,-1000.000,0.000
1680449784.209,-3.906,3.418,-38.086,-976.562,0.000
1680449784.213,-407.227,-14.648,-41.504,-959.961,0.000
1680449784.216,-470.703,-9.277,-36.621,-1000.000,0.000
1680449784.220,-77.637,-7.324,-34.668,-868.652,0.000
1680449784.224,628.906,54.199,-34.668,504.883,0.000
1680449784.228,672.852,56.641,-34.668,-926.758,0.000
1680449784.232,7.324,-29.297,-39.551,903.320,0.000
1680449784.236,-243.164,-34.180,-40.039,977.539,0.000
1680449784.240,97.656,53.711,-38.086,976.562,0.000
1680449784.244,454.102,32.227,-31.250,928.711,0.000
1680449784.248,350.586,-20.020,-26.855,982.910,0.000
1680449784.252,-84.473,-32.227,-29.785,929.199,0.000
1680449784.256,-661.621,-104.980,-29.785,-375.488,0.000
1680449784.259,-548.828,-66.895,-27.344,-1000.000,0.000
1680449784.263,67.383,-26.367,-25.879,-939.453,0.000
1680449784.267,144.043,-12.207,-28.809,-1000.000,0.000
1680449784.271,-215.820,7.812,-29.785,-1000.000,0.000
1680449784.275,-470.703,-50.293,-31.738,-939.453,0.000
1680449784.279,-256.348,-56.641,-33.691,-1000.000,0.000
1680449784.283,490.234,63.477,-29.785,-198.730,0.000
1680449784.287,879.883,127.441,-26.367,-956.055,0.000
1680449784.291,280.762,-18.555,-20.508,948.242,0.000
1680449784.295,-187.012,-55.664,-19.043,941.895,0.000
1680449784.298,-31.250,-20.020,-27.344,979.980,0.000
1680449784.302,383.789,-10.254,-27.832,941.406,0.000
1680449784.306,473.145,-15.137,-28.809,954.102,0.000
1680449784.310,118.164,-44.922,-30.273,-987.305,0.000
1680449784.314,-580.078,-90.332,-27.344,-204.102,0.000
1680449784.318,-687.500,-56.152,-22.949,-1000.000,0.000
1680449784.322,-71.289,-8.789,-21.973,-1000.000,0.000
1680449784.326,427.246,-6.836,-26.855,-152.344,0.000
1680449784.330,425.781,25.391,-32.227,-950.195,0.000
1680449784.334,-82.520,5.859,-24.902,943.359,0.000
1680449784.338,-131.836,-40.527,-20.020,944.824,0.000
1680449784.341,315.430,-16.602,-30.273,973.633,0.000
1680449784.345,545.410,-7.812,-35.156,905.762,0.000
1680449784.349,305.176,-9.277,-32.715,-896.973,0.000
1680449784.353,-395.020,-80.078,-38.086,192.383,0.000
1680449784.357,-763.184,-139.160,-36.133,-1000.000,0.000
1680449784.361,-206.543,-29.297,-27.832,-1000.000,0.000
1680449784.365,543.945,62.988,-30.273,-63.965,0.000
1680449784.369,618.164,18.066,-37.109,-890.625,0.000
1680449784.373,-31.738,-59.570,-40.039,778.809,0.000
1680449784.377,-513.672,-67.871,-37.109,-480.469,0.000
1680449784.381,-310.547,-39.551,-20.996,-1000.000,0.000
1680449784.384,330.566,-27.344,-20.508,-392.578,0.000
1680449784.388,587.891,-0.488,-33.203,932.129,0.000
1680449784.392,130.859,-50.781,-27.344,996.094,0.000
1680449784.396,-463.379,-81.543,-23.926,-208.496,0.000
1680449784.400,-414.062,-64.453,-26.855,-1000.000,0.000
1680449784.404,431.641,6.348,-23.438,-142.578,0.000
1680449784.408,729.492,30.762,-19.531,996.094,0.000
1680449784.412,132.812,-42.969,-23.438,-928.711,0.000
1680449784.416,-476.562,-96.680,-30.273,148.438,0.000
1680449784.420,-543.457,-109.375,-37.598,-1000.000,0.000
1680449784.423,290.039,11.230,-25.879,-236.816,0.000
1680449784.427,718.262,40.039,-17.578,987.305,0.000
1680449784.431,218.750,-51.758,-32.715,-923.828,0.000
1680449784.435,-442.383,-104.004,-31.250,164.062,0.000
1680449784.439,-570.801,-127.441,-25.391,-1000.000,0.000
1680449784.443,34.180,-47.852,-28.809,-868.652,0.000
1680449784.447,588.379,32.715,-35.645,474.121,0.000
1680449784.451,338.379,-3.418,-31.738,-931.152,0.000
1680449784.455,-189.941,-25.879,-27.344,905.762,0.000
1680449784.459,-20.996,4.883,-29.297,976.074,0.000
1680449784.463,437.500,-10.254,-27.832,964.355,0.000
1680449784.466,506.836,-33.691,-30.762,911.621,0.000
1680449784.470,151.367,-31.250,-29.785,-902.344,0.000
1680449784.474,-540.527,-88.867,-29.785,118.164,0.000
1680449784.478,-772.461,-121.094,-42.969,-1000.000,0.000
1680449784.482,-68.848,-59.570,-42.969,-975.098,0.000
1680449784.486,285.645,-58.105,-30.273,-978.516,0.000
1680449784.490,-41.992,-42.480,-27.832,-1000.000,0.000
1680449784.494,-441.895,-55.664,-35.645,-928.711,0.000
1680449784.498,-416.992,-69.824,-39.551,-1000.000,0.000
1680449784.502,219.727,-27.832,-31.250,-445.801,0.000
1680449784.506,944.824,39.551,-26.855,940.918,0.000
1680449784.509,657.227,10.254,-25.879,991.699,0.000
1680449784.513,-46.875,-54.688,-26.855,921.875,0.000
1680449784.517,-117.676,-33.691,-20.996,980.469,0.000
1680449784.521,357.910,27.832,-19.531,969.727,0.000
1680449784.525,638.672,1.953,-33.203,903.320,0.000
1680449784.529,378.906,-65.430,-26.855,-894.043,0.000
1680449784.533,-379.395,-113.770,-15.625,211.914,0.000
1680449784.537,-829.102,-102.539,-22.949,-1000.000,0.000
1680449784.541,-318.359,-44.922,-26.855,-1000.000,0.000
1680449784.545,501.953,15.137,-27.832,-189.453,0.000
1680449784.548,722.168,58.594,-25.391,989.746,0.000
1680449784.552,117.676,6.836,-28.320,-948.730,0.000
1680449784.556,-481.934,-89.355,-28.809,71.777,0.000
1680449784.560,-491.211,-106.445,-26.367,-1000.000,0.000
1680449784.564,340.332,16.602,-31.250,-260.254,0.000
1680449784.568,720.215,56.152,-34.668,-995.117,0.000
1680449784.572,115.723,-53.223,-34.668,-975.098,0.000
1680449784.576,-585.938,-109.375,-28.320,-26.855,0.000
1680449784.580,-616.211,-110.840,-27.832,-1000.000,0.000
1680449784.584,239.258,0.977,-29.785,-359.863,0.000
1680449784.588,735.352,41.016,-29.297,997.070,0.000
1680449784.591,187.012,-54.199,-31.250,954.590,0.000
1680449784.595,-663.574,-133.789,-35.156,-285.645,0.000
1680449784.599,-673.340,-84.961,-32.227,-1000.000,0.000
1680449784.603,198.242,16.602,-21.973,-452.148,0.000
1680449784.607,704.590,51.758,-24.902,889.648,0.000
1680449784.611,211.426,14.648,-31.738,-995.605,0.000
1680449784.615,-289.551,-15.625,-31.738,917.480,0.000
1680449784.619,-87.402,-30.762,-19.531,991.699,0.000
1680449784.623,419.434,-21.973,-12.207,925.293,0.000
1680449784.627,483.398,-33.691,-23.438,991.211,0.000
1680449784.631,-3.418,-33.691,-29.297,912.109,0.000
1680449784.634,-792.969,-106.445,-32.715,-423.828,0.000
1680449784.638,-841.797,-109.375,-26.855,-1000.000,0.000
1680449784.642,-149.414,-17.090,-23.926,-1000.000,0.000
1680449784.646,399.414,43.457,-31.738,-319.824,0.000
1680449784.650,469.727,24.414,-37.598,-843.750,0.000
1680449784.654,-300.781,-84.473,-38.574,365.723,0.000
1680449784.658,-750.000,-81.543,-31.250,-1000.000,0.000
1680449784.662,-170.898,-9.277,-26.855,-965.820,0.000
1680449784.666,642.578,9.766,-20.996,308.594,0.000
1680449784.670,568.848,3.418,-24.902,-855.469,0.000
1680449784.673,-171.387,-51.270,-30.273,670.410,0.000
1680449784.677,-658.203,-91.797,-24.902,-617.188,0.000
1680449784.681,-340.820,-48.340,-29.297,-1000.000,0.000
1680449784.685,583.496,30.762,-33.203,-19.531,0.000
1680449784.689,647.461,15.137,-34.180,-941.406,0.000
1680449784.693,-54.688,-41.992,-33.691,919.434,0.000
1680449784.697,-569.824,-65.918,-27.344,-236.816,0.000
1680449784.701,-423.828,-71.289,-27.344,-1000.000,0.000
1680449784.705,476.074,14.648,-30.762,-176.270,0.000
1680449784.709,735.840,43.457,-17.578,-988.770,0.000
1680449784.713,107.422,-35.156,-19.043,-972.168,0.000
1680449784.716,-523.926,-103.516,-33.691,-49.316,0.000
1680449784.720,-474.121,-79.102,-32.227,-1000.000,0.000
1680449784.724,503.906,29.785,-29.297,-137.695,0.000
1680449784.728,823.242,35.645,-27.832,-991.699,0.000
1680449784.732,158.691,-26.855,-29.785,-941.895,0.000
1680449784.736,-497.559,-66.406,-22.949,126.465,0.000
1680449784.740,-508.301,-64.941,-18.555,-1000.000,0.000
1680449784.744,396.484,1.465,-20.020,-284.668,0.000
1680449784.748,856.445,31.250,-20.508,953.613,0.000
1680449784.752,292.480,-19.531,-27.344,-908.203,0.000
1680449784.756,-407.715,-89.355,-17.578,295.898,0.000
1680449784.759,-578.125,-143.555,-13.184,-1000.000,0.000
1680449784.763,41.992,-53.223,-21.484,-920.410,0.000
1680449784.767,638.184,2.930,-23.926,356.934,0.000
1680449784.771,416.504,14.648,-24.414,-806.641,0.000
1680449784.775,-400.879,-68.848,-28.320,242.676,0.000
1680449784.779,-683.105,-147.461,-30.762,-1000.000,0.000
1680449784.783,99.121,-22.461,-29.297,-619.629,0.000
1680449784.787,882.812,93.262,-26.367,749.023,0.000
1680449784.791,588.379,35.645,-25.391,-849.609,0.000
1680449784.795,-348.633,-110.840,-32.715,282.715,0.000
1680449784.798,-689.941,-112.793,-19.043,-1000.000,0.000
1680449784.802,209.961,62.988,-4.395,-393.555,0.000
1680449784.806,948.242,38.086,-24.414,924.805,0.000
1680449784.810,539.062,-53.223,-28.809,-891.602,0.000
1680449784.814,-296.875,-77.148,-22.949,322.266,0.000
1680449784.818,-687.012,-93.262,-26.855,-984.863,0.000
1680449784.822,-86.426,-48.828,-28.809,-1000.000,0.000
1680449784.826,396.973,-16.113,-24.902,-958.984,0.000
1680449784.830,69.336,3.418,-21.973,-1000.000,0.000
1680449784.834,-451.660,-35.156,-26.855,-992.676,0.000
1680449784.838,-411.621,-60.059,-26.367,-951.660,0.000
1680449784.841,157.715,-21.973,-23.438,-1000.000,0.000
1680449784.845,750.000,24.902,-17.090,-150.879,0.000
1680449784.849,822.266,47.852,-20.996,-872.559,0.000
1680449784.853,94.238,-48.340,-31.738,710.449,0.000
1680449784.857,-539.551,-90.332,-29.297,-616.211,0.000
1680449784.861,-240.723,-55.176,-17.090,-1000.000,0.000
1680449784.865,657.227,20.996,-17.578,-90.332,0.000
1680449784.869,803.711,11.230,-34.180,-947.266,0.000
1680449784.873,95.703,-56.641,-38.086,934.082,0.000
1680449784.877,-560.059,-87.891,-26.367,-279.297,0.000
1680449784.881,-402.344,-46.875,-25.879,-1000.000,0.000
1680449784.884,605.469,44.922,-33.203,-69.824,0.000
1680449784.888,834.961,12.695,-35.156,-943.359,0.000
1680449784.892,93.262,-29.297,-35.156,938.965,0.000
1680449784.896,-221.191,-17.090,-30.273,947.266,0.000
1680449784.900,165.039,-37.109,-28.809,977.539,0.000
1680449784.904,640.625,-23.926,-18.066,899.902,0.000
1680449784.908,563.965,-60.547,-18.066,-893.555,0.000
1680449784.912,-254.883,-91.309,-28.809,272.949,0.000
1680449784.916,-960.449,-83.008,-30.762,-970.215,0.000
1680449784.920,-558.594,-79.102,-29.297,-1000.000,0.000
1680449784.923,411.621,31.738,-20.020,-301.758,0.000
1680449784.927,908.203,76.660,-19.043,981.445,0.000
1680449784.931,340.820,-57.617,-27.344,-988.770,0.000
1680449784.935,-617.188,-146.484,-29.785,-170.898,0.000
1680449784.939,-673.828,-77.637,-24.414,-1000.000,0.000
1680449784.943,386.719,59.082,-16.602,-205.078,0.000
1680449784.947,954.102,36.621,-19.043,973.145,0.000
1680449784.951,434.082,-51.758,-21.484,-924.805,0.000
1680449784.955,-507.324,-121.582,-18.555,147.461,0.000
1680449784.959,-739.258,-125.977,-21.973,-1000.000,0.000
1680449784.963,62.500,-34.668,-18.066,-803.223,0.000
1680449784.966,809.082,32.715,-17.578,504.395,0.000
1680449784.970,616.211,-1.953,-27.832,-800.781,0.000
1680449784.974,-377.441,-97.656,-29.785,161.621,0.000
1680449784.978,-722.656,-117.676,-24.414,-982.422,0.000
1680449784.982,-71.777,-59.082,-23.926,-1000.000,0.000
1680449784.986,602.051,11.719,-23.438,-231.445,0.000
1680449784.990,679.199,51.758,-30.273,-983.887,0.000
1680449784.994,14.648,-52.246,-16.113,958.008,0.000
1680449784.998,-121.582,-72.266,-3.418,937.500,0.000
1680449785.002,432.129,-30.762,-20.996,977.051,0.000
1680449785.005,723.633,-3.418,-22.461,903.809,0.000
1680449785.009,390.137,-17.090,-25.391,-893.555,0.000
1680449785.013,-465.332,-113.281,-31.250,200.684,0.000
1680449785.017,-942.871,-132.324,-31.738,-1000.000,0.000
1680449785.021,-280.273,-43.457,-33.691,-986.328,0.000
1680449785.025,325.684,-34.180,-30.273,-972.168,0.000
1680449785.029,125.977,-43.945,-25.879,-1000.000,0.000
1680449785.033,-365.234,-25.879,-27.344,-932.129,0.000
1680449785.037,-492.188,-38.086,-27.344,-1000.000,0.000
1680449785.041,64.453,-68.848,-8.789,-639.648,0.000
1680449785.045,886.230,4.395,-8.789,787.109,0.000
1680449785.048,837.402,-17.578,-23.926,-969.727,0.000
1680449785.052,97.656,-60.547,-24.902,909.668,0.000
1680449785.056,-222.168,-37.598,-30.762,981.934,0.000
1680449785.060,169.434,-42.969,-32.715,970.703,0.000
1680449785.064,650.879,-35.645,-34.668,954.102,0.000
1680449785.068,520.508,-20.996,-30.273,928.223,0.000
1680449785.072,-51.270,-41.992,-25.391,-930.176,0.000
1680449785.076,-723.633,-114.746,-33.691,36.621,0.000
1680449785.080,-720.215,-83.008,-40.527,-1000.000,0.000
1680449785.084,418.945,64.941,-21.484,-137.695,0.000
1680449785.088,863.281,38.086,-15.625,995.605,0.000
1680449785.091,173.340,-44.434,-34.180,-932.129,0.000
1680449785.095,-521.484,-89.844,-30.273,289.062,0.000
1680449785.099,-712.402,-93.750,-25.391,-1000.000,0.000
1680449785.103,48.828,-7.324,-32.715,-563.965,0.000
1680449785.107,763.184,29.785,-39.062,853.516,0.000
1680449785.111,325.684,14.160,-36.133,989.746,0.000
1680449785.115,-273.926,-16.602,-34.668,929.688,0.000
1680449785.119,-446.777,-85.938,-34.180,-29.785,0.000
1680449785.123,-252.441,-97.168,-31.738,-1000.000,0.000
1680449785.127,306.641,12.207,-28.320,-402.832,0.000
1680449785.130,416.992,60.547,-17.090,-988.770,0.000
1680449785.134,-135.742,-56.641,-19.043,853.027,0.000
1680449785.138,-569.336,-95.215,-30.762,-459.961,0.000
1680449785.142,-290.039,-94.727,-29.785,-1000.000,0.000
1680449785.146,441.895,3.418,-21.973,-222.656,0.000
1680449785.150,586.426,62.500,-30.273,-840.332,0.000
1680449785.154,-254.395,-64.453,-35.156,430.664,0.000
1680449785.158,-818.848,-125.488,-31.738,-933.594,0.000
1680449785.162,-312.988,-45.898,-34.180,-1000.000,0.000
1680449785.166,598.633,46.387,-33.691,-14.160,0.000
1680449785.170,626.465,13.184,-33.203,-947.266,0.000
1680449785.173,-144.043,-43.457,-23.926,933.594,0.000
1680449785.177,-246.582,-4.883,-21.484,951.172,0.000
1680449785.181,260.254,-15.625,-34.668,971.680,0.000
1680449785.185,604.004,-24.414,-31.738,905.273,0.000
1680449785.189,322.266,-31.738,-27.344,-894.531,0.000
1680449785.193,-518.555,-58.105,-32.715,167.480,0.000
1680449785.197,-1000.000,-99.121,-35.156,-1000.000,0.000
1680449785.201,-521.484,-92.285,-31.250,-1000.000,0.000
1680449785.205,231.445,3.906,-29.785,-593.750,0.000
1680449785.209,542.969,45.410,-28.809,710.938,0.000
1680449785.213,126.953,-6.836,-28.320,-835.938,0.000
1680449785.216,-469.238,-68.848,-27.344,270.020,0.000
1680449785.220,-593.750,-75.684,-33.203,-1000.000,0.000
1680449785.224,325.684,40.527,-28.809,-259.277,0.000
1680449785.228,796.875,21.973,-25.391,-846.680,0.000
1680449785.232,-36.621,-88.379,-28.809,677.734,0.000
1680449785.236,-846.680,-115.234,-21.484,-644.531,0.000
1680449785.240,-626.465,-53.711,-24.414,-1000.000,0.000
1680449785.244,317.871,11.719,-31.738,-365.723,0.000
1680449785.248,816.406,54.199,-30.762,884.766,0.000
1680449785.252,287.109,13.184,-30.273,-892.578,0.000
1680449785.255,-619.629,-83.496,-29.297,134.277,0.000
1680449785.259,-771.973,-89.355,-23.926,-1000.000,0.000
1680449785.263,216.309,11.719,-26.367,-331.543,0.000
1680449785.267,855.957,58.105,-29.297,957.031,0.000
1680449785.271,317.383,-0.488,-30.762,-921.387,0.000
1680449785.275,-625.000,-83.984,-34.668,106.934,0.000
1680449785.279,-805.176,-104.004,-29.785,-1000.000,0.000
1680449785.283,18.066,-27.832,-23.926,-727.539,0.000
1680449785.287,798.828,70.312,-29.785,604.004,0.000
1680449785.291,500.000,11.719,-37.109,-895.508,0.000
1680449785.295,-247.559,-60.547,-27.832,733.887,0.000
1680449785.298,-624.023,-64.453,-19.043,-752.930,0.000
1680449785.302,-76.172,24.414,-18.555,-634.766,0.000
1680449785.306,863.281,92.773,-24.902,861.328,0.000
1680449785.310,527.344,-7.812,-31.250,-869.141,0.000
1680449785.314,-521.484,-96.680,-27.832,173.340,0.000
1680449785.318,-901.367,-84.961,-25.879,-1000.000,0.000
1680449785.322,-197.754,-29.785,-27.832,-943.848,0.000
1680449785.326,716.797,23.926,-13.672,287.598,0.000
1680449785.330,668.945,10.742,-14.648,-814.941,0.000
1680449785.334,-236.328,-50.781,-32.227,508.301,0.000
1680449785.338,-799.805,-104.492,-33.691,-772.461,0.000
1680449785.341,-372.559,-59.570,-26.367,-1000.000,0.000
1680449785.345,515.137,14.648,-24.902,-229.980,0.000
1680449785.349,734.375,58.105,-26.367,-885.254,0.000
1680449785.353,-91.309,-34.180,-28.320,625.488,0.000
1680449785.357,-849.121,-109.863,-33.203,-835.938,0.000
1680449785.361,-413.086,-20.020,-34.180,-1000.000,0.000
1680449785.365,690.918,108.887,-35.645,308.594,0.000
1680449785.369,773.438,34.668,-27.832,-893.066,0.000
1680449785.373,-67.871,-96.191,-20.508,828.125,0.000
1680449785.377,-777.832,-131.348,-32.715,-383.789,0.000
1680449785.380,-561.523,-68.848,-25.391,-1000.000,0.000
1680449785.384,514.648,29.297,-20.020,-140.625,0.000
1680449785.388,853.027,20.508,-27.832,968.750,0.000
1680449785.392,174.805,-27.832,-27.832,-921.875,0.000
1680449785.396,-480.957,-64.453,-22.949,303.711,0.000
1680449785.400,-597.656,-95.703,-22.949,-1000.000,0.000
1680449785.404,232.910,-37.598,-21.484,-429.199,0.000
1680449785.408,814.941,26.855,-20.508,958.496,0.000
1680449785.412,259.277,-0.488,-24.414,-955.078,0.000
1680449785.416,-673.828,-117.188,-20.508,-80.078,0.000
1680449785.420,-721.680,-92.773,-24.414,-1000.000,0.000
1680449785.423,183.594,-11.719,-35.645,-661.133,0.000
1680449785.427,790.527,15.625,-36.621,637.695,0.000
1680449785.431,444.336,4.883,-36.621,-833.008,0.000
1680449785.435,-510.742,-88.379,-39.062,205.078,0.000
1680449785.439,-804.199,-128.418,-35.156,-1000.000,0.000
1680449785.443,45.898,-16.113,-26.367,-658.203,0.000
1680449785.447,863.770,59.570,-24.414,715.820,0.000
1680449785.451,553.711,-0.488,-27.344,-839.355,0.000
1680449785.455,-553.223,-89.355,-33.691,84.961,0.000
1680449785.459,-813.477,-85.938,-22.461,-1000.000,0.000
1680449785.463,-38.574,-39.551,-8.301,-1000.000,0.000
1680449785.466,700.195,-2.930,-10.254,-69.336,0.000
1680449785.470,646.484,1.465,-17.090,-947.266,0.000
1680449785.474,-77.148,16.113,-25.391,937.500,0.000
1680449785.478,-81.055,17.090,-26.855,949.707,0.000
1680449785.482,482.910,-27.832,-30.273,968.262,0.000
1680449785.486,747.070,11.719,-32.715,912.109,0.000
1680449785.490,360.840,5.859,-31.738,-902.832,0.000
1680449785.494,-545.898,-103.516,-30.762,106.934,0.000
1680449785.498,-968.262,-153.320,-31.250,-1000.000,0.000
1680449785.502,-272.461,-78.125,-33.203,-983.398,0.000
1680449785.505,348.633,4.883,-24.414,-928.223,0.000
1680449785.509,502.441,15.137,-17.578,276.855,0.000
1680449785.513,208.984,-4.883,-27.344,-862.793,0.000
1680449785.517,-496.582,-77.637,-33.691,-111.328,0.000
1680449785.521,-406.250,-71.289,-34.180,-1000.000,0.000
1680449785.525,610.352,32.227,-29.297,-84.961,0.000
1680449785.529,813.965,17.090,-27.832,-954.102,0.000
1680449785.533,69.824,-34.180,-28.809,988.770,0.000
1680449785.537,-666.992,-87.402,-33.203,-84.473,0.000
1680449785.541,-566.406,-96.680,-32.227,-1000.000,0.000
1680449785.545,275.879,-28.809,-29.785,-638.184,0.000
1680449785.548,710.449,30.273,-28.809,770.508,0.000
1680449785.552,242.188,-0.977,-23.438,-986.816,0.000
1680449785.556,-706.543,-121.582,-26.855,-292.969,0.000
1680449785.560,-620.117,-103.516,-28.320,-1000.000,0.000
1680449785.564,391.602,-1.953,-20.996,-362.305,0.000
1680449785.568,873.535,36.133,-14.648,910.645,0.000
1680449785.572,312.012,-15.137,-20.020,-912.109,0.000
1680449785.576,-633.789,-106.445,-20.020,66.895,0.000
1680449785.580,-708.984,-78.125,-21.484,-1000.000,0.000
1680449785.584,318.848,20.996,-21.973,-385.254,0.000
1680449785.588,963.379,50.293,-23.926,970.703,0.000
1680449785.591,388.672,3.418,-27.832,982.422,0.000
1680449785.595,-253.906,-35.645,-24.414,924.316,0.000
1680449785.599,23.438,-8.789,-24.414,992.676,0.000
1680449785.603,589.844,-32.227,-25.879,909.668,0.000
1680449785.607,641.602,-67.383,-29.297,-964.844,0.000
1680449785.611,-17.578,-110.840,-26.367,754.883,0.000
1680449785.615,-862.793,-112.305,-25.879,-645.996,0.000
1680449785.619,-856.934,-87.402,-34.180,-1000.000,0.000
1680449785.623,-26.367,-59.082,-29.785,-937.500,0.000
1680449785.627,357.910,-29.297,-25.391,-1000.000,0.000
1680449785.630,-107.422,-37.109,-26.855,-1000.000,0.000
1680449785.634,-635.742,-58.105,-26.367,-937.012,0.000
1680449785.638,-460.449,-26.367,-24.902,-1000.000,0.000
1680449785.642,422.852,59.570,-22.949,-219.238,0.000
1680449785.646,-983.398,80.078,-30.762,965.332,0.000
1680449785.650,699.219,-20.508,-39.062,-916.504,0.000
1680449785.654,-281.738,-129.395,-20.508,357.422,0.000
1680449785.658,-909.668,-127.930,-10.742,-941.406,0.000
1680449785.662,-329.102,-35.156,-27.344,-1000.000,0.000
1680449785.666,668.945,41.504,-23.926,-4.395,0.000
1680449785.670,728.516,21.484,-26.367,-941.895,0.000
1680449785.673,-135.742,-27.344,-28.809,931.152,0.000
1680449785.677,-331.543,-4.883,-27.344,952.637,0.000
1680449785.681,232.422,-10.254,-31.738,974.121,0.000
1680449785.685,643.066,-15.137,-27.832,902.832,0.000
1680449785.689,354.492,-13.184,-24.414,-893.066,0.000
1680449785.693,-477.539,-55.176,-28.320,221.680,0.000
1680449785.697,-1000.000,-135.742,-35.156,-1000.000,0.000
1680449785.701,-541.504,-33.203,-29.297,-989.746,0.000
1680449785.705,207.031,10.742,-29.785,-970.703,0.000
1680449785.709,61.523,-21.973,-35.645,-1000.000,0.000
1680449785.713,-611.816,-48.340,-29.297,-989.746,0.000
1680449785.716,-790.527,-56.152,-11.719,-956.055,0.000
1680449785.720,-274.414,-18.066,-15.137,-1000.000,0.000
1680449785.724,600.586,65.918,-24.414,-44.922,0.000
1680449785.728,872.070,70.312,-20.020,-926.758,0.000
1680449785.732,59.082,-15.625,-10.254,929.688,0.000
1680449785.736,-439.941,17.578,-7.324,952.637,0.000
1680449785.740,-50.293,57.617,-22.461,981.445,0.000
1680449785.744,528.320,30.273,-15.137,895.508,0.000
1680449785.748,474.609,-4.395,0.488,-901.367,0.000
1680449785.752,-377.930,-66.406,-17.090,410.645,0.000
1680449785.755,-1000.000,-48.828,-33.691,-961.914,0.000
1680449785.759,-768.066,27.344,-35.156,-981.445,0.000
1680449785.763,-129.395,31.738,-30.762,-1000.000,0.000
1680449785.767,472.168,89.355,-23.926,-114.258,0.000
1680449785.771,335.938,79.102,-15.625,-820.801,0.000
1680449785.775,-651.367,-55.176,-21.484,136.719,0.000
1680449785.779,-952.148,-75.684,-25.391,-1000.000,0.000
1680449785.783,-61.523,54.688,-21.484,-540.527,0.000
1680449785.787,841.309,125.000,-23.438,812.988,0.000
1680449785.791,361.328,0.488,-11.230,-861.328,0.000
1680449785.795,-662.109,-61.035,-11.230,130.859,0.000
1680449785.798,-937.988,-55.664,-23.438,-1000.000,0.000
1680449785.802,-287.598,-6.836,-15.137,-986.328,0.000
1680449785.806,680.176,66.406,-13.184,284.668,0.000
1680449785.810,524.414,20.508,-22.461,-916.504,0.000
1680449785.814,-382.324,-31.250,-19.531,908.691,0.000
1680449785.818,-371.582,4.395,-12.207,969.238,0.000
1680449785.822,270.508,10.742,-15.625,967.773,0.000
1680449785.826,574.219,-9.277,-18.555,906.738,0.000
1680449785.830,175.781,-14.648,-25.391,-895.508,0.000
1680449785.834,-601.074,-43.945,-21.484,159.668,0.000
1680449785.838,-1000.000,-116.211,-12.207,-1000.000,0.000
1680449785.841,-492.676,-76.172,-24.902,-1000.000,0.000
1680449785.845,427.734,27.344,-29.297,-410.645,0.000
1680449785.849,767.090,62.012,-27.344,-913.574,0.000
1680449785.853,-104.492,-53.223,-25.391,548.340,0.000
1680449785.857,-982.910,-140.137,-32.227,-885.742,0.000
1680449785.861,-531.738,-33.691,-35.156,-1000.000,0.000
1680449785.865,605.469,63.477,-23.926,-27.832,0.000
1680449785.869,820.801,23.438,-26.855,-874.512,0.000
1680449785.873,-67.871,-66.406,-40.039,720.703,0.000
1680449785.877,-890.625,-101.074,-36.621,-587.891,0.000
1680449785.880,-636.230,-32.227,-18.555,-1000.000,0.000
1680449785.884,464.355,13.672,-17.578,-207.520,0.000
1680449785.888,885.742,20.020,-31.738,-970.215,0.000
1680449785.892,155.273,-40.039,-32.227,932.617,0.000
1680449785.896,-793.457,-83.496,-34.180,-299.805,0.000
1680449785.900,-709.473,-58.594,-35.156,-1000.000,0.000
1680449785.904,471.191,43.457,-30.273,-152.832,0.000
1680449785.908,933.594,39.551,-30.762,992.188,0.000
1680449785.912,268.066,-24.414,-34.668,-940.918,0.000
1680449785.916,-660.156,-86.426,-36.133,104.980,0.000
1680449785.920,-831.543,-121.582,-39.551,-1000.000,0.000
1680449785.923,257.812,8.301,-27.344,-286.621,0.000
1680449785.927,994.141,105.469,-19.043,980.469,0.000
1680449785.931,393.555,-21.484,-35.645,-938.965,0.000
1680449785.935,-652.832,-146.973,-40.039,60.547,0.000
1680449785.939,-869.141,-132.324,-31.250,-1000.000,0.000
1680449785.943,99.609,-17.090,-24.414,-567.383,0.000
1680449785.947,935.547,55.664,-28.320,774.902,0.000
1680449785.951,557.129,-12.207,-32.227,-854.004,0.000
1680449785.955,-529.785,-93.750,-28.320,137.207,0.000
1680449785.959,-900.391,-92.285,-28.809,-1000.000,0.000
1680449785.963,-107.422,-51.270,-24.902,-955.078,0.000
1680449785.966,809.082,19.531,-24.902,276.855,0.000
1680449785.970,661.133,35.156,-29.297,-872.559,0.000
1680449785.974,-219.727,-39.551,-33.203,767.578,0.000
1680449785.978,-838.867,-140.625,-34.668,-616.211,0.000
1680449785.982,-365.723,-67.383,-30.762,-998.047,0.000
1680449785.986,802.246,51.270,-26.855,434.570,0.000
1680449785.990,697.754,-13.672,-28.809,-792.480,0.000
1680449785.994,-440.918,-117.676,-30.762,209.961,0.000
1680449785.998,-1000.000,-140.625,-28.320,-978.516,0.000
1680449786.002,-437.012,-69.824,-24.414,-1000.000,0.000
1680449786.005,615.723,32.227,-24.414,-170.898,0.000
1680449786.009,802.734,36.133,-31.250,-866.699,0.000
1680449786.013,-138.672,-47.363,-29.785,625.977,0.000
1680449786.017,-920.410,-71.777,-31.250,-708.496,0.000
1680449786.021,-532.715,-62.500,-33.203,-1000.000,0.000
1680449786.025,558.105,1.953,-34.180,-169.922,0.000
1680449786.029,852.539,17.578,-22.461,-993.164,0.000
1680449786.033,83.984,-68.848,-16.113,-992.188,0.000
1680449786.037,-772.949,-83.008,-30.762,-96.191,0.000
1680449786.041,-689.453,-61.035,-32.715,-1000.000,0.000
1680449786.045,447.754,-16.602,-25.391,-194.336,0.000
1680449786.048,933.594,44.922,-27.344,-958.008,0.000
1680449786.052,179.688,-22.949,-28.809,972.656,0.000
1680449786.056,-805.664,-150.879,-24.902,-213.379,0.000
1680449786.060,-751.465,-122.559,-24.902,-1000.000,0.000
1680449786.064,426.270,41.992,-14.648,-177.246,0.000
1680449786.068,933.594,58.105,-11.719,-992.676,0.000
1680449786.072,213.867,-73.730,-23.438,-975.586,0.000
1680449786.076,-729.004,-139.160,-14.648,-19.531,0.000
1680449786.080,-801.758,-130.859,-10.742,-1000.000,0.000
1680449786.084,226.074,-12.207,-20.020,-490.723,0.000
1680449786.088,956.055,33.203,-25.391,837.402,0.000
1680449786.091,469.238,-25.391,-30.762,-881.348,0.000
1680449786.095,-620.605,-109.863,-35.645,102.539,0.000
1680449786.099,-863.281,-112.305,-41.016,-1000.000,0.000
1680449786.103,235.840,14.648,-38.574,-386.719,0.000
1680449786.107,984.375,42.969,-38.574,922.852,0.000
1680449786.111,458.008,-5.371,-38.086,-974.121,0.000
1680449786.115,-284.180,-20.508,-41.016,784.668,0.000
1680449786.119,-742.676,-107.910,-35.645,-504.395,0.000
1680449786.123,-249.023,-85.938,-25.391,-1000.000,0.000
1680449786.127,341.309,-51.758,-36.621,-939.941,0.000
1680449786.130,-191.895,-93.750,-38.574,-1000.000,0.000
1680449786.134,-789.551,-84.473,-30.762,-939.453,0.000
1680449786.138,-527.832,-26.855,-26.367,-1000.000,0.000
1680449786.142,438.477,64.941,-25.879,-202.148,0.000
1680449786.146,-952.148,80.078,-26.855,-964.355,0.000
1680449786.150,638.672,-20.508,-28.320,898.438,0.000
1680449786.154,-120.605,-78.125,-30.273,-940.918,0.000
1680449786.158,-582.520,-85.449,-30.762,128.906,0.000
1680449786.162,-439.453,-59.570,-23.926,-1000.000,0.000
1680449786.166,568.359,-7.812,-24.902,-68.848,0.000
1680449786.170,805.664,-7.324,-38.086,-831.543,0.000
1680449786.173,-174.805,-88.379,-41.016,675.293,0.000
1680449786.177,-949.707,-119.629,-38.574,-636.719,0.000
1680449786.181,-562.012,-81.055,-36.133,-1000.000,0.000
1680449786.185,574.707,22.949,-34.668,-172.363,0.000
1680449786.189,856.934,41.992,-43.945,-993.652,0.000
1680449786.193,129.395,-13.672,-43.945,-988.770,0.000
1680449786.197,-751.465,-63.965,-34.668,-107.422,0.000
1680449786.201,-653.320,-72.266,-28.320,-1000.000,0.000
1680449786.205,534.180,47.852,-28.320,-159.668,0.000
1680449786.209,938.965,99.121,-28.320,-980.469,0.000
1680449786.213,200.684,-7.324,-31.738,-971.680,0.000
1680449786.216,-765.137,-125.000,-39.551,-24.902,0.000
1680449786.220,-756.348,-117.188,-35.156,-1000.000,0.000
1680449786.224,408.203,19.531,-26.855,-244.141,0.000
1680449786.228,959.473,55.176,-31.738,982.910,0.000
1680449786.232,261.719,-34.180,-31.738,-939.453,0.000
1680449786.236,-711.426,-61.035,-20.508,76.660,0.000
1680449786.240,-834.473,-49.316,-21.484,-1000.000,0.000
1680449786.244,237.793,-21.484,-27.344,-333.008,0.000
1680449786.248,969.727,19.043,-18.066,938.965,0.000
1680449786.252,332.031,-13.672,-16.113,-900.391,0.000
1680449786.255,-683.105,-84.473,-18.066,184.082,0.000
1680449786.259,-889.160,-120.117,-21.973,-1000.000,0.000
1680449786.263,180.176,24.414,-22.949,-333.008,0.000
1680449786.267,-979.004,72.266,-17.090,954.102,0.000
1680449786.271,440.430,-41.504,-23.926,-905.762,0.000
1680449786.275,-638.672,-83.984,-32.715,126.953,0.000
1680449786.279,-911.133,-95.215,-34.180,-1000.000,0.000
1680449786.283,-92.773,-48.828,-35.156,-1000.000,0.000
1680449786.287,820.801,34.668,-26.367,137.207,0.000
1680449786.291,724.121,31.738,-27.832,-791.992,0.000
1680449786.295,-382.812,-66.406,-35.645,291.992,0.000
1680449786.298,-931.641,-74.219,-23.926,-1000.000,0.000
1680449786.302,-102.539,3.418,-16.113,-909.668,0.000
1680449786.306,883.301,38.574,-21.484,404.785,0.000
1680449786.310,729.980,24.902,-25.879,-801.758,0.000
1680449786.314,-395.508,-82.031,-27.832,245.605,0.000
1680449786.318,-1000.000,-94.238,-29.297,-1000.000,0.000
1680449786.322,-257.324,-6.348,-33.691,-914.551,0.000
1680449786.326,822.266,37.109,-30.762,384.766,0.000
1680449786.330,789.551,45.898,-29.297,-859.863,0.000
1680449786.334,-168.457,-36.621,-30.762,692.383,0.000
1680449786.338,-947.754,-120.117,-26.855,-612.305,0.000
1680449786.341,-497.070,-62.500,-20.020,-1000.000,0.000
1680449786.345,673.340,71.777,-15.137,34.668,0.000
1680449786.349,839.844,57.617,-19.531,-858.887,0.000
1680449786.353,-102.539,-73.730,-22.461,696.289,0.000
1680449786.357,-963.867,-136.230,-24.902,-601.562,0.000
1680449786.361,-633.301,-104.004,-23.438,-1000.000,0.000
1680449786.365,540.039,26.855,-18.555,-194.336,0.000
1680449786.369,905.273,40.527,-21.484,-920.898,0.000
1680449786.373,55.664,-54.199,-27.344,803.223,0.000
1680449786.377,-909.180,-88.379,-27.344,-509.277,0.000
1680449786.380,-678.223,-55.664,-28.320,-1000.000,0.000
1680449786.384,482.910,29.785,-27.344,-183.594,0.000
1680449786.388,977.539,55.176,-28.320,-994.141,0.000
1680449786.392,297.363,10.254,-29.297,991.211,0.000
1680449786.396,-390.625,-25.879,-30.273,814.941,0.000
1680449786.400,20.020,-25.391,-35.645,777.832,0.000
1680449786.404,856.934,24.902,-24.902,904.297,0.000
1680449786.408,855.469,2.441,-22.949,-909.180,0.000
1680449786.412,-119.141,-58.594,-34.180,515.137,0.000
1680449786.416,-1000.000,-128.418,-32.715,-884.766,0.000
1680449786.420,-764.160,-78.125,-30.273,-1000.000,0.000
1680449786.423,79.590,12.207,-26.855,-1000.000,0.000
1680449786.427,775.879,40.527,-23.438,-149.902,0.000
1680449786.431,681.641,52.734,-23.438,-817.383,0.000
1680449786.435,-483.887,-67.871,-24.902,205.078,0.000
1680449786.439,-906.250,-108.887,-24.902,-1000.000,0.000
1680449786.443,157.715,30.762,-20.996,-529.297,0.000
1680449786.447,-989.746,47.363,-26.367,824.707,0.000
1680449786.451,606.445,-19.043,-21.484,-863.281,0.000
1680449786.455,-527.344,-115.723,-19.043,146.484,0.000
1680449786.459,-929.199,-106.934,-28.320,-1000.000,0.000
1680449786.463,-99.609,-21.484,-31.250,-998.047,0.000
1680449786.466,821.289,20.996,-29.785,177.246,0.000
1680449786.470,753.906,5.371,-30.762,-786.133,0.000
1680449786.474,-316.895,-58.594,-33.203,314.941,0.000
1680449786.478,-992.676,-109.863,-30.762,-981.445,0.000
1680449786.482,-255.371,-62.012,-22.461,-1000.000,0.000
1680449786.486,767.090,52.246,-19.531,-9.277,0.000
1680449786.490,835.449,92.773,-24.414,-896.973,0.000
1680449786.494,-46.387,-22.461,-18.066,648.438,0.000
1680449786.498,-921.875,-129.395,-13.672,-676.270,0.000
1680449786.502,-461.914,-92.773,-20.508,-1000.000,0.000
1680449786.505,650.391,19.043,-19.043,-242.676,0.000
1680449786.509,859.863,42.969,-21.484,-989.746,0.000
1680449786.513,97.168,-33.203,-23.926,961.914,0.000
1680449786.517,-806.641,-72.266,-24.902,-271.484,0.000
1680449786.521,-572.266,-30.762,-29.297,-1000.000,0.000
1680449786.525,599.121,36.133,-31.250,-142.578,0.000
1680449786.529,881.836,15.137,-25.391,-919.922,0.000
1680449786.533,59.082,-37.109,-27.344,856.934,0.000
1680449786.537,-883.301,-91.797,-33.691,-402.832,0.000
1680449786.541,-690.430,-97.656,-21.973,-1000.000,0.000
1680449786.545,498.535,32.715,-19.043,-228.027,0.000
1680449786.548,949.707,50.781,-30.762,-978.027,0.000
1680449786.552,200.195,-36.133,-30.273,945.312,0.000
1680449786.556,-817.871,-98.145,-28.809,-267.578,0.000
1680449786.560,-758.301,-92.285,-27.344,-1000.000,0.000
1680449786.564,238.770,-31.738,-27.344,-695.312,0.000
1680449786.568,919.434,38.574,-24.902,584.473,0.000
1680449786.572,506.836,9.766,-25.879,-817.383,0.000
1680449786.576,-619.141,-109.863,-31.250,154.785,0.000
1680449786.580,-840.332,-83.008,-33.203,-1000.000,0.000
1680449786.584,312.988,50.781,-23.926,-271.484,0.000
1680449786.588,-976.562,22.949,-13.672,-963.379,0.000
1680449786.591,374.023,-55.176,-28.809,979.492,0.000
1680449786.595,-740.234,-114.746,-35.645,-192.871,0.000
1680449786.599,-836.426,-57.129,-32.715,-1000.000,0.000
1680449786.603,193.359,24.902,-30.762,-643.555,0.000
1680449786.607,966.797,34.668,-32.715,646.484,0.000
1680449786.611,599.121,19.531,-39.551,-892.578,0.000
1680449786.615,-269.531,-26.855,-41.992,688.477,0.000
1680449786.619,-759.766,-78.125,-37.109,-638.184,0.000
1680449786.623,-205.566,-44.434,-27.832,-1000.000,0.000
1680449786.627,825.684,70.312,-33.203,187.500,0.000
1680449786.630,728.516,49.805,-30.273,-785.156,0.000
1680449786.634,-450.684,-85.938,-35.645,129.883,0.000
1680449786.638,-994.141,-114.746,-45.898,-1000.000,0.000
1680449786.642,-273.926,-66.406,-42.969,-1000.000,0.000
1680449786.646,662.598,33.203,-47.852,-280.273,0.000
1680449786.650,835.938,53.711,-44.922,-839.844,0.000
1680449786.654,-255.371,-69.824,-37.109,269.043,0.000
1680449786.658,-1000.000,-89.844,-31.738,-1000.000,0.000
1680449786.662,-305.664,-3.906,-28.320,-1000.000,0.000
1680449786.666,733.398,40.527,-27.344,-29.297,0.000
1680449786.670,816.406,13.184,-29.297,-810.059,0.000
1680449786.673,-234.375,-55.176,-26.367,436.035,0.000
1680449786.677,-1000.000,-81.543,-23.438,-883.789,0.000
1680449786.681,-493.652,-58.594,-35.645,-1000.000,0.000
1680449786.685,629.883,32.227,-38.574,-100.098,0.000
1680449786.689,873.047,23.926,-27.832,-935.547,0.000
1680449786.693,63.965,-49.805,-25.879,895.996,0.000
1680449786.697,-859.375,-91.797,-33.203,-333.008,0.000
1680449786.701,-693.359,-83.984,-35.156,-1000.000,0.000
1680449786.705,509.277,44.922,-29.297,-159.668,0.000
1680449786.709,908.691,44.434,-23.438,995.117,0.000
1680449786.713,145.020,-40.039,-28.320,-949.707,0.000
1680449786.716,-758.789,-72.266,-28.809,52.246,0.000
1680449786.720,-772.461,-70.801,-21.484,-1000.000,0.000
1680449786.724,393.555,25.391,-23.438,-199.219,0.000
1680449786.728,983.398,27.344,-32.715,-972.656,0.000
1680449786.732,244.629,-37.598,-31.250,-982.422,0.000
1680449786.736,-770.508,-107.910,-27.344,-49.805,0.000
1680449786.740,-841.797,-89.844,-30.762,-1000.000,0.000
1680449786.744,251.465,8.301,-30.762,-359.375,0.000
1680449786.748,994.141,33.691,-29.785,913.574,0.000
1680449786.752,392.090,-20.020,-35.156,-898.926,0.000
1680449786.755,-659.180,-93.262,-36.621,166.992,0.000
1680449786.759,-907.227,-96.680,-36.621,-1000.000,0.000
1680449786.763,85.449,-4.395,-32.715,-534.180,0.000
1680449786.767,-999.023,51.758,-30.762,809.570,0.000
1680449786.771,577.148,54.199,-32.227,-868.652,0.000
1680449786.775,-468.750,-47.852,-31.738,422.363,0.000
1680449786.779,-932.617,-128.906,-23.438,-862.793,0.000
1680449786.783,-305.176,-83.496,-21.484,-1000.000,0.000
1680449786.787,690.430,0.977,-27.832,-122.070,0.000
1680449786.791,718.262,6.348,-29.297,-827.637,0.000
1680449786.795,-405.762,-96.680,-31.250,333.008,0.000
1680449786.798,-985.840,-98.145,-27.344,-1000.000,0.000
1680449786.802,-153.809,3.418,-26.855,-843.750,0.000
1680449786.806,885.254,15.625,-29.785,489.258,0.000
1680449786.810,721.191,-26.367,-26.855,-818.848,0.000
1680449786.814,-341.797,-51.758,-25.391,409.668,0.000
1680449786.818,-1000.000,-96.680,-23.438,-906.738,0.000
1680449786.822,-370.605,-62.500,-25.879,-1000.000,0.000
1680449786.826,752.441,42.480,-10.254,81.055,0.000
1680449786.830,810.547,17.578,-14.160,-814.453,0.000
1680449786.834,-219.238,-81.543,-29.785,492.188,0.000
1680449786.838,-998.047,-108.887,-26.855,-807.617,0.000
1680449786.841,-486.328,-78.613,-28.320,-1000.000,0.000
1680449786.845,605.469,-12.695,-31.250,-194.824,0.000
1680449786.849,884.766,41.016,-35.156,976.562,0.000
1680449786.853,185.059,-5.859,-34.180,-939.453,0.000
1680449786.857,-743.652,-114.746,-35.645,31.738,0.000
1680449786.861,-676.270,-84.473,-34.180,-1000.000,0.000
1680449786.865,538.574,48.828,-32.715,-163.574,0.000
1680449786.869,931.641,20.508,-26.367,-845.215,0.000
1680449786.873,-5.859,-86.914,-22.949,668.457,0.000
1680449786.877,-990.723,-161.133,-28.320,-694.336,0.000
1680449786.880,-648.438,-55.664,-23.926,-1000.000,0.000
1680449786.884,568.848,76.172,-23.438,-62.500,0.000
1680449786.888,913.574,0.488,-24.902,988.281,0.000
1680449786.892,163.574,-54.199,-23.926,-941.406,0.000
1680449786.896,-707.031,-54.688,-24.414,187.500,0.000
1680449786.900,-866.211,-108.398,-31.250,-1000.000,0.000
1680449786.904,73.730,-29.297,-31.738,-658.691,0.000
1680449786.908,939.453,65.918,-26.367,696.289,0.000
1680449786.912,431.641,21.973,-28.320,-842.773,0.000
1680449786.916,-683.594,-85.449,-27.344,162.598,0.000
1680449786.920,-907.715,-104.492,-28.809,-1000.000,0.000
1680449786.923,143.066,-2.441,-32.715,-385.254,0.000
1680449786.927,-984.375,61.035,-33.691,926.270,0.000
1680449786.931,428.711,-15.137,-37.598,-899.902,0.000
1680449786.935,-650.391,-120.117,-35.156,185.547,0.000
1680449786.939,-934.082,-116.699,-33.691,-1000.000,0.000
1680449786.943,42.969,12.695,-22.949,-552.734,0.000
1680449786.947,995.117,60.059,-24.414,806.641,0.000
1680449786.951,602.051,-22.949,-30.762,-863.281,0.000
1680449786.955,-512.695,-85.938,-30.762,218.750,0.000
1680449786.959,-971.191,-84.961,-25.879,-1000.000,0.000
1680449786.963,-118.652,-41.504,-15.625,-809.082,0.000
1680449786.966,915.527,22.949,-28.809,541.016,0.000
1680449786.970,695.801,-21.973,-39.551,-810.059,0.000
1680449786.974,-493.652,-124.023,-35.156,129.395,0.000
1680449786.978,-984.375,-96.680,-29.297,-1000.000,0.000
1680449786.982,-199.219,-20.508,-27.832,-1000.000,0.000
1680449786.986,774.902,44.922,-25.391,66.895,0.000
1680449786.990,809.570,56.641,-30.762,-822.266,0.000
1680449786.994,-182.617,-62.988,-35.156,560.059,0.000
1680449786.998,-1000.000,-145.020,-33.203,-826.172,0.000
1680449787.002,-444.824,-63.477,-30.273,-1000.000,0.000
1680449787.005,765.137,52.246,-17.090,203.613,0.000
1680449787.009,818.848,1.465,-13.672,-806.152,0.000
1680449787.013,-235.840,-79.590,-22.949,476.074,0.000
1680449787.017,-1000.000,-119.141,-23.926,-820.801,0.000
1680449787.021,-612.305,-65.918,-24.902,-1000.000,0.000
1680449787.025,524.414,20.996,-24.414,-204.102,0.000
1680449787.029,918.945,51.758,-25.879,-936.035,0.000
1680449787.033,81.055,-19.531,-28.320,845.215,0.000
1680449787.037,-911.133,-111.816,-29.785,-455.566,0.000
1680449787.041,-714.844,-67.871,-27.344,-1000.000,0.000
1680449787.045,472.168,30.273,-27.344,-160.156,0.000
1680449787.048,951.660,49.805,-22.949,987.305,0.000
1680449787.052,183.105,7.324,-20.996,-949.707,0.000
1680449787.056,-769.043,-85.938,-30.273,73.242,0.000
1680449787.060,-854.980,-130.371,-30.762,-1000.000,0.000
1680449787.064,210.938,-2.441,-23.926,-439.453,0.000
1680449787.068,-999.512,92.285,-22.949,904.297,0.000
1680449787.072,380.371,7.324,-25.879,-911.621,0.000
1680449787.076,-720.703,-111.328,-26.367,33.203,0.000
1680449787.080,-849.121,-73.730,-28.320,-1000.000,0.000
1680449787.084,210.449,31.250,-24.902,-451.660,0.000
1680449787.088,-999.023,51.758,-22.949,865.723,0.000
1680449787.091,463.867,-8.789,-26.367,-880.371,0.000
1680449787.095,-627.930,-85.449,-29.785,182.617,0.000
1680449787.099,-946.777,-94.727,-28.320,-1000.000,0.000
1680449787.103,-23.926,-45.410,-29.297,-662.598,0.000
1680449787.107,956.055,41.016,-31.250,684.082,0.000
1680449787.111,641.113,4.395,-27.832,-835.938,0.000
1680449787.115,-474.121,-90.820,-26.855,258.301,0.000
1680449787.119,-948.242,-101.562,-28.320,-1000.000,0.000
1680449787.123,-135.742,-40.039,-25.391,-1000.000,0.000
1680449787.127,843.262,7.812,-25.879,204.102,0.000
1680449787.130,767.578,15.137,-30.273,-799.805,0.000
1680449787.134,-308.594,-54.199,-29.785,354.492,0.000
1680449787.138,-999.512,-107.910,-25.879,-1000.000,0.000
1680449787.142,-200.195,-5.371,-25.879,-937.500,0.000
1680449787.146,877.441,61.523,-25.391,379.883,0.000
1680449787.150,802.734,0.977,-32.227,-792.969,0.000
1680449787.154,-278.809,-92.285,-34.668,278.809,0.000
1680449787.158,-970.215,-127.930,-24.902,-941.895,0.000
1680449787.162,-350.098,-47.852,-26.367,-1000.000,0.000
1680449787.166,635.254,22.949,-26.855,-220.703,0.000
1680449787.170,847.656,-20.996,-33.691,-869.629,0.000
1680449787.173,-60.059,-59.082,-34.668,590.332,0.000
1680449787.177,-957.031,-62.012,-29.785,-762.207,0.000
1680449787.181,-539.062,-74.707,-35.156,-1000.000,0.000
1680449787.185,612.305,-0.488,-37.598,-151.367,0.000
1680449787.189,915.527,42.480,-29.297,983.887,0.000
1680449787.193,219.238,-3.418,-30.762,-950.195,0.000
1680449787.197,-724.121,-99.609,-37.109,90.332,0.000
1680449787.201,-720.215,-107.910,-23.926,-1000.000,0.000
1680449787.205,377.441,-25.391,-20.996,-477.539,0.000
1680449787.209,967.773,27.832,-25.879,944.824,0.000
1680449787.212,275.391,-24.902,-23.926,979.492,0.000
1680449787.216,-834.473,-122.559,-25.879,-317.871,0.000
1680449787.220,-769.043,-88.867,-28.320,-1000.000,0.000
1680449787.224,436.523,44.434,-19.531,-179.199,0.000
1680449787.228,984.863,53.223,-20.020,-982.910,0.000
1680449787.232,224.609,-46.387,-27.832,998.047,0.000
1680449787.236,-795.410,-82.520,-23.926,-117.676,0.000
1680449787.240,-861.328,-69.336,-24.414,-1000.000,0.000
1680449787.244,164.062,-22.461,-15.625,-511.719,0.000
1680449787.248,978.027,28.320,-5.371,804.688,0.000
1680449787.252,469.727,-22.461,-20.020,-867.188,0.000
1680449787.255,-651.367,-99.121,-22.949,109.863,0.000
1680449787.259,-872.070,-96.191,-23.926,-1000.000,0.000
1680449787.263,24.414,-36.621,-27.344,-881.836,0.000
1680449787.267,904.297,49.316,-29.785,393.066,0.000
1680449787.271,616.211,33.203,-35.156,-799.805,0.000
1680449787.275,-558.105,-89.355,-32.715,167.969,0.000
1680449787.279,-975.586,-122.070,-30.762,-1000.000,0.000
1680449787.283,-165.527,-49.805,-32.227,-897.461,0.000
1680449787.287,863.770,31.738,-34.180,399.414,0.000
1680449787.291,622.070,-28.809,-27.832,-797.852,0.000
1680449787.295,-559.082,-125.000,-24.902,139.160,0.000
1680449787.298,-1000.000,-127.441,-38.574,-1000.000,0.000
1680449787.302,-279.785,-30.273,-39.551,-960.938,0.000
1680449787.306,798.828,37.109,-36.133,250.977,0.000
1680449787.310,730.469,15.137,-39.062,-825.195,0.000
1680449787.314,-330.078,-61.035,-37.598,578.613,0.000
1680449787.318,-1000.000,-118.652,-30.273,-756.836,0.000
1680449787.322,-520.996,-61.523,-25.391,-1000.000,0.000
1680449787.326,684.082,40.527,-29.297,113.770,0.000
1680449787.330,784.180,39.551,-37.598,-985.352,0.000
1680449787.334,-65.430,30.762,-30.273,-953.613,0.000
1680449787.337,-771.484,-80.566,-21.484,184.082,0.000
1680449787.341,-765.137,-143.066,-31.250,-1000.000,0.000
1680449787.345,364.258,-4.883,-30.762,-348.145,0.000
1680449787.349,909.668,43.945,-29.785,-873.047,0.000
1680449787.353,-90.820,-63.965,-31.738,609.863,0.000
1680449787.357,-1000.000,-127.930,-29.297,-802.246,0.000
1680449787.361,-624.023,-37.598,-25.391,-1000.000,0.000
1680449787.365,582.031,62.988,-27.344,-22.461,0.000
1680449787.369,903.809,22.949,-30.273,-859.863,0.000
1680449787.373,-82.031,-88.379,-27.832,670.898,0.000
1680449787.377,-998.047,-114.258,-26.855,-636.719,0.000
1680449787.380,-717.285,-45.898,-22.949,-1000.000,0.000
1680449787.384,367.188,-12.695,-27.832,-340.820,0.000
1680449787.388,980.469,32.715,-35.156,939.941,0.000
1680449787.392,296.875,-14.160,-35.156,-962.891,0.000
1680449787.396,-797.852,-100.098,-38.086,-138.672,0.000
1680449787.400,-845.215,-84.961,-33.691,-1000.000,0.000
1680449787.404,325.195,20.020,-33.203,-205.078,0.000
1680449787.408,-993.164,43.457,-39.062,976.074,0.000
1680449787.412,280.762,-19.531,-40.039,-919.922,0.000
1680449787.416,-742.188,-91.309,-40.039,133.301,0.000
1680449787.420,-908.203,-135.742,-37.598,-1000.000,0.000
1680449787.423,122.559,-8.789,-25.391,-351.562,0.000
1680449787.427,-984.375,103.027,-18.555,879.883,0.000
1680449787.431,472.656,1.953,-30.273,-886.230,0.000
1680449787.435,-635.742,-115.723,-34.668,198.242,0.000
1680449787.439,-974.121,-132.324,-27.832,-1000.000,0.000
1680449787.443,-40.527,9.277,-23.438,-601.562,0.000
1680449787.447,979.492,86.426,-24.902,754.883,0.000
1680449787.451,530.762,-20.996,-31.250,-892.090,0.000
1680449787.455,-496.094,-72.266,-31.250,610.352,0.000
1680449787.459,-956.543,-74.219,-24.414,-688.477,0.000
1680449787.462,-442.383,-70.312,-23.926,-1000.000,0.000
1680449787.466,648.926,18.066,-25.391,-64.941,0.000
1680449787.470,754.395,49.805,-24.414,-824.707,0.000
1680449787.474,-341.797,-65.430,-25.391,464.355,0.000
1680449787.478,-1000.000,-144.531,-27.832,-843.750,0.000
1680449787.482,-516.602,-103.027,-20.996,-1000.000,0.000
1680449787.486,488.770,-27.832,-18.555,-390.137,0.000
1680449787.490,802.734,23.926,-25.391,912.598,0.000
1680449787.494,61.523,-22.461,-30.273,-939.941,0.000
1680449787.498,-830.566,-93.262,-31.250,-136.230,0.000
1680449787.502,-609.863,-63.477,-23.438,-1000.000,0.000
1680449787.505,620.605,47.852,-20.020,-47.363,0.000
1680449787.509,861.328,18.066,-16.602,-810.547,0.000
1680449787.513,-186.523,-71.777,-16.602,519.531,0.000
1680449787.517,-1000.000,-73.730,-20.020,-801.270,0.000
1680449787.521,-616.211,-48.340,-24.414,-1000.000,0.000
1680449787.525,524.902,8.301,-27.832,-176.270,0.000
1680449787.529,928.223,44.922,-24.414,952.148,0.000
1680449787.533,196.777,-10.254,-21.484,-916.016,0.000
1680449787.537,-673.828,-55.664,-27.344,328.125,0.000
1680449787.541,-842.773,-77.148,-23.438,-1000.000,0.000
1680449787.545,226.074,1.465,-15.625,-381.836,0.000
1680449787.548,999.512,78.613,-17.578,997.559,0.000
1680449787.552,229.980,5.859,-19.531,-977.539,0.000
1680449787.556,-839.355,-95.215,-23.438,-125.977,0.000
1680449787.560,-814.453,-79.590,-24.902,-1000.000,0.000
1680449787.564,335.449,34.668,-23.438,-255.371,0.000
1680449787.568,-988.281,67.383,-28.809,-999.023,0.000
1680449787.572,308.105,-36.621,-30.762,-989.746,0.000
1680449787.576,-774.902,-113.281,-24.414,-119.629,0.000
1680449787.580,-876.465,-93.262,-27.832,-1000.000,0.000
1680449787.584,178.711,28.320,-27.832,-488.281,0.000
1680449787.587,-980.957,68.359,-20.020,861.328,0.000
1680449787.591,444.336,-11.719,-19.531,-924.805,0.000
1680449787.595,-736.328,-93.262,-21.484,-106.445,0.000
1680449787.599,-906.738,-63.477,-21.484,-1000.000,0.000
1680449787.603,-8.301,-4.395,-19.043,-826.172,0.000
1680449787.607,888.184,27.344,-20.996,414.551,0.000
1680449787.611,644.531,35.645,-22.461,-822.754,0.000
1680449787.615,-407.715,-8.301,-20.508,512.695,0.000
1680449787.619,-986.816,-91.797,-18.066,-826.660,0.000
1680449787.623,-337.402,-58.105,-15.625,-1000.000,0.000
1680449787.627,782.227,46.875,-17.090,126.465,0.000
1680449787.630,735.840,54.688,-17.578,-854.492,0.000
1680449787.634,-282.715,-20.020,-22.949,652.832,0.000
1680449787.638,-994.629,-86.914,-31.250,-733.887,0.000
1680449787.642,-423.828,-34.180,-30.273,-1000.000,0.000
1680449787.646,787.598,62.500,-23.926,251.953,0.000
1680449787.650,780.273,22.949,-22.461,-792.969,0.000
1680449787.654,-345.703,-78.613,-28.809,369.629,0.000
1680449787.658,-1000.000,-90.332,-25.391,-907.227,0.000
1680449787.662,-500.488,-18.555,-22.461,-1000.000,0.000
1680449787.666,612.305,19.043,-23.926,-171.875,0.000
1680449787.670,840.820,29.785,-22.949,-863.281,0.000
1680449787.673,-169.922,-50.781,-24.902,599.121,0.000
1680449787.677,-1000.000,-115.234,-27.344,-751.953,0.000
1680449787.681,-646.484,-71.777,-27.832,-1000.000,0.000
1680449787.685,512.207,30.273,-26.855,-189.453,0.000
1680449787.689,923.340,69.824,-29.785,-962.402,0.000
1680449787.693,46.875,-13.672,-32.715,930.664,0.000
1680449787.697,-939.941,-95.703,-28.809,-337.891,0.000
1680449787.701,-727.051,-84.961,-30.273,-1000.000,0.000
1680449787.705,482.422,58.594,-35.645,-99.121,0.000
1680449787.709,953.125,98.633,-29.785,-972.168,0.000
1680449787.712,94.727,-43.945,-28.320,944.824,0.000
1680449787.716,-900.879,-119.629,-35.156,-281.738,0.000
1680449787.720,-801.270,-98.145,-33.691,-1000.000,0.000
1680449787.724,63.477,-22.949,-28.809,-904.297,0.000
1680449787.728,858.398,69.336,-28.320,393.066,0.000
1680449787.732,445.801,-1.465,-31.250,-903.809,0.000
1680449787.736,-806.641,-98.633,-32.227,-251.953,0.000
1680449787.740,-856.445,-44.434,-31.250,-1000.000,0.000
1680449787.744,263.184,14.160,-28.809,-348.145,0.000
1680449787.748,-969.238,58.594,-26.855,929.688,0.000
1680449787.752,413.086,36.621,-29.297,980.957,0.000
1680449787.755,-427.734,-10.254,-20.508,914.551,0.000
1680449787.759,-755.371,-88.867,-19.531,-165.527,0.000
1680449787.763,-386.719,-93.750,-27.832,-1000.000,0.000
1680449787.767,638.672,1.465,-26.367,-225.586,0.000
1680449787.771,715.820,12.695,-25.879,-831.055,0.000
1680449787.775,-475.098,-100.586,-26.855,228.027,0.000
1680449787.779,-1000.000,-121.582,-25.879,-1000.000,0.000
1680449787.783,56.641,20.020,-26.855,-447.266,0.000
1680449787.787,-954.590,83.984,-30.273,889.160,0.000
1680449787.791,644.043,7.324,-32.715,-875.488,0.000
1680449787.795,-502.930,-96.680,-30.762,171.387,0.000
1680449787.798,-1000.000,-102.051,-22.949,-1000.000,0.000
1680449787.802,-208.496,-17.090,-21.484,-1000.000,0.000
1680449787.806,803.223,30.273,-26.855,41.504,0.000
1680449787.810,805.176,18.066,-24.414,-803.711,0.000
1680449787.814,-250.977,-71.777,-23.926,456.543,0.000
1680449787.818,-1000.000,-103.027,-27.832,-856.445,0.000
1680449787.822,-402.832,-53.711,-25.879,-1000.000,0.000
1680449787.826,712.891,1.953,-23.438,-110.352,0.000
1680449787.830,866.211,41.504,-28.320,-964.355,0.000
1680449787.834,31.738,8.301,-24.414,972.168,0.000
1680449787.837,-887.207,-102.539,-23.438,-204.590,0.000
1680449787.841,-649.902,-91.309,-29.297,-1000.000,0.000
1680449787.845,554.199,52.246,-29.297,-173.828,0.000
1680449787.849,901.367,54.199,-28.809,-843.262,0.000
1680449787.853,-122.070,-77.148,-29.297,561.523,0.000
1680449787.857,-1000.000,-125.000,-25.879,-791.016,0.000
1680449787.861,-690.918,-89.355,-13.672,-1000.000,0.000
1680449787.865,488.770,53.711,-10.254,-212.891,0.000
1680449787.869,946.777,61.523,-23.438,-876.465,0.000
1680449787.873,-37.598,-78.125,-23.438,617.676,0.000
1680449787.877,-1000.000,-104.492,-22.949,-733.398,0.000
1680449787.880,-747.559,-30.762,-26.367,-1000.000,0.000
1680449787.884,368.164,28.320,-24.902,-294.922,0.000
1680449787.888,975.098,41.504,-29.297,905.762,0.000
1680449787.892,266.602,13.184,-32.227,-898.926,0.000
1680449787.896,-719.727,-43.457,-27.344,247.070,0.000
1680449787.900,-936.523,-108.887,-29.785,-1000.000,0.000
1680449787.904,-54.199,-58.105,-22.949,-757.324,0.000
1680449787.908,917.969,11.719,-16.602,603.027,0.000
1680449787.912,418.457,12.207,-20.508,-835.938,0.000
1680449787.916,-713.379,-62.988,-23.926,118.164,0.000
1680449787.920,-974.609,-98.145,-32.715,-1000.000,0.000
1680449787.923,31.250,7.812,-34.668,-416.504,0.000
1680449787.927,-974.609,71.777,-30.762,896.973,0.000
1680449787.931,456.055,2.930,-31.250,-886.230,0.000
1680449787.935,-645.020,-82.031,-28.809,224.609,0.000
1680449787.939,-1000.000,-107.910,-26.367,-1000.000,0.000
1680449787.943,-224.121,-26.367,-30.762,-854.492,0.000
1680449787.947,886.719,30.273,-30.273,461.914,0.000
1680449787.951,633.301,18.066,-19.043,-804.688,0.000
1680449787.955,-545.898,-86.426,-22.949,213.867,0.000
1680449787.959,-1000.000,-124.512,-33.691,-1000.000,0.000
1680449787.962,-270.996,-25.391,-32.227,-958.008,0.000
1680449787.966,837.891,29.297,-27.832,284.180,0.000
1680449787.970,715.820,13.672,-29.297,-800.781,0.000
1680449787.974,-416.992,-55.664,-31.738,416.016,0.000
1680449787.978,-1000.000,-100.586,-27.832,-922.852,0.000
1680449787.982,-436.523,-63.965,-33.203,-1000.000,0.000
1680449787.986,719.238,41.992,-32.715,99.609,0.000
1680449787.990,803.711,82.031,-31.250,-975.098,0.000
1680449787.994,-137.207,-37.109,-25.391,958.008,0.000
1680449787.998,-949.219,-132.812,-12.695,-223.633,0.000
1680449788.002,-650.879,-94.238,-23.926,-1000.000,0.000
1680449788.005,578.125,50.781,-27.832,-88.379,0.000
1680449788.009,885.742,59.082,-26.855,-829.102,0.000
1680449788.013,-201.660,-98.633,-32.227,567.383,0.000
1680449788.017,-1000.000,-133.789,-31.250,-777.832,0.000
1680449788.021,-637.207,-48.828,-29.785,-1000.000,0.000
1680449788.025,525.391,10.742,-24.414,-190.430,0.000
1680449788.029,907.715,-15.137,-32.715,-886.230,0.000
1680449788.033,-79.590,-96.680,-34.668,673.340,0.000
1680449788.037,-1000.000,-90.820,-23.438,-677.246,0.000
1680449788.041,-750.000,-61.523,-22.949,-1000.000,0.000
1680449788.045,431.152,21.484,-27.832,-161.621,0.000
1680449788.048,968.750,24.902,-28.809,-992.188,0.000
1680449788.052,110.352,-49.316,-28.320,-983.887,0.000
1680449788.056,-883.789,-101.562,-29.785,-105.469,0.000
1680449788.060,-832.520,-89.844,-26.367,-1000.000,0.000
1680449788.064,325.684,38.574,-23.438,-173.828,0.000
1680449788.068,-969.238,62.012,-26.855,991.211,0.000
1680449788.072,319.824,-26.855,-26.367,-926.758,0.000
1680449788.076,-747.559,-108.398,-23.438,135.254,0.000
1680449788.080,-889.648,-92.285,-19.043,-1000.000,0.000
1680449788.084,240.234,37.598,-16.113,-253.906,0.000
1680449788.087,-947.754,29.785,-16.602,980.957,0.000
1680449788.091,412.598,-46.387,-26.367,-925.781,0.000
1680449788.095,-675.781,-101.562,-31.250,167.480,0.000
1680449788.099,-978.027,-103.027,-24.902,-1000.000,0.000
1680449788.103,-14.160,-1.465,-16.113,-593.262,0.000
1680449788.107,997.559,48.340,-20.508,748.535,0.000
1680449788.111,600.098,25.879,-23.926,-845.703,0.000
1680449788.115,-514.160,-42.969,-19.531,336.426,0.000
1680449788.119,-998.535,-89.355,-22.461,-903.809,0.000
1680449788.123,-376.953,-62.988,-26.367,-1000.000,0.000
1680449788.127,630.371,2.441,-20.020,-255.371,0.000
1680449788.130,834.473,56.152,-11.719,-844.238,0.000
1680449788.134,-311.035,-80.078,-15.625,236.816,0.000
1680449788.138,-1000.000,-130.371,-25.391,-1000.000,0.000
1680449788.142,-298.828,-53.223,-21.484,-1000.000,0.000
1680449788.146,791.504,32.227,-15.625,71.777,0.000
1680449788.150,822.266,44.434,-26.367,-853.516,0.000
1680449788.154,-198.730,-28.320,-33.691,697.266,0.000
1680449788.158,-1000.000,-106.445,-29.297,-617.188,0.000
1680449788.162,-577.637,-52.734,-24.414,-1000.000,0.000
1680449788.166,640.625,63.965,-18.066,-32.715,0.000
1680449788.170,844.727,33.691,-20.020,-947.754,0.000
1680449788.173,-151.367,-17.578,-13.184,934.570,0.000
1680449788.177,-546.875,20.020,-12.207,942.383,0.000
1680449788.181,180.664,-8.789,-23.438,971.191,0.000
1680449788.185,844.238,-56.152,-30.762,906.250,0.000
1680449788.189,471.191,-60.059,-35.156,-894.531,0.000
1680449788.193,-548.828,-91.309,-34.668,175.293,0.000
1680449788.197,-1000.000,-106.934,-34.668,-1000.000,0.000
1680449788.201,-731.445,-57.617,-29.297,-1000.000,0.000
1680449788.205,356.934,41.992,-24.902,-381.836,0.000
1680449788.209,975.098,66.406,-26.367,-947.266,0.000
1680449788.212,26.367,-48.340,-31.250,738.770,0.000
1680449788.216,-1000.000,-125.488,-30.762,-633.789,0.000
1680449788.220,-799.805,-65.430,-22.949,-1000.000,0.000
1680449788.224,313.477,35.156,-19.043,-313.965,0.000
1680449788.228,987.305,18.555,-20.508,914.062,0.000
1680449788.232,237.305,-17.090,-19.043,-908.691,0.000
1680449788.236,-796.387,-83.496,-14.160,80.078,0.000
1680449788.240,-899.414,-123.535,-20.020,-1000.000,0.000
1680449788.244,-12.207,-35.645,-19.043,-923.828,0.000
1680449788.248,909.180,9.766,-17.578,333.984,0.000
1680449788.252,511.719,-24.902,-25.391,-816.895,0.000
1680449788.255,-683.594,-76.172,-29.297,43.945,0.000
1680449788.259,-970.215,-100.098,-31.738,-1000.000,0.000
1680449788.263,-22.461,-44.434,-27.344,-731.934,0.000
1680449788.267,983.398,62.500,-28.320,592.285,0.000
1680449788.271,559.082,20.020,-25.879,-820.801,0.000
1680449788.275,-622.559,-112.793,-25.391,173.340,0.000
1680449788.279,-1000.000,-140.625,-25.391,-1000.000,0.000
1680449788.283,-232.422,-47.363,-16.602,-908.691,0.000
1680449788.287,890.137,61.523,-17.578,367.188,0.000
1680449788.291,654.297,30.273,-22.461,-794.922,0.000
1680449788.295,-548.828,-114.746,-22.461,251.465,0.000
1680449788.298,-1000.000,-110.352,-22.461,-1000.000,0.000
1680449788.302,-297.363,-13.672,-26.855,-961.914,0.000
1680449788.306,845.215,16.113,-28.320,305.176,0.000
1680449788.310,724.121,-17.578,-28.320,-790.039,0.000
1680449788.314,-457.520,-91.309,-26.855,260.742,0.000
1680449788.318,-1000.000,-104.492,-29.297,-1000.000,0.000
1680449788.322,-456.055,-48.340,-26.367,-1000.000,0.000
1680449788.326,739.258,6.836,-12.695,128.906,0.000
1680449788.330,808.105,-12.695,-18.066,-796.875,0.000
1680449788.334,-320.312,-61.523,-30.762,417.969,0.000
1680449788.337,-1000.000,-91.309,-26.367,-870.605,0.000
1680449788.341,-600.586,-64.941,-23.926,-1000.000,0.000
1680449788.345,547.363,26.367,-25.391,-196.289,0.000
1680449788.349,905.273,56.641,-20.508,-940.918,0.000
1680449788.353,-61.523,-45.898,-20.020,869.629,0.000
1680449788.357,-1000.000,-127.930,-23.926,-424.316,0.000
1680449788.361,-737.305,-73.242,-21.973,-1000.000,0.000
1680449788.365,471.680,48.340,-21.973,-144.531,0.000
1680449788.369,931.641,12.695,-21.973,-875.977,0.000
1680449788.373,-91.797,-100.586,-20.508,696.777,0.000
1680449788.377,-1000.000,-136.230,-24.414,-646.973,0.000
1680449788.380,-756.348,-62.988,-21.973,-1000.000,0.000
1680449788.384,416.016,22.949,-16.113,-167.969,0.000
1680449788.388,998.535,13.184,-23.926,993.652,0.000
1680449788.392,134.766,-43.457,-33.203,-969.238,0.000
1680449788.396,-880.859,-80.078,-28.809,-15.625,0.000
1680449788.400,-874.512,-66.895,-27.832,-1000.000,0.000
1680449788.404,191.406,18.555,-31.250,-410.645,0.000
1680449788.408,-958.496,53.223,-26.855,907.715,0.000
1680449788.412,331.543,-9.766,-28.320,-913.086,0.000
1680449788.416,-804.199,-114.258,-25.879,33.203,0.000
1680449788.420,-956.055,-96.680,-29.785,-1000.000,0.000
1680449788.423,-4.395,-4.883,-33.203,-643.066,0.000
1680449788.427,-1000.000,68.848,-27.344,705.078,0.000
1680449788.431,497.070,15.137,-27.832,-848.633,0.000
1680449788.435,-687.012,-106.934,-32.227,93.750,0.000
1680449788.439,-1000.000,-108.398,-36.621,-1000.000,0.000
1680449788.443,-129.883,-11.719,-29.785,-854.492,0.000
1680449788.447,938.965,51.270,-26.367,433.105,0.000
1680449788.451,627.441,-2.441,-25.879,-802.734,0.000
1680449788.455,-557.617,-74.219,-27.344,211.914,0.000
1680449788.459,-1000.000,-64.941,-25.391,-1000.000,0.000
1680449788.462,-250.000,-41.016,-26.855,-852.539,0.000
1680449788.466,894.531,28.320,-25.391,478.516,0.000
1680449788.470,711.426,-0.488,-19.043,-886.719,0.000
1680449788.474,-355.469,-69.336,-20.996,757.812,0.000
1680449788.478,-1000.000,-120.605,-22.461,-499.512,0.000
1680449788.482,-511.230,-100.098,-22.461,-1000.000,0.000
1680449788.486,711.914,73.242,-20.508,-41.504,0.000
1680449788.490,850.098,79.102,-21.973,-800.293,0.000
1680449788.494,-296.875,-103.027,-24.902,272.461,0.000
1680449788.498,-1000.000,-158.203,-27.832,-1000.000,0.000
1680449788.502,-500.977,-30.762,-23.926,-1000.000,0.000
1680449788.505,728.027,68.848,-10.742,80.078,0.000
1680449788.509,853.516,-1.953,-16.113,-784.180,0.000
1680449788.513,-280.762,-102.539,-35.156,305.176,0.000
1680449788.517,-1000.000,-126.953,-31.738,-950.195,0.000
1680449788.521,-559.570,-41.992,-22.461,-1000.000,0.000
1680449788.525,595.703,30.273,-26.367,-163.086,0.000
1680449788.529,945.801,10.742,-29.297,-963.379,0.000
1680449788.533,110.840,-42.480,-27.344,953.125,0.000
1680449788.537,-903.320,-75.684,-28.809,-238.770,0.000
1680449788.541,-749.023,-59.082,-26.367,-1000.000,0.000
1680449788.545,430.176,8.789,-30.273,-197.266,0.000
1680449788.548,-954.102,51.758,-25.391,-973.633,0.000
1680449788.552,314.941,8.789,-17.578,978.027,0.000
1680449788.556,-848.145,-127.441,-25.391,-187.500,0.000
1680449788.560,-808.105,-110.840,-25.879,-1000.000,0.000
1680449788.564,339.844,18.555,-23.438,-395.508,0.000
1680449788.568,-943.359,71.777,-18.555,889.160,0.000
1680449788.572,510.254,25.879,-20.996,-897.949,0.000
1680449788.576,-667.969,-97.656,-24.414,106.934,0.000
1680449788.580,-906.250,-88.867,-24.902,-1000.000,0.000
1680449788.584,157.715,13.184,-23.926,-596.191,0.000
1680449788.587,-961.426,33.691,-20.996,754.883,0.000
1680449788.591,541.016,0.000,-24.414,-854.980,0.000
1680449788.595,-624.023,-41.992,-28.809,131.348,0.000
1680449788.599,-982.910,-66.406,-30.762,-1000.000,0.000
1680449788.603,-96.191,-39.062,-32.715,-898.926,0.000
1680449788.607,934.082,22.949,-30.273,381.836,0.000
1680449788.611,642.090,-2.930,-18.555,-797.363,0.000
1680449788.615,-552.246,-83.984,-25.391,151.367,0.000
1680449788.619,-1000.000,-97.656,-30.273,-1000.000,0.000
1680449788.623,-188.477,-34.180,-24.902,-910.156,0.000
1680449788.627,897.949,62.988,-28.809,343.750,0.000
1680449788.630,745.117,63.477,-34.668,-848.145,0.000
1680449788.634,-288.574,-46.387,-38.086,647.461,0.000
1680449788.638,-1000.000,-122.559,-26.855,-683.105,0.000
1680449788.642,-490.723,-58.594,-20.020,-1000.000,0.000
1680449788.646,756.836,45.898,-31.250,90.820,0.000
1680449788.650,791.016,2.930,-38.086,-796.875,0.000
1680449788.654,-344.238,-76.172,-27.832,374.512,0.000
1680449788.658,-1000.000,-116.211,-18.066,-922.363,0.000
1680449788.662,-586.426,-56.641,-23.438,-1000.000,0.000
1680449788.666,607.422,48.340,-24.902,-107.422,0.000
1680449788.670,848.145,24.414,-20.996,-970.215,0.000
1680449788.673,-136.230,-44.434,-20.508,980.469,0.000
1680449788.677,-970.215,-56.152,-25.879,-159.668,0.000
1680449788.681,-712.402,-70.312,-26.367,-1000.000,0.000
1680449788.685,523.438,22.949,-20.020,-81.543,0.000
1680449788.689,943.359,36.621,-21.973,-841.797,0.000
1680449788.693,-99.609,-61.523,-25.391,644.043,0.000
1680449788.697,-1000.000,-128.418,-27.832,-668.945,0.000
1680449788.701,-728.027,-80.566,-22.949,-1000.000,0.000
1680449788.705,396.484,-2.441,-21.484,-330.078,0.000
1680449788.709,995.117,43.945,-27.832,917.480,0.000
1680449788.712,259.277,4.883,-23.926,-926.270,0.000
1680449788.716,-805.664,-87.402,-24.902,36.621,0.000
1680449788.720,-816.895,-97.168,-28.320,-1000.000,0.000
1680449788.724,212.891,-6.836,-26.367,-692.871,0.000
1680449788.728,998.047,45.410,-30.273,741.699,0.000
1680449788.732,317.383,-26.367,-27.344,-979.004,0.000
1680449788.736,-889.648,-97.656,-26.367,-323.730,0.000
1680449788.740,-857.422,-25.391,-30.762,-1000.000,0.000
1680449788.744,266.113,36.133,-20.996,-318.848,0.000
1680449788.748,-954.102,34.668,-20.020,912.109,0.000
1680449788.752,424.805,-27.832,-34.668,-899.902,0.000
1680449788.755,-698.730,-81.543,-38.086,171.875,0.000
1680449788.759,-951.660,-64.941,-33.691,-1000.000,0.000
1680449788.763,-11.230,-8.789,-39.062,-693.848,0.000
1680449788.767,984.375,50.293,-44.434,640.137,0.000
1680449788.771,593.750,29.785,-32.227,-834.961,0.000
1680449788.775,-549.316,-77.148,-25.391,339.844,0.000
1680449788.779,-1000.000,-132.812,-30.273,-1000.000,0.000
1680449788.783,-307.129,-41.992,-36.133,-926.270,0.000
1680449788.787,882.812,57.617,-35.156,397.461,0.000
1680449788.791,674.316,-7.324,-24.414,-795.898,0.000
1680449788.795,-523.926,-73.730,-26.855,259.766,0.000
1680449788.798,-1000.000,-80.078,-31.738,-978.027,0.000
1680449788.802,-389.160,-34.180,-29.785,-1000.000,0.000
1680449788.806,738.770,32.715,-30.273,-34.180,0.000
1680449788.810,774.902,21.973,-27.832,-809.570,0.000
1680449788.814,-369.629,-49.805,-28.320,422.852,0.000
1680449788.818,-1000.000,-82.520,-25.391,-886.230,0.000
1680449788.822,-555.176,-46.387,-26.367,-1000.000,0.000
1680449788.826,568.359,11.719,-34.668,-223.633,0.000
1680449788.830,906.250,70.312,-36.133,-889.648,0.000
1680449788.834,-114.746,-6.348,-27.832,675.293,0.000
1680449788.837,-1000.000,-124.512,-23.926,-684.570,0.000
1680449788.841,-674.316,-72.266,-26.367,-1000.000,0.000
1680449788.845,505.859,26.367,-24.902,-192.383,0.000
1680449788.849,934.570,80.078,-23.438,-921.387,0.000
1680449788.853,-77.148,-4.395,-21.973,805.176,0.000
1680449788.857,-1000.000,-135.742,-27.344,-530.273,0.000
1680449788.861,-729.980,-67.871,-33.691,-1000.000,0.000
1680449788.865,491.699,49.316,-29.297,-109.375,0.000
1680449788.869,949.707,14.648,-24.902,-840.820,0.000
1680449788.873,-126.465,-106.445,-29.785,562.012,0.000
1680449788.877,-1000.000,-119.141,-33.203,-786.621,0.000
1680449788.880,-799.316,-60.059,-24.414,-1000.000,0.000
1680449788.884,333.496,-4.883,-11.719,-188.477,0.000
1680449788.888,-979.004,64.941,-17.578,957.520,0.000
1680449788.892,236.328,-15.625,-25.391,-923.828,0.000
1680449788.896,-777.832,-97.656,-24.902,187.012,0.000
1680449788.900,-947.266,-126.465,-31.738,-1000.000,0.000
1680449788.904,47.852,-53.223,-31.738,-583.496,0.000
1680449788.908,-963.379,45.898,-27.832,789.551,0.000
1680449788.912,473.145,0.977,-28.809,-869.629,0.000
1680449788.916,-703.613,-109.863,-30.762,94.727,0.000
1680449788.920,-962.402,-135.254,-30.273,-1000.000,0.000
1680449788.923,99.121,2.930,-22.461,-416.992,0.000
1680449788.927,-941.895,92.285,-24.902,888.184,0.000
1680449788.931,548.340,-6.348,-32.715,-884.766,0.000
1680449788.935,-575.195,-102.539,-32.715,300.293,0.000
1680449788.939,-1000.000,-129.395,-32.227,-1000.000,0.000
1680449788.943,-206.543,-38.086,-32.715,-902.344,0.000
1680449788.947,918.457,32.227,-35.156,435.059,0.000
1680449788.951,660.156,-16.113,-33.691,-907.227,0.000
1680449788.955,-344.727,-53.711,-31.738,831.055,0.000
1680449788.959,-976.074,-84.473,-25.879,-421.387,0.000
1680449788.962,-477.539,-67.383,-29.297,-1000.000,0.000
1680449788.966,785.645,30.762,-34.180,149.414,0.000
1680449788.970,777.832,20.020,-30.762,-775.879,0.000
1680449788.974,-426.270,-85.938,-28.809,201.660,0.000
1680449788.978,-1000.000,-132.324,-24.902,-988.770,0.000
1680449788.982,-449.707,-49.805,-25.879,-1000.000,0.000
1680449788.986,647.461,11.719,-23.438,-240.234,0.000
1680449788.990,871.582,51.758,-23.438,-848.633,0.000
1680449788.994,-196.289,-35.156,-29.297,499.512,0.000
1680449788.998,-1000.000,-122.070,-30.273,-858.887,0.000
1680449789.002,-602.539,-66.895,-21.973,-1000.000,0.000
1680449789.005,580.078,17.090,-17.090,-185.059,0.000
1680449789.009,895.020,41.016,-20.020,-974.121,0.000
1680449789.013,-67.871,-5.859,-21.973,960.938,0.000
1680449789.017,-991.211,-57.129,-20.996,-240.234,0.000
1680449789.021,-735.352,-31.250,-20.020,-1000.000,0.000
1680449789.025,481.445,38.574,-25.879,-170.898,0.000
1680449789.029,930.664,3.906,-29.297,-879.395,0.000
1680449789.033,-112.305,-77.637,-24.414,708.008,0.000
1680449789.037,-1000.000,-90.820,-27.344,-608.887,0.000
1680449789.041,-767.578,-68.359,-33.203,-1000.000,0.000
1680449789.045,313.477,-9.766,-34.180,-403.809,0.000
1680449789.048,-944.336,82.031,-28.809,907.715,0.000
1680449789.052,352.539,38.086,-27.832,-952.148,0.000
1680449789.056,-841.797,-101.562,-28.809,-131.348,0.000
1680449789.060,-902.344,-95.703,-25.879,-1000.000,0.000
1680449789.064,201.172,34.180,-26.367,-338.379,0.000
1680449789.068,-952.637,109.863,-29.297,934.570,0.000
1680449789.072,270.508,13.184,-38.086,-921.875,0.000
1680449789.076,-854.492,-81.055,-35.156,51.758,0.000
1680449789.080,-956.055,-86.914,-25.391,-1000.000,0.000
1680449789.084,76.172,13.672,-21.973,-449.219,0.000
1680449789.087,-946.777,84.961,-22.461,876.953,0.000
1680449789.091,418.457,15.625,-24.902,-880.371,0.000
1680449789.095,-747.070,-96.680,-20.996,109.863,0.000
1680449789.099,-989.746,-84.961,-17.578,-1000.000,0.000
1680449789.103,-185.547,-4.395,-18.066,-989.258,0.000
1680449789.107,866.699,27.344,-18.066,180.664,0.000
1680449789.111,626.465,43.945,-21.484,-782.715,0.000
1680449789.115,-554.688,-22.949,-25.879,325.195,0.000
1680449789.119,-1000.000,-92.285,-21.484,-929.199,0.000
1680449789.123,-475.098,-65.918,-14.648,-1000.000,0.000
1680449789.127,640.625,-3.906,-18.555,-208.984,0.000
1680449789.130,723.145,28.809,-22.461,-834.473,0.000
1680449789.134,-463.867,-40.527,-32.227,300.781,0.000
1680449789.138,-1000.000,-98.633,-41.016,-1000.000,0.000
1680449789.142,-477.051,-9.277,-32.715,-1000.000,0.000
1680449789.146,781.738,95.215,-27.344,213.867,0.000
1680449789.150,741.699,44.922,-26.367,-788.086,0.000
1680449789.154,-455.566,-50.781,-24.414,359.863,0.000
1680449789.158,-1000.000,-66.406,-26.855,-921.875,0.000
1680449789.162,-505.371,11.719,-35.156,-1000.000,0.000
1680449789.166,669.922,72.754,-30.762,-116.211,0.000
1680449789.170,869.141,51.758,-24.902,-871.094,0.000
1680449789.173,-186.523,-37.109,-28.809,672.852,0.000
1680449789.177,-1000.000,-70.312,-28.809,-669.922,0.000
1680449789.181,-667.480,-20.020,-28.809,-1000.000,0.000
1680449789.185,544.434,49.805,-21.973,-116.699,0.000
1680449789.189,936.035,59.082,-27.832,-953.125,0.000
1680449789.193,-86.914,-2.930,-34.180,937.500,0.000
1680449789.197,-1000.000,-90.332,-33.691,-267.090,0.000
1680449789.201,-820.801,-111.328,-26.367,-1000.000,0.000
1680449789.205,319.824,21.484,-24.902,-206.055,0.000
1680449789.209,-969.727,97.656,-24.902,979.492,0.000
1680449789.212,209.473,-18.066,-20.508,-938.965,0.000
1680449789.216,-862.793,-94.238,-29.297,65.918,0.000
1680449789.220,-839.844,-90.820,-36.621,-1000.000,0.000
1680449789.224,278.809,20.996,-35.156,-365.723,0.000
1680449789.228,-945.801,77.148,-33.691,947.754,0.000
1680449789.232,323.730,-3.906,-35.156,-937.988,0.000
1680449789.236,-824.219,-66.406,-32.227,11.719,0.000
1680449789.240,-918.945,-79.102,-33.203,-1000.000,0.000
1680449789.244,150.391,-13.672,-29.785,-524.902,0.000
1680449789.248,-960.938,47.363,-28.809,806.152,0.000
1680449789.252,493.652,3.418,-29.785,-854.492,0.000
1680449789.255,-644.531,-76.660,-18.555,142.090,0.000
1680449789.259,-962.891,-115.234,-22.949,-1000.000,0.000
1680449789.263,-118.164,-42.969,-32.227,-1000.000,0.000
1680449789.267,865.723,9.277,-30.273,33.691,0.000
1680449789.271,692.383,6.836,-30.762,-789.062,0.000
1680449789.275,-506.836,-70.801,-37.598,165.039,0.000
1680449789.279,-1000.000,-108.887,-34.180,-1000.000,0.000
1680449789.283,-237.305,-72.266,-29.297,-1000.000,0.000
1680449789.287,814.453,26.367,-19.531,-101.074,0.000
1680449789.291,782.227,46.387,-18.555,-807.129,0.000
1680449789.295,-373.535,-70.801,-34.668,272.461,0.000
1680449789.298,-1000.000,-111.816,-33.691,-1000.000,0.000
1680449789.302,-344.238,-15.137,-19.531,-1000.000,0.000
1680449789.306,822.754,36.133,-25.879,107.422,0.000
1680449789.310,764.648,-1.465,-28.320,-782.227,0.000
1680449789.314,-430.664,-107.422,-19.043,131.348,0.000
1680449789.318,-1000.000,-122.559,-25.391,-1000.000,0.000
1680449789.322,-485.352,-35.645,-30.273,-1000.000,0.000
1680449789.326,560.547,-6.836,-27.832,-479.004,0.000
1680449789.330,933.594,41.992,-28.320,966.797,0.000
1680449789.334,47.852,0.977,-25.879,852.051,0.000
1680449789.337,-995.605,-102.539,-29.297,-517.578,0.000
1680449789.341,-656.250,-83.984,-31.250,-1000.000,0.000
1680449789.345,520.020,15.137,-14.648,-304.688,0.000
1680449789.349,921.875,64.453,-7.812,-885.254,0.000
1680449789.353,-161.133,-71.777,-23.438,539.062,0.000
1680449789.357,-1000.000,-117.188,-22.461,-850.098,0.000
1680449789.361,-758.789,-38.574,-10.254,-1000.000,0.000
1680449789.365,400.879,9.766,-3.906,-194.336,0.000
1680449789.369,942.383,5.859,-8.789,-933.594,0.000
1680449789.373,-90.820,-62.012,-15.625,836.426,0.000
1680449789.377,-1000.000,-122.559,-16.113,-444.336,0.000
1680449789.380,-908.691,-96.680,-14.648,-1000.000,0.000
1680449789.384,103.516,-10.742,-19.531,-395.996,0.000
1680449789.388,991.699,45.898,-24.902,872.070,0.000
1680449789.392,104.980,-2.930,-25.391,-892.578,0.000
1680449789.396,-933.105,-98.145,-25.879,126.953,0.000
1680449789.400,-980.957,-108.398,-28.809,-1000.000,0.000
1680449789.404,-114.258,-45.410,-21.973,-580.078,0.000
1680449789.408,973.633,-0.977,-8.789,766.602,0.000
1680449789.412,264.648,-12.695,-14.648,-858.398,0.000
1680449789.416,-863.770,-79.590,-17.578,173.828,0.000
1680449789.420,-1000.000,-123.047,-14.648,-1000.000,0.000
1680449789.423,-169.434,-9.766,-11.230,-463.379,0.000
1680449789.427,-960.449,76.172,-19.531,896.484,0.000
1680449789.431,374.512,-32.227,-22.949,-894.531,0.000
1680449789.435,-804.199,-134.277,-20.996,99.609,0.000
1680449789.439,-1000.000,-89.355,-17.090,-1000.000,0.000
1680449789.443,-184.082,9.766,-18.555,-756.836,0.000
1680449789.447,943.848,20.020,-31.250,577.637,0.000
1680449789.451,530.273,-20.020,-22.949,-821.289,0.000
1680449789.455,-693.359,-111.816,-19.531,135.254,0.000
1680449789.459,-1000.000,-106.934,-23.926,-1000.000,0.000
1680449789.462,-323.242,-17.090,-24.902,-905.273,0.000
1680449789.466,875.488,26.855,-26.367,352.051,0.000
1680449789.470,711.426,9.766,-28.809,-794.434,0.000
1680449789.474,-487.305,-66.406,-27.832,358.398,0.000
1680449789.478,-1000.000,-112.305,-26.367,-937.500,0.000
1680449789.482,-564.453,-52.734,-26.855,-1000.000,0.000
1680449789.486,663.574,37.598,-23.926,40.527,0.000
1680449789.490,773.926,55.176,-27.832,-874.023,0.000
1680449789.494,-424.805,-66.895,-23.438,750.488,0.000
1680449789.498,-1000.000,-131.836,-19.043,-553.711,0.000
1680449789.502,-682.617,-68.848,-21.484,-1000.000,0.000
1680449789.505,539.551,24.414,-24.902,-57.129,0.000
1680449789.509,868.652,24.414,-29.785,-849.121,0.000
1680449789.513,-287.109,-81.543,-27.832,626.465,0.000
1680449789.517,-1000.000,-103.027,-25.879,-712.891,0.000
1680449789.521,-740.723,-35.645,-27.344,-1000.000,0.000
1680449789.525,434.082,44.434,-34.180,-122.559,0.000
1680449789.529,885.742,9.766,-41.504,961.426,0.000
1680449789.533,-104.980,-59.570,-34.668,-929.688,0.000
1680449789.537,-860.352,-42.480,-27.344,459.961,0.000
1680449789.541,-932.129,-100.586,-25.391,-1000.000,0.000
1680449789.545,118.652,-7.812,-24.414,-354.492,0.000
1680449789.548,-992.188,51.758,-30.762,-962.891,0.000
1680449789.552,34.668,-23.926,-35.645,994.141,0.000
1680449789.556,-973.145,-95.215,-35.156,-149.414,0.000
1680449789.560,-915.527,-104.492,-29.297,-1000.000,0.000
1680449789.564,118.652,-9.277,-25.879,-398.926,0.000
1680449789.568,-976.074,72.754,-25.391,890.137,0.000
1680449789.572,191.406,-0.977,-26.367,-891.113,0.000
1680449789.576,-883.789,-99.609,-26.855,123.047,0.000
1680449789.580,-995.605,-107.910,-35.156,-1000.000,0.000
1680449789.584,26.367,41.016,-24.902,-358.887,0.000
1680449789.587,-922.363,84.473,-13.184,944.336,0.000
1680449789.591,330.078,-30.273,-26.367,-915.527,0.000
1680449789.595,-837.891,-99.609,-28.809,105.957,0.000
1680449789.599,-1000.000,-75.684,-20.508,-1000.000,0.000
1680449789.603,-67.383,18.066,-20.996,-540.039,0.000
1680449789.607,-983.887,41.016,-28.809,791.504,0.000
1680449789.611,448.730,5.371,-21.484,-855.957,0.000
1680449789.615,-697.754,-42.969,-16.602,343.262,0.000
1680449789.619,-1000.000,-105.469,-24.414,-927.246,0.000
1680449789.623,-479.980,-82.520,-27.344,-1000.000,0.000
1680449789.627,708.496,36.621,-25.879,-64.941,0.000
1680449789.630,719.238,60.547,-20.996,-840.820,0.000
1680449789.634,-469.238,-72.266,-20.508,564.941,0.000
1680449789.638,-1000.000,-109.375,-27.832,-908.691,0.000
1680449789.642,-453.125,-27.344,-31.250,-936.035,0.000
1680449789.646,849.121,46.387,-30.762,452.637,0.000
1680449789.650,715.820,-4.395,-31.250,-799.805,0.000
1680449789.654,-515.137,-94.238,-30.273,259.277,0.000
1680449789.658,-1000.000,-115.234,-25.391,-948.730,0.000
1680449789.662,-674.805,-57.617,-28.809,-1000.000,0.000
1680449789.666,504.395,27.832,-30.273,-185.059,0.000
1680449789.669,815.918,15.625,-30.273,-968.262,0.000
1680449789.673,-294.922,-36.621,-26.855,958.008,0.000
1680449789.677,-1000.000,-70.801,-20.996,-226.074,0.000
1680449789.681,-810.547,-96.191,-23.926,-1000.000,0.000
1680449789.685,345.703,-2.441,-23.926,-228.516,0.000
1680449789.689,947.266,28.320,-23.438,-897.461,0.000
1680449789.693,-142.090,-39.551,-18.066,742.188,0.000
1680449789.697,-1000.000,-82.031,-15.137,-609.375,0.000
1680449789.701,-768.066,-67.871,-18.066,-1000.000,0.000
1680449789.705,420.410,42.480,-19.531,-157.715,0.000
1680449789.709,977.539,42.480,-25.391,-906.738,0.000
1680449789.712,-61.523,-81.543,-29.297,783.691,0.000
1680449789.716,-1000.000,-154.297,-26.855,-535.645,0.000
1680449789.720,-825.195,-86.426,-23.926,-1000.000,0.000
1680449789.724,340.332,58.594,-25.879,-185.059,0.000
1680449789.728,-969.238,49.805,-29.785,-997.070,0.000
1680449789.732,78.125,-39.062,-32.227,-985.840,0.000
1680449789.736,-951.660,-106.445,-26.855,-103.516,0.000
1680449789.740,-928.711,-85.938,-27.832,-1000.000,0.000
1680449789.744,136.230,29.297,-30.273,-342.773,0.000
1680449789.748,-932.129,63.477,-23.438,917.969,0.000
1680449789.752,302.246,-1.465,-21.973,-901.855,0.000
1680449789.755,-834.961,-66.406,-20.508,155.273,0.000
1680449789.759,-1000.000,-83.008,-20.020,-1000.000,0.000
1680449789.763,-23.438,-0.977,-23.438,-543.945,0.000
1680449789.767,-927.246,82.031,-24.902,835.449,0.000
1680449789.771,447.266,8.789,-28.320,-887.695,0.000
1680449789.775,-782.227,-124.512,-35.156,27.832,0.000
1680449789.779,-1000.000,-121.094,-27.344,-1000.000,0.000
1680449789.783,-187.012,-25.391,-17.090,-768.066,0.000
1680449789.787,987.305,64.453,-22.461,539.551,0.000
1680449789.791,597.656,29.785,-30.273,-806.641,0.000
1680449789.794,-606.445,-87.402,-31.738,206.543,0.000
1680449789.798,-1000.000,-103.516,-31.250,-1000.000,0.000
1680449789.802,-494.629,-29.785,-30.762,-1000.000,0.000
1680449789.806,741.211,40.039,-31.738,56.152,0.000
1680449789.810,740.234,19.043,-31.250,-788.086,0.000
1680449789.814,-501.465,-92.285,-32.227,195.801,0.000
1680449789.818,-1000.000,-95.215,-28.809,-1000.000,0.000
1680449789.822,-446.777,-56.641,-21.973,-1000.000,0.000
1680449789.826,770.508,13.672,-17.578,61.523,0.000
1680449789.830,822.754,8.301,-27.832,-798.828,0.000
1680449789.834,-323.242,-59.082,-38.086,451.660,0.000
1680449789.837,-1000.000,-100.098,-32.227,-850.098,0.000
1680449789.841,-656.250,-71.289,-27.344,-1000.000,0.000
1680449789.845,500.000,30.273,-27.344,-233.887,0.000
1680449789.849,954.102,79.590,-30.762,-909.668,0.000
1680449789.853,-76.660,-28.809,-25.879,737.793,0.000
1680449789.857,-1000.000,-119.629,-24.902,-620.117,0.000
1680449789.861,-732.422,-52.734,-24.414,-1000.000,0.000
1680449789.865,473.633,84.961,-21.484,-176.270,0.000
1680449789.869,965.332,60.547,-17.090,-888.184,0.000
1680449789.873,-134.766,-80.566,-15.625,704.102,0.000
1680449789.877,-1000.000,-140.137,-26.855,-638.672,0.000
1680449789.880,-867.188,-73.730,-23.438,-1000.000,0.000
1680449789.884,232.910,43.457,-22.461,-253.906,0.000
1680449789.888,987.305,49.316,-28.809,946.289,0.000
1680449789.892,8.301,-18.555,-30.762,-931.152,0.000
1680449789.896,-948.242,-69.824,-31.738,65.430,0.000
1680449789.900,-967.285,-105.469,-31.250,-1000.000,0.000
1680449789.904,-118.652,-18.066,-36.133,-784.180,0.000
1680449789.908,966.309,83.008,-37.598,539.551,0.000
1680449789.912,363.770,52.246,-36.133,-823.242,0.000
1680449789.916,-843.750,-93.262,-31.738,108.887,0.000
1680449789.919,-1000.000,-92.285,-24.902,-1000.000,0.000
1680449789.923,-152.344,0.488,-32.227,-750.977,0.000
1680449789.927,958.496,46.387,-39.062,594.727,0.000
1680449789.931,395.508,8.301,-39.551,-827.148,0.000
1680449789.935,-801.758,-107.910,-41.504,100.098,0.000
1680449789.939,-1000.000,-127.441,-36.621,-1000.000,0.000
1680449789.943,-309.570,-20.508,-31.250,-903.320,0.000
1680449789.947,906.738,61.035,-32.715,344.238,0.000
1680449789.951,663.086,16.602,-33.691,-793.457,0.000
1680449789.955,-541.504,-44.434,-31.250,311.523,0.000
1680449789.959,-1000.000,-81.055,-24.414,-989.258,0.000
1680449789.962,-389.160,-59.082,-20.508,-1000.000,0.000
1680449789.966,838.379,21.484,-32.227,168.945,0.000
1680449789.970,696.777,7.324,-40.527,-780.762,0.000
1680449789.974,-513.672,-72.266,-40.527,161.621,0.000
1680449789.978,-1000.000,-104.004,-38.574,-997.559,0.000
1680449789.982,-546.387,-87.891,-35.645,-1000.000,0.000
1680449789.986,604.980,7.812,-32.227,-289.551,0.000
1680449789.990,880.371,63.477,-37.109,-879.883,0.000
1680449789.994,-178.711,-56.152,-36.133,592.773,0.000
1680449789.998,-1000.000,-128.418,-27.832,-921.875,0.000
1680449790.002,-432.129,-4.395,-28.809,-947.266,0.000
1680449790.005,854.004,82.520,-20.020,424.316,0.000
1680449790.009,917.480,13.672,-15.625,-830.078,0.000
1680449790.013,-164.551,-63.477,-25.391,534.180,0.000
1680449790.017,-1000.000,-138.184,-27.832,-751.953,0.000
1680449790.021,-684.570,-67.871,-25.391,-1000.000,0.000
1680449790.025,498.535,38.086,-21.484,-210.938,0.000
1680449790.029,964.844,32.715,-25.391,-898.926,0.000
1680449790.033,-66.895,-55.664,-27.344,714.844,0.000
1680449790.037,-1000.000,-124.023,-25.391,-636.230,0.000
1680449790.041,-724.609,-82.031,-24.902,-1000.000,0.000
1680449790.044,442.871,24.902,-27.344,-180.664,0.000
1680449790.048,-935.547,70.801,-22.461,977.051,0.000
1680449790.052,267.578,26.855,-13.672,-949.219,0.000
1680449790.056,-868.164,-89.355,-16.602,64.453,0.000
1680449790.060,-901.855,-111.328,-14.648,-1000.000,0.000
1680449790.064,142.578,-21.484,-16.113,-587.402,0.000
1680449790.068,-953.125,52.246,-21.484,770.508,0.000
1680449790.072,437.988,8.301,-19.531,-872.559,0.000
1680449790.076,-770.996,-93.262,-24.902,72.266,0.000
1680449790.080,-918.457,-72.754,-30.762,-1000.000,0.000
1680449790.084,147.461,23.926,-30.762,-561.035,0.000
1680449790.087,-932.617,39.551,-30.273,814.941,0.000
1680449790.091,490.234,5.859,-26.367,-868.652,0.000
1680449790.095,-729.980,-65.430,-23.926,50.293,0.000
1680449790.099,-1000.000,-93.750,-28.809,-1000.000,0.000
1680449790.103,-144.043,-58.594,-25.879,-979.004,0.000
1680449790.107,921.875,29.297,-26.367,208.496,0.000
1680449790.111,668.945,22.461,-29.297,-785.156,0.000
1680449790.115,-531.738,-67.383,-32.715,204.590,0.000
1680449790.119,-1000.000,-83.496,-32.227,-1000.000,0.000
1680449790.123,-195.801,-17.090,-27.832,-901.855,0.000
1680449790.127,935.059,25.879,-27.832,368.652,0.000
1680449790.130,751.465,22.461,-30.273,-809.082,0.000
1680449790.134,-387.207,-53.711,-30.273,420.410,0.000
1680449790.138,-1000.000,-123.047,-26.855,-985.352,0.000
1680449790.142,-328.125,-34.180,-19.531,-928.711,0.000
1680449790.146,925.781,83.984,-19.043,426.270,0.000
1680449790.150,775.391,12.207,-27.832,-797.852,0.000
1680449790.154,-393.555,-118.652,-26.367,262.695,0.000
1680449790.158,-1000.000,-129.883,-23.438,-958.008,0.000
1680449790.162,-416.992,-44.922,-29.297,-1000.000,0.000
1680449790.166,749.512,40.527,-28.809,-152.344,0.000
1680449790.169,890.137,34.668,-31.250,-820.801,0.000
1680449790.173,-225.098,-61.035,-36.133,409.668,0.000
1680449790.177,-1000.000,-95.215,-33.691,-915.527,0.000
1680449790.181,-673.340,-54.199,-32.227,-1000.000,0.000
1680449790.185,476.562,14.160,-28.809,-244.629,0.000
1680449790.189,-962.402,84.961,-24.414,-895.996,0.000
1680449790.193,35.156,7.812,-29.297,682.129,0.000
1680449790.197,-1000.000,-114.746,-32.227,-682.617,0.000
1680449790.201,-754.395,-50.781,-24.902,-1000.000,0.000
1680449790.205,403.809,38.086,-25.879,-166.504,0.000
1680449790.209,-948.242,57.129,-30.273,983.887,0.000
1680449790.212,266.113,-4.883,-24.414,-943.848,0.000
1680449790.216,-872.559,-112.305,-18.066,42.969,0.000
1680449790.220,-869.141,-120.605,-10.254,-1000.000,0.000
1680449790.224,312.012,21.973,-8.301,-247.559,0.000
1680449790.228,-951.660,42.480,-22.461,-961.426,0.000
1680449790.232,165.039,-76.660,-18.555,960.938,0.000
1680449790.236,-929.688,-114.746,-4.883,-226.074,0.000
1680449790.240,-891.602,-77.637,-13.184,-1000.000,0.000
1680449790.244,186.523,-28.809,-13.672,-390.137,0.000
1680449790.248,-919.922,-3.906,-3.418,905.762,0.000
1680449790.252,376.465,-55.664,-19.043,-948.242,0.000
1680449790.255,-800.781,-93.750,-24.414,54.688,0.000
1680449790.259,-1000.000,-87.891,-20.996,-1000.000,0.000
1680449790.263,-25.879,-45.410,-19.043,-726.074,0.000
1680449790.267,-974.121,37.109,-16.113,610.352,0.000
1680449790.271,669.922,56.152,-12.207,-827.148,0.000
1680449790.275,-522.461,-85.449,-10.742,171.875,0.000
1680449790.279,-1000.000,-144.043,-12.695,-1000.000,0.000
1680449790.283,-169.922,-27.832,-10.254,-863.770,0.000
1680449790.287,965.820,54.199,-13.184,450.684,0.000
1680449790.291,729.492,-0.977,-12.695,-797.363,0.000
1680449790.294,-451.172,-113.770,-13.184,141.602,0.000
1680449790.298,-1000.000,-147.949,-17.578,-1000.000,0.000
1680449790.302,-253.906,-42.480,-13.672,-1000.000,0.000
1680449790.306,878.906,34.668,-22.461,67.383,0.000
1680449790.310,806.641,7.324,-28.320,-851.562,0.000
1680449790.314,-229.980,-60.547,-22.949,703.613,0.000
1680449790.318,-1000.000,-102.539,-19.531,-668.457,0.000
1680449790.322,-382.324,-50.293,-16.113,-1000.000,0.000
1680449790.326,850.586,28.320,-20.508,184.082,0.000
1680449790.330,867.188,28.320,-23.926,-806.641,0.000
1680449790.334,-224.121,-50.293,-19.531,484.375,0.000
1680449790.337,-1000.000,-128.906,-20.996,-811.523,0.000
1680449790.341,-563.965,-73.730,-28.809,-1000.000,0.000
1680449790.345,592.773,6.348,-32.227,-233.887,0.000
1680449790.349,958.496,43.945,-30.762,-909.180,0.000
1680449790.353,-47.852,-31.250,-32.227,732.422,0.000
1680449790.357,-1000.000,-120.605,-33.691,-622.070,0.000
1680449790.361,-657.715,-54.199,-37.109,-1000.000,0.000
1680449790.365,543.945,53.711,-33.691,-187.988,0.000
1680449790.369,981.934,41.992,-26.367,-918.945,0.000
1680449790.373,-4.883,-36.133,-31.738,795.410,0.000
1680449790.377,-1000.000,-112.793,-43.457,-507.324,0.000
1680449790.380,-839.844,-88.379,-37.598,-1000.000,0.000
1680449790.384,248.535,-5.371,-29.297,-409.180,0.000
1680449790.388,-965.820,44.434,-31.250,883.789,0.000
1680449790.392,201.660,-12.695,-39.551,-919.922,0.000
1680449790.396,-893.555,-77.148,-42.969,-8.789,0.000
1680449790.400,-958.984,-69.336,-45.410,-1000.000,0.000
1680449790.404,-29.785,-7.324,-58.594,-667.480,0.000
1680449790.408,-999.023,43.457,-53.223,654.785,0.000
1680449790.412,437.012,27.344,-45.410,-837.891,0.000
1680449790.416,-745.605,-52.734,-49.316,166.016,0.000
1680449790.419,-1000.000,-89.355,-43.457,-1000.000,0.000
1680449790.423,-41.992,21.973,-30.273,-517.090,0.000
1680449790.427,-936.035,142.578,-23.438,839.355,0.000
1680449790.431,475.586,57.129,-38.574,-867.188,0.000
1680449790.435,-692.871,-88.379,-46.387,170.410,0.000
1680449790.439,-1000.000,-118.164,-42.480,-1000.000,0.000
1680449790.443,-313.477,-27.832,-42.969,-939.941,0.000
1680449790.447,896.973,61.523,-36.133,314.941,0.000
1680449790.451,625.000,9.766,-33.691,-861.816,0.000
1680449790.455,-545.898,-43.945,-34.668,717.285,0.000
1680449790.459,-1000.000,-67.383,-34.668,-544.434,0.000
1680449790.462,-524.902,-65.430,-39.551,-1000.000,0.000
1680449790.466,671.875,8.301,-40.527,-133.789,0.000
1680449790.470,818.359,37.109,-34.180,-838.867,0.000
1680449790.474,-324.707,-18.066,-35.645,495.117,0.000
1680449790.478,-1000.000,-116.699,-35.645,-899.414,0.000
1680449790.482,-526.855,-63.965,-26.367,-1000.000,0.000
1680449790.486,744.629,58.105,-21.484,75.195,0.000
1680449790.490,848.633,30.762,-26.855,-794.922,0.000
1680449790.494,-315.430,-89.355,-35.156,366.211,0.000
1680449790.498,-1000.000,-125.488,-34.668,-934.570,0.000
1680449790.502,-562.500,-56.152,-32.715,-1000.000,0.000
1680449790.505,659.180,31.250,-28.809,-59.570,0.000
1680449790.509,923.828,25.391,-29.297,-923.340,0.000
1680449790.513,-64.453,-43.945,-34.180,880.371,0.000
1680449790.517,-1000.000,-55.176,-34.180,-348.145,0.000
1680449790.521,-663.574,-45.898,-25.879,-1000.000,0.000
1680449790.525,538.574,-20.996,-23.926,-183.105,0.000
1680449790.529,966.309,-8.301,-27.832,-939.941,0.000
1680449790.533,28.809,-70.801,-21.973,894.043,0.000
1680449790.537,-1000.000,-97.168,-21.973,-368.164,0.000
1680449790.541,-648.438,-34.668,-26.367,-1000.000,0.000
1680449790.544,546.875,35.645,-27.344,-128.906,0.000
1680449790.548,-939.453,43.945,-23.438,-985.840,0.000
1680449790.552,350.586,-8.301,-23.438,-974.609,0.000
1680449790.556,-832.520,-125.000,-25.391,-41.992,0.000
1680449790.560,-873.047,-131.836,-27.832,-1000.000,0.000
1680449790.564,295.898,20.508,-27.832,-297.852,0.000
1680449790.568,-911.621,64.453,-32.715,981.934,0.000
1680449790.572,385.254,-51.270,-34.668,-967.773,0.000
1680449790.576,-836.914,-119.629,-29.297,-87.891,0.000
1680449790.580,-863.281,-119.141,-30.762,-1000.000,0.000
1680449790.584,290.039,-25.391,-20.020,-468.262,0.000
1680449790.587,-921.387,45.410,-10.254,857.910,0.000
1680449790.591,562.988,-23.438,-17.090,-896.484,0.000
1680449790.595,-652.344,-115.723,-16.113,34.668,0.000
1680449790.599,-1000.000,-100.098,-16.602,-1000.000,0.000
1680449790.603,24.902,-32.227,-19.043,-666.504,0.000
1680449790.607,-969.727,15.137,-19.043,712.402,0.000
1680449790.611,675.781,-1.953,-19.043,-994.629,0.000
1680449790.615,-211.426,-43.945,-9.766,997.559,0.000
1680449790.619,-875.000,-115.723,-8.789,9.277,0.000
1680449790.623,-475.586,-107.422,-10.254,-1000.000,0.000
1680449790.627,756.348,-1.465,-6.836,-105.469,0.000
1680449790.630,835.938,15.137,-11.719,-796.387,0.000
1680449790.634,-296.387,-92.285,-4.395,375.000,0.000
1680449790.638,-1000.000,-140.625,2.930,-1000.000,0.000
1680449790.642,-322.754,-20.020,-6.348,-970.703,0.000
1680449790.646,896.973,45.410,-7.812,309.570,0.000
1680449790.650,824.219,-4.395,-15.137,-794.922,0.000
1680449790.654,-278.809,-76.660,-20.020,377.441,0.000
1680449790.658,-1000.000,-119.141,-20.020,-897.461,0.000
1680449790.662,-458.008,-47.363,-19.043,-1000.000,0.000
1680449790.666,707.520,9.766,-15.625,-186.035,0.000
1680449790.669,918.945,-6.836,-12.695,-891.602,0.000
1680449790.673,-34.180,-65.430,-15.625,698.730,0.000
1680449790.677,-1000.000,-76.172,-25.391,-643.555,0.000
1680449790.681,-578.613,-42.969,-24.902,-1000.000,0.000
1680449790.685,634.766,40.527,-20.508,-142.578,0.000
1680449790.689,963.379,25.879,-20.020,-946.289,0.000
1680449790.693,122.070,-37.109,-17.578,904.785,0.000
1680449790.697,-933.594,-86.426,-17.578,-322.754,0.000
1680449790.701,-725.586,-84.473,-19.043,-1000.000,0.000
1680449790.705,443.359,16.113,-14.160,-381.836,0.000
1680449790.709,-927.246,97.656,-9.766,-999.512,0.000
1680449790.712,287.109,-33.203,-13.672,863.770,0.000
1680449790.716,-951.172,-149.902,-20.020,-469.238,0.000
1680449790.720,-771.973,-94.238,-24.414,-1000.000,0.000
1680449790.724,399.902,16.113,-20.996,-413.086,0.000
1680449790.728,-929.688,87.891,-24.414,901.367,0.000
1680449790.732,452.148,12.695,-38.574,-935.547,0.000
1680449790.736,-788.574,-62.500,-40.527,-115.234,0.000
1680449790.740,-854.980,-36.133,-36.621,-1000.000,0.000
1680449790.744,351.074,50.781,-35.645,-205.078,0.000
1680449790.748,-931.641,56.641,-36.133,958.984,0.000
1680449790.752,481.445,10.254,-37.598,-922.852,0.000
1680449790.755,-603.027,-26.855,-32.227,408.691,0.000
1680449790.759,-1000.000,-121.582,-31.250,-1000.000,0.000
1680449790.763,-37.109,-17.090,-38.574,-625.488,0.000
1680449790.767,-949.219,87.891,-39.062,785.645,0.000
1680449790.771,689.941,24.414,-36.133,-853.516,0.000
1680449790.775,-455.078,-60.059,-41.992,238.281,0.000
1680449790.779,-1000.000,-111.328,-44.922,-1000.000,0.000
1680449790.783,-243.652,-41.504,-39.551,-1000.000,0.000
1680449790.787,885.254,56.152,-38.574,123.047,0.000
1680449790.791,773.438,59.570,-40.527,-785.156,0.000
1680449790.794,-394.531,-53.711,-39.551,225.098,0.000
1680449790.798,-1000.000,-110.840,-31.738,-1000.000,0.000
1680449790.802,-335.449,-9.766,-24.414,-1000.000,0.000
1680449790.806,817.383,64.453,-25.879,-1.465,0.000
1680449790.810,841.309,55.176,-29.785,-814.941,0.000
1680449790.814,-253.906,-30.273,-27.832,495.117,0.000
1680449790.818,-1000.000,-78.613,-28.809,-841.309,0.000
1680449790.822,-625.977,-14.160,-32.227,-1000.000,0.000
1680449790.826,601.562,35.156,-34.668,-126.465,0.000
1680449790.830,814.941,24.414,-37.598,-825.195,0.000
1680449790.834,-383.301,-47.852,-34.668,423.340,0.000
1680449790.837,-1000.000,-104.492,-29.785,-907.227,0.000
1680449790.841,-771.973,-62.988,-35.156,-1000.000,0.000
1680449790.845,407.715,56.152,-30.762,-220.215,0.000
1680449790.849,885.742,85.449,-24.414,-873.047,0.000
1680449790.853,-316.406,-60.547,-36.133,599.609,0.000
1680449790.857,-1000.000,-130.371,-38.574,-746.582,0.000
1680449790.861,-827.148,-84.473,-29.785,-1000.000,0.000
1680449790.865,173.828,3.418,-29.785,-498.535,0.000
1680449790.869,977.539,55.664,-38.086,873.047,0.000
1680449790.873,42.969,-10.742,-41.016,998.047,0.000
1680449790.877,-1000.000,-74.219,-36.133,-316.406,0.000
1680449790.880,-915.039,-36.133,-35.156,-1000.000,0.000
1680449790.884,201.660,17.090,-39.551,-187.012,0.000
1680449790.888,-995.117,36.621,-38.574,965.332,0.000
1680449790.892,99.121,-5.859,-38.086,-920.898,0.000
1680449790.896,-874.512,-65.430,-32.227,210.449,0.000
1680449790.900,-989.258,-99.609,-29.785,-1000.000,0.000
1680449790.904,-38.086,-24.902,-27.344,-537.598,0.000
1680449790.908,-956.543,30.762,-18.066,842.285,0.000
1680449790.912,351.074,-10.742,-24.414,-890.137,0.000
1680449790.916,-830.566,-93.262,-32.227,57.617,0.000
1680449790.919,-1000.000,-95.703,-27.832,-1000.000,0.000
1680449790.923,-87.402,17.578,-17.090,-573.730,0.000
1680449790.927,-957.031,79.102,-21.973,768.066,0.000
1680449790.931,488.770,21.973,-28.809,-847.656,0.000
1680449790.935,-699.219,-67.383,-33.203,184.570,0.000
1680449790.939,-1000.000,-101.074,-34.180,-1000.000,0.000
1680449790.943,-396.484,-29.785,-34.668,-1000.000,0.000
1680449790.947,833.008,24.902,-28.809,189.941,0.000
1680449790.951,621.582,-4.883,-20.996,-789.551,0.000
1680449790.955,-632.812,-95.215,-26.367,131.348,0.000
1680449790.959,-1000.000,-79.102,-30.762,-1000.000,0.000
1680449790.962,-345.215,-3.906,-27.344,-981.934,0.000
1680449790.966,848.633,38.574,-21.973,212.402,0.000
1680449790.970,724.609,12.695,-25.879,-784.180,0.000
1680449790.974,-463.379,-49.316,-34.668,352.539,0.000
1680449790.978,-1000.000,-89.844,-34.668,-927.246,0.000
1680449790.982,-531.738,-42.969,-33.691,-1000.000,0.000
1680449790.986,677.246,58.594,-31.738,-95.215,0.000
1680449790.990,831.543,87.402,-34.180,-847.168,0.000
1680449790.994,-331.055,-39.551,-31.250,591.797,0.000
1680449790.998,-1000.000,-120.117,-21.973,-763.184,0.000
1680449791.002,-650.879,-61.035,-26.367,-1000.000,0.000
1680449791.005,550.293,18.555,-23.926,-108.887,0.000
1680449791.009,930.176,54.199,-20.020,-902.344,0.000
1680449791.013,-155.273,-20.020,-28.320,785.156,0.000
1680449791.017,-1000.000,-85.938,-31.738,-514.648,0.000
1680449791.021,-784.180,-56.641,-26.367,-1000.000,0.000
1680449791.025,375.977,11.719,-16.113,-210.449,0.000
1680449791.029,964.355,26.367,-23.438,970.215,0.000
1680449791.033,9.766,-13.184,-29.297,-939.453,0.000
1680449791.037,-937.988,-48.828,-28.320,58.594,0.000
1680449791.041,-882.812,-104.980,-28.320,-1000.000,0.000
1680449791.044,241.211,20.508,-25.391,-292.480,0.000
1680449791.048,-945.801,69.336,-31.738,987.793,0.000
1680449791.052,183.105,-21.973,-37.598,-960.449,0.000
1680449791.056,-906.250,-85.938,-37.598,-33.691,0.000
1680449791.060,-924.805,-121.582,-37.109,-1000.000,0.000
1680449791.064,99.609,-28.809,-28.809,-586.426,0.000
1680449791.068,-958.008,62.988,-27.344,746.582,0.000
1680449791.072,473.145,-2.441,-32.227,-851.562,0.000
1680449791.076,-717.773,-110.352,-32.715,151.367,0.000
1680449791.080,-918.457,-84.473,-40.039,-1000.000,0.000
1680449791.084,197.754,32.227,-30.273,-398.438,0.000
1680449791.087,-911.133,34.180,-10.742,914.551,0.000
1680449791.091,463.379,-14.160,-18.555,-891.602,0.000
1680449791.095,-692.871,-80.566,-21.484,186.523,0.000
1680449791.099,-1000.000,-97.656,-18.066,-1000.000,0.000
1680449791.103,-186.523,-23.926,-20.996,-870.117,0.000
1680449791.107,948.730,-1.465,-20.996,401.855,0.000
1680449791.111,630.371,-6.836,-22.949,-806.152,0.000
1680449791.115,-522.461,-29.297,-21.973,395.996,0.000
1680449791.119,-1000.000,-115.234,-19.531,-894.531,0.000
1680449791.123,-437.012,-90.820,-20.020,-1000.000,0.000
1680449791.127,775.391,51.758,-22.949,-72.754,0.000
1680449791.130,758.789,65.918,-20.996,-812.012,0.000
1680449791.134,-438.477,-80.078,-23.438,323.730,0.000
1680449791.138,-1000.000,-131.836,-36.621,-987.305,0.000
1680449791.142,-498.047,-62.988,-29.785,-1000.000,0.000
1680449791.146,738.281,51.758,-22.461,-0.977,0.000
1680449791.150,809.570,67.871,-29.785,-789.551,0.000
1680449791.154,-405.762,-91.309,-37.109,192.383,0.000
1680449791.158,-1000.000,-114.258,-30.273,-1000.000,0.000
1680449791.162,-522.949,-2.930,-21.973,-1000.000,0.000
1680449791.166,649.902,42.480,-24.414,-110.352,0.000
1680449791.169,870.605,16.602,-26.367,-923.340,0.000
1680449791.173,-169.922,-41.016,-25.391,878.906,0.000
1680449791.177,-1000.000,-58.105,-21.973,-366.699,0.000
1680449791.181,-685.547,-62.500,-19.531,-1000.000,0.000
1680449791.185,525.879,10.254,-22.461,-148.438,0.000
1680449791.189,986.328,24.414,-27.832,-962.402,0.000
1680449791.193,44.922,-32.715,-29.297,967.773,0.000
1680449791.197,-964.844,-87.402,-36.133,-216.797,0.000
1680449791.201,-812.500,-99.121,-37.598,-1000.000,0.000
1680449791.205,348.633,22.461,-30.273,-181.152,0.000
1680449791.209,-951.660,96.191,-24.902,991.211,0.000
1680449791.212,172.363,-17.578,-24.902,-946.777,0.000
1680449791.216,-921.387,-111.328,-28.320,72.754,0.000
1680449791.220,-869.141,-84.473,-22.949,-1000.000,0.000
1680449791.224,208.496,3.418,-20.020,-451.660,0.000
1680449791.228,-949.219,27.344,-25.391,916.016,0.000
1680449791.232,242.188,-22.949,-25.391,-936.035,0.000
1680449791.236,-895.996,-99.609,-25.879,-82.031,0.000
1680449791.240,-1000.000,-78.125,-27.344,-1000.000,0.000
1680449791.244,17.090,20.020,-25.879,-434.082,0.000
1680449791.248,-925.293,52.246,-21.973,920.410,0.000
1680449791.252,293.945,-43.945,-27.344,-957.520,0.000
1680449791.255,-895.020,-96.680,-31.738,-141.113,0.000
1680449791.259,-978.516,-69.336,-31.250,-1000.000,0.000
1680449791.263,32.227,7.812,-31.738,-581.543,0.000
1680449791.267,-952.637,76.172,-28.320,725.586,0.000
1680449791.271,599.609,42.969,-27.344,-843.262,0.000
1680449791.275,-558.594,-77.637,-25.391,240.234,0.000
1680449791.279,-1000.000,-148.926,-31.250,-1000.000,0.000
1680449791.283,-285.645,-62.500,-32.715,-910.645,0.000
1680449791.287,917.969,57.129,-26.855,385.254,0.000
1680449791.291,787.598,41.992,-28.320,-840.820,0.000
1680449791.294,-326.172,-55.176,-26.855,615.723,0.000
1680449791.298,-1000.000,-82.031,-25.391,-706.543,0.000
1680449791.302,-427.246,-43.945,-25.391,-1000.000,0.000
1680449791.306,771.484,-4.395,-25.879,23.438,0.000
1680449791.310,885.742,5.371,-29.785,-805.664,0.000
1680449791.314,-236.816,-71.777,-26.367,342.773,0.000
1680449791.318,-1000.000,-104.004,-20.508,-1000.000,0.000
1680449791.322,-354.980,-50.781,-20.996,-1000.000,0.000
1680449791.326,853.516,46.387,-16.113,187.500,0.000
1680449791.330,902.344,33.691,-20.020,-782.227,0.000
1680449791.334,-207.520,-97.656,-27.344,290.039,0.000
1680449791.337,-1000.000,-121.582,-23.438,-943.359,0.000
1680449791.341,-528.809,-53.223,-22.461,-1000.000,0.000
1680449791.345,617.188,8.789,-22.949,-229.980,0.000
1680449791.349,-997.559,56.641,-26.367,-936.523,0.000
1680449791.353,122.559,-19.531,-28.320,849.609,0.000
1680449791.357,-1000.000,-117.188,-23.926,-468.262,0.000
1680449791.361,-680.664,-46.875,-25.879,-1000.000,0.000
1680449791.365,563.477,69.336,-33.691,-130.371,0.000
1680449791.369,-990.234,28.809,-32.715,-891.602,0.000
1680449791.373,82.520,-66.895,-24.414,759.277,0.000
1680449791.377,-1000.000,-129.883,-32.227,-569.824,0.000
1680449791.380,-772.461,-68.848,-34.180,-1000.000,0.000
1680449791.384,426.758,60.059,-27.344,-149.414,0.000
1680449791.388,-958.496,12.695,-31.250,979.004,0.000
1680449791.392,329.102,-43.457,-28.809,-938.477,0.000
1680449791.396,-763.184,-70.801,-28.320,105.469,0.000
1680449791.400,-917.480,-109.375,-22.461,-1000.000,0.000
1680449791.404,58.105,-50.781,-25.879,-827.148,0.000
1680449791.408,-995.605,20.508,-32.227,468.750,0.000
1680449791.412,558.594,29.297,-30.762,-819.336,0.000
1680449791.416,-675.781,-89.355,-31.738,89.844,0.000
1680449791.419,-1000.000,-107.422,-23.926,-1000.000,0.000
1680449791.423,-59.082,-38.086,-21.973,-839.844,0.000
1680449791.427,-998.535,44.922,-26.367,463.867,0.000
1680449791.431,591.309,28.809,-30.273,-803.711,0.000
1680449791.435,-615.234,-83.008,-30.762,144.531,0.000
1680449791.439,-1000.000,-93.750,-33.203,-1000.000,0.000
1680449791.443,-187.988,-10.742,-31.250,-946.777,0.000
1680449791.447,914.551,27.832,-34.668,283.203,0.000
1680449791.451,736.816,35.156,-34.180,-785.156,0.000
1680449791.455,-440.918,-22.461,-32.227,284.668,0.000
1680449791.459,-1000.000,-68.848,-30.273,-958.008,0.000
1680449791.462,-461.426,-46.387,-27.344,-1000.000,0.000
1680449791.466,713.379,1.465,-32.715,-118.652,0.000
1680449791.470,828.125,5.371,-28.320,-810.547,0.000
1680449791.474,-329.590,-78.613,-20.020,285.645,0.000
1680449791.478,-1000.000,-111.328,-22.949,-978.516,0.000
1680449791.482,-506.836,-69.336,-26.367,-1000.000,0.000
1680449791.486,666.504,39.551,-23.926,-222.656,0.000
1680449791.490,875.977,72.266,-22.949,-869.629,0.000
1680449791.494,-212.402,-55.664,-25.879,612.305,0.000
1680449791.498,-1000.000,-117.188,-28.320,-796.875,0.000
1680449791.502,-604.492,-58.105,-32.227,-1000.000,0.000
1680449791.505,671.875,46.387,-29.785,45.410,0.000
1680449791.509,914.062,6.836,-30.762,-822.754,0.000
1680449791.513,-201.172,-90.820,-37.598,546.387,0.000
1680449791.517,-1000.000,-141.602,-37.598,-776.367,0.000
1680449791.521,-693.359,-99.121,-34.180,-1000.000,0.000
1680449791.525,501.465,21.973,-27.344,-219.238,0.000
1680449791.529,-998.047,27.344,-26.855,-879.883,0.000
1680449791.533,-39.551,-88.867,-34.668,625.977,0.000
1680449791.537,-1000.000,-122.559,-38.574,-730.469,0.000
1680449791.541,-794.434,-85.938,-33.691,-1000.000,0.000
1680449791.544,339.355,8.789,-30.762,-267.578,0.000
1680449791.548,-933.105,68.359,-31.738,938.477,0.000
1680449791.552,318.359,31.738,-27.832,-912.109,0.000
1680449791.556,-827.637,-95.215,-30.273,13.184,0.000
1680449791.560,-937.988,-150.879,-35.645,-1000.000,0.000
1680449791.564,-126.465,-91.309,-36.133,-1000.000,0.000
1680449791.568,749.512,7.324,-29.785,-324.707,0.000
1680449791.572,728.027,52.734,-26.855,983.887,0.000
1680449791.576,-293.945,-27.344,-25.391,972.656,0.000
1680449791.580,-164.062,-10.254,-24.414,940.918,0.000
1680449791.584,833.984,36.621,-22.461,933.594,0.000
1680449791.587,986.328,-9.766,-24.414,995.117,0.000
1680449791.591,94.727,-64.453,-30.273,898.438,0.000
1680449791.595,-934.570,-98.145,-26.367,-437.012,0.000
1680449791.599,-983.398,-74.707,-20.020,-1000.000,0.000
1680449791.603,-165.527,-48.828,-26.855,-1000.000,0.000
1680449791.607,868.652,13.672,-30.762,-149.414,0.000
1680449791.611,727.539,6.348,-22.949,-806.641,0.000
1680449791.615,-500.000,-101.074,-30.762,93.262,0.000
1680449791.619,-1000.000,-93.750,-42.969,-1000.000,0.000
1680449791.623,-184.082,-40.039,-40.039,-1000.000,0.000
1680449791.627,821.777,2.441,-39.062,-209.961,0.000
1680449791.630,833.496,55.664,-38.086,-904.785,0.000
1680449791.634,-144.043,-2.930,-37.109,780.273,0.000
1680449791.638,-1000.000,-91.309,-31.250,-575.684,0.000
1680449791.642,-521.973,-55.176,-30.273,-1000.000,0.000
1680449791.646,745.605,43.457,-30.762,11.719,0.000
1680449791.650,886.719,19.043,-36.621,-794.434,0.000
1680449791.654,-253.418,-85.938,-30.273,353.516,0.000
1680449791.658,-1000.000,-122.559,-20.508,-932.617,0.000
1680449791.662,-533.203,-60.059,-35.156,-1000.000,0.000
1680449791.666,639.160,38.086,-33.203,-198.730,0.000
1680449791.669,949.707,32.227,-24.902,-901.855,0.000
1680449791.673,-51.270,-55.664,-24.414,742.676,0.000
1680449791.677,-1000.000,-100.098,-27.832,-592.285,0.000
1680449791.681,-647.461,-74.707,-30.762,-1000.000,0.000
1680449791.685,539.062,5.371,-27.832,-185.059,0.000
1680449791.689,-977.539,39.551,-26.367,-937.500,0.000
1680449791.693,121.094,-15.625,-24.414,862.793,0.000
1680449791.697,-998.047,-118.164,-24.902,-419.434,0.000
1680449791.701,-750.000,-99.121,-21.973,-1000.000,0.000
1680449791.705,430.664,12.207,-21.973,-220.703,0.000
1680449791.709,-942.383,39.062,-27.344,-972.168,0.000
1680449791.712,250.977,-44.922,-26.367,943.848,0.000
1680449791.716,-921.387,-124.023,-29.297,-284.180,0.000
1680449791.720,-833.496,-92.773,-34.668,-1000.000,0.000
1680449791.724,337.402,21.973,-33.691,-271.973,0.000
1680449791.728,-925.293,49.316,-28.809,957.031,0.000
1680449791.732,396.973,-21.484,-32.227,-933.105,0.000
1680449791.736,-785.156,-89.355,-29.297,22.949,0.000
1680449791.740,-923.828,-71.777,-24.414,-1000.000,0.000
1680449791.744,203.125,3.418,-24.902,-347.168,0.000
1680449791.748,-925.293,22.949,-21.484,925.781,0.000
1680449791.752,505.371,-51.758,-28.320,-895.996,0.000
1680449791.755,-645.020,-103.027,-31.250,145.020,0.000
1680449791.759,-999.023,-109.375,-32.227,-1000.000,0.000
1680449791.763,-100.586,-62.988,-35.156,-970.703,0.000
1680449791.767,948.242,28.320,-29.785,247.559,0.000
1680449791.771,681.641,18.555,-31.250,-788.574,0.000
1680449791.775,-513.672,-91.797,-36.133,180.664,0.000
1680449791.779,-1000.000,-129.883,-32.715,-1000.000,0.000
1680449791.783,-216.797,-64.941,-27.832,-945.801,0.000
1680449791.787,932.129,38.574,-29.297,312.500,0.000
1680449791.791,745.605,-1.953,-21.973,-786.133,0.000
1680449791.794,-420.898,-102.539,-18.066,232.422,0.000
1680449791.798,-1000.000,-145.996,-25.391,-1000.000,0.000
1680449791.802,-359.863,-47.363,-27.832,-1000.000,0.000
1680449791.806,832.520,47.852,-27.832,108.398,0.000
1680449791.810,857.422,18.555,-23.926,-786.621,0.000
1680449791.814,-268.066,-81.055,-27.344,331.055,0.000
1680449791.818,-1000.000,-101.074,-20.020,-960.938,0.000
1680449791.822,-485.352,-40.039,-17.090,-1000.000,0.000
1680449791.826,712.402,21.973,-21.484,26.855,0.000
1680449791.830,958.496,40.039,-17.578,-934.082,0.000
1680449791.834,62.012,-12.695,-19.043,939.941,0.000
1680449791.837,-949.707,-106.934,-20.996,-196.777,0.000
1680449791.841,-675.781,-95.215,-22.461,-1000.000,0.000
1680449791.845,507.324,0.000,-18.555,-267.578,0.000
1680449791.849,-985.352,46.387,-19.043,990.723,0.000
1680449791.853,229.980,-19.531,-20.020,-979.492,0.000
1680449791.857,-908.691,-115.234,-24.902,-140.625,0.000
1680449791.861,-701.172,-70.312,-22.461,-1000.000,0.000
1680449791.865,527.832,38.086,-15.625,-191.406,0.000
1680449791.869,-954.102,25.391,-24.902,-921.875,0.000
1680449791.873,253.906,-56.152,-31.250,866.699,0.000
1680449791.877,-924.805,-81.543,-29.785,-412.598,0.000
1680449791.880,-754.395,-37.109,-21.973,-1000.000,0.000
1680449791.884,442.383,5.859,-26.367,-178.711,0.000
1680449791.888,-929.688,36.133,-36.133,991.699,0.000
1680449791.892,416.992,-26.367,-31.738,-960.938,0.000
1680449791.896,-772.461,-103.516,-28.809,-1.465,0.000
1680449791.900,-895.020,-89.844,-29.785,-1000.000,0.000
1680449791.904,219.727,-22.949,-33.691,-623.535,0.000
1680449791.908,-942.383,30.762,-34.668,709.961,0.000
1680449791.912,625.488,10.254,-27.832,-849.609,0.000
1680449791.916,-570.801,-83.008,-31.250,134.277,0.000
1680449791.919,-971.191,-104.980,-31.250,-1000.000,0.000
1680449791.923,125.488,13.672,-21.973,-509.766,0.000
1680449791.927,-937.012,79.102,-19.531,841.797,0.000
1680449791.931,642.090,13.672,-27.344,-865.234,0.000
1680449791.935,-520.996,-89.844,-33.203,148.438,0.000
1680449791.939,-1000.000,-125.977,-35.645,-1000.000,0.000
1680449791.943,-215.820,-26.367,-34.180,-1000.000,0.000
1680449791.947,898.438,65.430,-36.621,146.484,0.000
1680449791.951,678.223,8.789,-44.434,-777.344,0.000
1680449791.955,-521.973,-92.773,-41.504,162.598,0.000
1680449791.959,-1000.000,-106.934,-35.156,-1000.000,0.000
1680449791.962,-410.645,-59.082,-32.227,-1000.000,0.000
1680449791.966,737.793,7.812,-32.715,-114.258,0.000
1680449791.970,853.027,45.410,-36.133,-809.570,0.000
1680449791.974,-285.156,-43.945,-38.086,380.371,0.000
1680449791.978,-1000.000,-138.672,-34.180,-923.828,0.000
1680449791.982,-484.863,-83.496,-29.785,-1000.000,0.000
1680449791.986,638.672,-15.625,-21.973,-260.254,0.000
1680449791.990,975.586,34.180,-20.508,-891.113,0.000
1680449791.994,38.574,-39.062,-22.461,651.367,0.000
1680449791.998,-1000.000,-134.766,-25.391,-762.695,0.000
1680449792.002,-489.258,-45.410,-31.738,-1000.000,0.000
1680449792.005,761.719,61.523,-31.738,31.250,0.000
1680449792.009,982.910,33.203,-37.598,-921.875,0.000
1680449792.013,181.152,-31.738,-41.504,898.438,0.000
1680449792.017,-912.109,-71.289,-28.809,-297.852,0.000
1680449792.021,-674.316,-47.363,-25.391,-1000.000,0.000
1680449792.025,534.668,11.719,-27.832,-267.090,0.000
1680449792.029,-955.078,22.461,-26.367,-958.984,0.000
1680449792.033,268.555,-37.109,-30.273,873.535,0.000
1680449792.037,-905.273,-73.730,-34.668,-412.109,0.000
1680449792.041,-806.152,-54.688,-37.598,-1000.000,0.000
1680449792.044,354.492,6.836,-34.180,-364.746,0.000
1680449792.048,-936.523,72.266,-35.156,899.414,0.000
1680449792.052,435.547,32.715,-39.551,-901.855,0.000
1680449792.056,-741.699,-85.449,-23.926,63.965,0.000
1680449792.060,-920.898,-84.473,-20.508,-1000.000,0.000
1680449792.064,224.609,36.621,-23.926,-271.973,0.000
1680449792.068,-907.227,75.195,-19.043,-992.676,0.000
1680449792.072,364.746,-47.363,-24.902,-977.051,0.000
1680449792.076,-832.520,-163.574,-16.113,-126.953,0.000
1680449792.080,-916.992,-137.695,-12.695,-1000.000,0.000
1680449792.084,67.383,-42.969,-14.160,-919.434,0.000
1680449792.087,976.562,19.531,-10.742,290.527,0.000
1680449792.091,641.113,-16.113,-17.090,-795.898,0.000
1680449792.095,-567.383,-106.445,-20.508,99.121,0.000
1680449792.099,-1000.000,-86.914,-15.625,-1000.000,0.000
1680449792.103,-83.008,-33.691,-10.254,-874.512,0.000
1680449792.107,966.309,11.719,-7.324,434.570,0.000
1680449792.111,685.059,11.230,-11.719,-933.594,0.000
1680449792.115,-309.570,-17.578,-15.137,921.387,0.000
1680449792.119,-964.844,-84.473,-7.324,-157.227,0.000
1680449792.123,-561.523,-128.418,-7.324,-1000.000,0.000
1680449792.126,605.957,-44.922,-18.555,-291.016,0.000
1680449792.130,898.438,18.555,-19.531,-851.562,0.000
1680449792.134,-207.520,-82.031,-15.625,356.934,0.000
1680449792.138,-1000.000,-161.621,-14.648,-1000.000,0.000
1680449792.142,-384.766,-44.434,-13.672,-943.848,0.000
1680449792.146,875.000,80.566,-14.160,341.309,0.000
1680449792.150,846.191,17.578,-24.902,-822.754,0.000
1680449792.154,-244.141,-82.520,-31.738,542.969,0.000
1680449792.158,-1000.000,-87.891,-24.414,-750.000,0.000
1680449792.162,-562.012,-43.457,-23.926,-1000.000,0.000
1680449792.166,604.492,-23.438,-22.461,-153.809,0.000
1680449792.169,989.258,18.555,-19.043,-902.344,0.000
1680449792.173,41.992,-36.621,-26.855,762.695,0.000
1680449792.177,-1000.000,-126.465,-29.297,-559.570,0.000
1680449792.181,-658.203,-86.914,-19.531,-1000.000,0.000
1680449792.185,541.016,8.301,-16.113,-166.504,0.000
1680449792.189,-989.258,28.809,-22.949,990.723,0.000
1680449792.193,283.203,-6.836,-28.320,-952.148,0.000
1680449792.197,-814.453,-89.355,-27.832,11.230,0.000
1680449792.201,-803.711,-112.793,-25.879,-1000.000,0.000
1680449792.205,398.926,37.109,-21.484,-210.449,0.000
1680449792.209,-954.102,68.848,-21.484,-965.332,0.000
1680449792.212,257.812,-41.992,-24.902,995.605,0.000
1680449792.216,-865.234,-124.512,-33.691,-155.273,0.000
1680449792.220,-867.676,-111.328,-35.156,-1000.000,0.000
1680449792.224,295.410,39.551,-25.879,-260.254,0.000
1680449792.228,-936.035,86.426,-30.273,963.867,0.000
1680449792.232,302.246,-24.414,-37.598,-933.105,0.000
1680449792.236,-817.871,-84.473,-36.621,72.754,0.000
1680449792.240,-960.938,-77.148,-34.668,-1000.000,0.000
1680449792.244,74.219,-9.277,-30.762,-534.180,0.000
1680449792.248,-950.684,19.043,-35.645,806.152,0.000
1680449792.251,527.832,-3.418,-39.062,-865.234,0.000
1680449792.255,-628.906,-62.500,-16.602,172.363,0.000
1680449792.259,-1000.000,-123.047,-6.836,-1000.000,0.000
1680449792.263,-93.262,-4.395,-21.484,-712.891,0.000
1680449792.267,-992.676,71.289,-24.414,637.207,0.000
1680449792.271,649.902,12.207,-18.066,-829.590,0.000
1680449792.275,-507.324,-56.641,-19.043,252.441,0.000
1680449792.279,-1000.000,-104.492,-23.438,-1000.000,0.000
1680449792.283,-334.961,-29.297,-20.996,-889.648,0.000
1680449792.287,911.133,82.031,-22.949,425.781,0.000
1680449792.291,718.262,27.832,-35.645,-793.457,0.000
1680449792.294,-491.699,-95.703,-40.527,235.840,0.000
1680449792.298,-1000.000,-80.078,-28.320,-964.844,0.000
1680449792.302,-423.340,-14.160,-16.113,-1000.000,0.000
1680449792.306,669.922,3.418,-21.973,-166.992,0.000
1680449792.310,807.617,1.953,-23.438,-915.039,0.000
1680449792.314,-206.055,-35.645,-19.531,816.895,0.000
1680449792.318,-1000.000,-48.340,-21.973,-479.980,0.000
1680449792.322,-624.512,-46.875,-20.020,-1000.000,0.000
1680449792.326,575.684,17.090,-15.625,-167.969,0.000
1680449792.330,945.801,57.129,-18.066,-949.707,0.000
1680449792.334,6.836,-12.207,-24.902,914.062,0.000
1680449792.337,-987.793,-92.285,-27.832,-328.613,0.000
1680449792.341,-685.547,-58.594,-25.879,-1000.000,0.000
1680449792.345,509.277,36.133,-18.555,-221.191,0.000
1680449792.349,976.562,53.711,-23.438,-861.328,0.000
1680449792.353,-57.617,-73.730,-27.832,587.891,0.000
1680449792.357,-1000.000,-134.766,-18.066,-778.320,0.000
1680449792.361,-728.516,-73.242,-18.555,-1000.000,0.000
1680449792.365,427.246,29.785,-24.902,-242.188,0.000
1680449792.369,-951.172,57.129,-28.320,-945.312,0.000
1680449792.373,179.688,-34.668,-34.180,841.309,0.000
1680449792.376,-982.422,-122.559,-37.598,-475.098,0.000
1680449792.380,-772.949,-53.223,-28.809,-1000.000,0.000
1680449792.384,416.992,49.805,-29.297,-193.848,0.000
1680449792.388,-955.566,37.598,-31.738,961.426,0.000
1680449792.392,368.164,-18.555,-29.785,-924.805,0.000
1680449792.396,-724.609,-59.570,-30.273,165.039,0.000
1680449792.400,-927.246,-93.262,-33.203,-1000.000,0.000
1680449792.404,136.719,-36.621,-28.809,-525.879,0.000
1680449792.408,-935.059,13.672,-22.461,830.566,0.000
1680449792.412,559.082,-12.207,-29.297,-875.488,0.000
